

 Wavenumbers:   820. - 50000. cm-1, ATM      1
 LEVEL PRESSURE   UPWARD FLUX   DIFDOWN FLUX  DIRDOWN FLUX  DOWNWARD FLUX   NET FLUX    HEATING RATE
          mb          W/m2          W/m2          W/m2        W/m2          W/m2       degree/day
  60   .000300       55.2665        0.0000      465.4378      465.4378     410.171298       0.00000
  59    0.1000       55.2594        0.0094      465.3373      465.3467     410.087237       7.11541
  58    0.1403       55.2566        0.0131      465.2822      465.2954     410.038711      10.16168
  57    0.1968       55.2528        0.0184      465.1913      465.2097     409.956932      12.21491
  56    0.2760       55.2476        0.0257      465.0446      465.0703     409.822672      14.30613
  55    0.3871       55.2405        0.0358      464.8173      464.8531     409.612636      15.95428
  54    0.5430       55.2309        0.0497      464.4765      464.5261     409.295258      17.18025
  53    0.7617       55.2181        0.0686      463.9685      464.0371     408.818984      18.37834
  52     1.069       55.2014        0.0943      463.2636      463.3578     408.156432      18.22481
  51     1.499       55.1802        0.1286      462.3990      462.5276     407.347363      15.86766
  50     2.102       55.1546        0.1748      461.4269      461.6016     406.447013      12.58811
  49     2.949       55.1243        0.2392      460.3270      460.5662     405.441873      10.01952
  48     4.137       55.0897        0.3283      459.0806      459.4090     404.319297       7.97708
  47     5.803       55.0474        0.4515      457.6905      458.1420     403.094608       6.20405
  46     8.139       54.9883        0.6221      456.1448      456.7669     401.778635       4.75272
  45     11.42       54.8979        0.8585      454.4139      455.2723     400.374401       3.61539
  44     16.01       54.7591        1.1852      452.4239      453.6091     398.849950       2.79815
  43     22.46       54.5480        1.6367      450.0774      451.7141     397.166123       2.20335
  42     31.51       54.2219        2.2598      447.3363      449.5961     395.374207       1.67161
  41     44.20       53.7143        3.1199      444.1919      447.3118     393.597409       1.18164
  40     62.00       52.9575        4.2934      440.4971      444.7905     391.833013       0.83653
  39     85.78       51.8878        5.8210      436.3510      442.1720     390.284203       0.54976
  38     109.5       50.7775        7.3291      432.5872      439.9163     389.138808       0.40657
  37     133.1       49.7124        8.7377      429.1667      437.9044     388.192012       0.34001
  36     156.8       48.6833       10.0688      425.9724      436.0411     387.357824       0.29580
  35     180.6       47.5950       11.4442      422.6757      434.1199     386.524911       0.29570
  34     202.8       46.5520       12.7321      419.4727      432.2048     385.652827       0.33111
  33     228.4       45.4963       14.0093      416.0161      430.0254     384.529097       0.37076
  32     252.2       44.4469       15.2542      412.2651      427.5194     383.072517       0.51703
  31     276.0       43.4183       16.4504      408.2077      424.6581     381.239760       0.65055
  30     299.8       42.3906       17.6228      403.7685      421.3913     379.000734       0.79476
  29     323.5       41.3699       18.7650      399.0796      417.8447     376.474744       0.89662
  28     347.3       40.3674       19.8658      394.2231      414.0889     373.721452       0.97731
  27     371.1       39.3863       20.9229      389.2973      410.2202     370.833887       1.02497
  26     394.9       38.4001       21.9654      384.1797      406.1451     367.744981       1.09643
  25     418.6       37.4248       22.9766      379.0173      401.9939     364.569117       1.12730
  24     442.4       36.4587       23.9588      373.8385      397.7974     361.338701       1.14666
  23     466.2       35.4983       24.9162      368.7002      393.6164     358.118090       1.14318
  22     489.9       34.5566       25.8365      363.6637      389.5002     354.943556       1.12683
  21     513.7       33.6172       26.7364      358.6186      385.3550     351.737730       1.13794
  20     537.5       32.6943       27.6028      353.6323      381.2351     348.540854       1.13476
  19     561.3       31.7859       28.4384      348.6988      377.1372     345.351269       1.13217
  18     585.0       30.8724       29.2616      343.7664      373.0280     342.155660       1.13431
  17     608.8       29.9749       30.0539      338.9696      369.0235     339.048572       1.10289
  16     632.6       29.0930       30.8164      334.2916      365.1080     336.015017       1.07679
  15     656.4       28.2086       31.5650      329.5856      361.1506     332.942028       1.09078
  14     680.1       27.3394       32.2849      324.8960      357.1809     329.841460       1.10057
  13     703.9       26.4852       32.9770      320.2149      353.1919     326.706728       1.11270
  12     727.7       25.6332       33.6521      315.4521      349.1042     323.470992       1.14855
  11     751.5       24.7841       34.3097      310.5613      344.8710     320.086909       1.20121
  10     775.2       23.9486       34.9416      305.6060      340.5476     316.599029       1.23805
   9     799.0       23.1272       35.5484      300.6037      336.1522     313.024997       1.26863
   8     822.8       22.3065       36.1406      295.5777      331.7183     309.411842       1.28252
   7     846.6       21.4949       36.7134      290.7823      327.4957     306.000769       1.21079
   6     870.4       20.6968       37.2644      286.2189      323.4833     302.786510       1.14093
   5     894.1       19.9119       37.7944      281.8536      319.6481     299.736127       1.08276
   4     917.9       19.1321       38.3096      277.6098      315.9194     296.787353       1.04669
   3     941.7       18.3604       38.8080      273.4707      312.2788     293.918366       1.01837
   2     965.5       17.6034       39.2865      269.4515      308.7381     291.134716       0.98808
   1     989.2       16.8614       39.7457      265.5436      305.2893     288.427885       0.96061
   0    1013.0       16.1352       40.1861      261.7377      301.9238     285.788602       0.93703



 Wavenumbers:  2600. -  3250. cm-1, ATM      1
 LEVEL PRESSURE   UPWARD FLUX   DIFDOWN FLUX  DIRDOWN FLUX  DOWNWARD FLUX   NET FLUX    HEATING RATE
          mb          W/m2          W/m2          W/m2        W/m2          W/m2       degree/day
  60   .000300        0.0303        0.0000        4.1021        4.1021       4.071772       0.00000
  59    0.1000        0.0303        0.0000        4.1020        4.1020       4.071700       0.00613
  58    0.1403        0.0303        0.0000        4.1020        4.1020       4.071671       0.00613
  57    0.1968        0.0303        0.0000        4.1020        4.1020       4.071630       0.00615
  56    0.2760        0.0303        0.0000        4.1019        4.1019       4.071572       0.00611
  55    0.3871        0.0303        0.0000        4.1018        4.1018       4.071488       0.00639
  54    0.5430        0.0303        0.0000        4.1017        4.1017       4.071364       0.00674
  53    0.7617        0.0303        0.0000        4.1015        4.1015       4.071168       0.00754
  52     1.069        0.0303        0.0000        4.1012        4.1012       4.070843       0.00895
  51     1.499        0.0303        0.0000        4.1006        4.1006       4.070248       0.01167
  50     2.102        0.0303        0.0000        4.0995        4.0995       4.069199       0.01466
  49     2.949        0.0303        0.0000        4.0977        4.0977       4.067428       0.01766
  48     4.137        0.0303        0.0000        4.0950        4.0950       4.064724       0.01921
  47     5.803        0.0303        0.0000        4.0913        4.0913       4.061017       0.01878
  46     8.139        0.0303        0.0000        4.0868        4.0868       4.056454       0.01648
  45     11.42        0.0303        0.0000        4.0817        4.0817       4.051388       0.01304
  44     16.01        0.0303        0.0000        4.0764        4.0764       4.046095       0.00971
  43     22.46        0.0303        0.0000        4.0704        4.0704       4.040075       0.00788
  42     31.51        0.0303        0.0000        4.0618        4.0618       4.031524       0.00798
  41     44.20        0.0303        0.0000        4.0471        4.0471       4.016787       0.00980
  40     62.00        0.0303        0.0000        4.0221        4.0221       3.991807       0.01184
  39     85.78        0.0303        0.0000        3.9856        3.9856       3.955293       0.01296
  38     109.5        0.0303        0.0000        3.9481        3.9481       3.917832       0.01330
  37     133.1        0.0303        0.0000        3.9150        3.9151       3.884794       0.01186
  36     156.8        0.0303        0.0001        3.8864        3.8865       3.856196       0.01014
  35     180.6        0.0303        0.0001        3.8596        3.8596       3.829350       0.00953
  34     202.8        0.0303        0.0001        3.8359        3.8360       3.805717       0.00897
  33     228.4        0.0303        0.0001        3.8117        3.8118       3.781548       0.00797
  32     252.2        0.0303        0.0001        3.7854        3.7855       3.755217       0.00935
  31     276.0        0.0303        0.0001        3.7565        3.7566       3.726334       0.01025
  30     299.8        0.0303        0.0001        3.7224        3.7225       3.692219       0.01211
  29     323.5        0.0303        0.0001        3.6815        3.6816       3.651282       0.01453
  28     347.3        0.0303        0.0001        3.6322        3.6323       3.602037       0.01748
  27     371.1        0.0303        0.0001        3.5749        3.5750       3.544721       0.02034
  26     394.9        0.0304        0.0001        3.5074        3.5075       3.477126       0.02399
  25     418.6        0.0304        0.0001        3.4307        3.4308       3.400438       0.02722
  24     442.4        0.0304        0.0001        3.3453        3.3454       3.314963       0.03034
  23     466.2        0.0305        0.0001        3.2544        3.2545       3.224066       0.03226
  22     489.9        0.0305        0.0001        3.1609        3.1610       3.130478       0.03322
  21     513.7        0.0306        0.0001        3.0641        3.0642       3.033636       0.03437
  20     537.5        0.0307        0.0002        2.9665        2.9667       2.936013       0.03465
  19     561.3        0.0308        0.0002        2.8701        2.8702       2.839425       0.03428
  18     585.0        0.0309        0.0002        2.7748        2.7749       2.744041       0.03386
  17     608.8        0.0310        0.0002        2.6828        2.6829       2.651897       0.03271
  16     632.6        0.0312        0.0002        2.5928        2.5930       2.561804       0.03198
  15     656.4        0.0313        0.0002        2.5010        2.5012       2.469892       0.03262
  14     680.1        0.0315        0.0002        2.4076        2.4078       2.376290       0.03322
  13     703.9        0.0317        0.0002        2.3124        2.3126       2.280888       0.03386
  12     727.7        0.0320        0.0002        2.2140        2.2141       2.182173       0.03504
  11     751.5        0.0323        0.0002        2.1116        2.1118       2.079494       0.03645
  10     775.2        0.0326        0.0002        2.0075        2.0076       1.975006       0.03709
   9     799.0        0.0331        0.0002        1.9029        1.9031       1.870033       0.03726
   8     822.8        0.0336        0.0002        1.8000        1.8002       1.766580       0.03672
   7     846.6        0.0342        0.0001        1.7054        1.7055       1.671385       0.03379
   6     870.4        0.0348        0.0001        1.6183        1.6184       1.583629       0.03115
   5     894.1        0.0355        0.0001        1.5375        1.5376       1.502127       0.02893
   4     917.9        0.0363        0.0001        1.4611        1.4612       1.424919       0.02741
   3     941.7        0.0372        0.0001        1.3880        1.3882       1.350930       0.02626
   2     965.5        0.0383        0.0001        1.3182        1.3183       1.280039       0.02516
   1     989.2        0.0395        0.0001        1.2514        1.2515       1.212057       0.02413
   0    1013.0        0.0409        0.0001        1.1875        1.1876       1.146727       0.02319



 Wavenumbers:  3250. -  4000. cm-1, ATM      1
 LEVEL PRESSURE   UPWARD FLUX   DIFDOWN FLUX  DIRDOWN FLUX  DOWNWARD FLUX   NET FLUX    HEATING RATE
          mb          W/m2          W/m2          W/m2        W/m2          W/m2       degree/day
  60   .000300        0.0004        0.0000        6.9155        6.9155       6.915086       0.00000
  59    0.1000        0.0004        0.0000        6.9012        6.9012       6.900807       1.20869
  58    0.1403        0.0004        0.0000        6.8987        6.8987       6.898243       0.53675
  57    0.1968        0.0004        0.0000        6.8957        6.8957       6.895287       0.44161
  56    0.2760        0.0004        0.0000        6.8923        6.8923       6.891833       0.36801
  55    0.3871        0.0004        0.0000        6.8879        6.8879       6.887457       0.33241
  54    0.5430        0.0004        0.0000        6.8821        6.8821       6.881708       0.31122
  53    0.7617        0.0004        0.0000        6.8746        6.8746       6.874205       0.28950
  52     1.069        0.0004        0.0000        6.8656        6.8656       6.865132       0.24958
  51     1.499        0.0004        0.0000        6.8555        6.8555       6.855057       0.19759
  50     2.102        0.0004        0.0000        6.8443        6.8443       6.843895       0.15605
  49     2.949        0.0004        0.0000        6.8311        6.8311       6.830619       0.13235
  48     4.137        0.0004        0.0000        6.8139        6.8139       6.813461       0.12193
  47     5.803        0.0004        0.0000        6.7900        6.7900       6.789576       0.12099
  46     8.139        0.0004        0.0000        6.7554        6.7555       6.755024       0.12479
  45     11.42        0.0004        0.0000        6.7052        6.7052       6.704780       0.12936
  44     16.01        0.0004        0.0000        6.6335        6.6335       6.633076       0.13161
  43     22.46        0.0004        0.0000        6.5369        6.5369       6.536481       0.12640
  42     31.51        0.0004        0.0000        6.4185        6.4185       6.418146       0.11039
  41     44.20        0.0004        0.0001        6.2828        6.2828       6.282446       0.09025
  40     62.00        0.0004        0.0001        6.1167        6.1168       6.116440       0.07871
  39     85.78        0.0003        0.0001        5.9066        5.9067       5.906418       0.07455
  38     109.5        0.0003        0.0001        5.7006        5.7008       5.700456       0.07311
  37     133.1        0.0003        0.0002        5.5231        5.5232       5.522957       0.06374
  36     156.8        0.0003        0.0002        5.3631        5.3633       5.363015       0.05672
  35     180.6        0.0002        0.0002        5.1917        5.1919       5.191641       0.06084
  34     202.8        0.0002        0.0002        4.9901        4.9903       4.990076       0.07653
  33     228.4        0.0002        0.0002        4.7434        4.7436       4.743434       0.08138
  32     252.2        0.0002        0.0002        4.4691        4.4694       4.469238       0.09733
  31     276.0        0.0001        0.0003        4.1659        4.1662       4.166037       0.10762
  30     299.8        0.0001        0.0003        3.8172        3.8175       3.817379       0.12376
  29     323.5        0.0001        0.0003        3.4412        3.4415       3.441372       0.13347
  28     347.3        0.0001        0.0002        3.0699        3.0701       3.070042       0.13181
  27     371.1        0.0001        0.0002        2.7377        2.7380       2.737893       0.11790
  26     394.9        0.0001        0.0002        2.4368        2.4370       2.436946       0.10682
  25     418.6        0.0001        0.0002        2.1717        2.1719       2.171846       0.09410
  24     442.4        0.0000        0.0002        1.9340        1.9342       1.934167       0.08437
  23     466.2        0.0000        0.0002        1.7204        1.7206       1.720548       0.07583
  22     489.9        0.0000        0.0002        1.5281        1.5283       1.528268       0.06825
  21     513.7        0.0000        0.0002        1.3491        1.3493       1.349272       0.06354
  20     537.5        0.0000        0.0002        1.1830        1.1832       1.183153       0.05897
  19     561.3        0.0000        0.0001        1.0269        1.0270       1.027031       0.05542
  18     585.0        0.0000        0.0001        0.8796        0.8797       0.879676       0.05230
  17     608.8        0.0000        0.0001        0.7459        0.7460       0.746026       0.04744
  16     632.6        0.0000        0.0001        0.6265        0.6266       0.626619       0.04238
  15     656.4        0.0000        0.0001        0.5176        0.5177       0.517680       0.03867
  14     680.1        0.0000        0.0001        0.4200        0.4201       0.420092       0.03464
  13     703.9        0.0000        0.0001        0.3330        0.3331       0.333113       0.03087
  12     727.7        0.0000        0.0001        0.2548        0.2549       0.254906       0.02776
  11     751.5        0.0000        0.0000        0.1849        0.1850       0.184978       0.02482
  10     775.2        0.0000        0.0000        0.1260        0.1261       0.126053       0.02092
   9     799.0        0.0000        0.0000        0.0796        0.0796       0.079584       0.01649
   8     822.8        0.0000        0.0000        0.0461        0.0461       0.046091       0.01189
   7     846.6        0.0000        0.0000        0.0253        0.0253       0.025267       0.00739
   6     870.4        0.0000        0.0000        0.0131        0.0131       0.013129       0.00431
   5     894.1        0.0000        0.0000        0.0064        0.0064       0.006431       0.00238
   4     917.9        0.0000        0.0000        0.0029        0.0029       0.002928       0.00124
   3     941.7        0.0000        0.0000        0.0012        0.0012       0.001227       0.00060
   2     965.5        0.0000        0.0000        0.0005        0.0005       0.000473       0.00027
   1     989.2        0.0000        0.0000        0.0002        0.0002       0.000167       0.00011
   0    1013.0        0.0000        0.0000        0.0001        0.0001       0.000052       0.00004



 Wavenumbers:  4000. -  4650. cm-1, ATM      1
 LEVEL PRESSURE   UPWARD FLUX   DIFDOWN FLUX  DIRDOWN FLUX  DOWNWARD FLUX   NET FLUX    HEATING RATE
          mb          W/m2          W/m2          W/m2        W/m2          W/m2       degree/day
  60   .000300        0.1460        0.0000        8.1209        8.1209       7.974959       0.00000
  59    0.1000        0.1460        0.0000        8.1209        8.1209       7.974950       0.00076
  58    0.1403        0.1460        0.0000        8.1209        8.1209       7.974946       0.00076
  57    0.1968        0.1460        0.0000        8.1209        8.1209       7.974941       0.00077
  56    0.2760        0.1460        0.0000        8.1209        8.1209       7.974934       0.00076
  55    0.3871        0.1460        0.0000        8.1209        8.1209       7.974924       0.00080
  54    0.5430        0.1460        0.0000        8.1209        8.1209       7.974908       0.00085
  53    0.7617        0.1460        0.0000        8.1208        8.1208       7.974883       0.00095
  52     1.069        0.1460        0.0000        8.1208        8.1208       7.974842       0.00114
  51     1.499        0.1460        0.0000        8.1207        8.1207       7.974765       0.00151
  50     2.102        0.1460        0.0000        8.1206        8.1206       7.974624       0.00197
  49     2.949        0.1460        0.0000        8.1203        8.1203       7.974371       0.00252
  48     4.137        0.1459        0.0000        8.1199        8.1199       7.973943       0.00304
  47     5.803        0.1459        0.0000        8.1192        8.1192       7.973254       0.00349
  46     8.139        0.1459        0.0000        8.1181        8.1181       7.972179       0.00388
  45     11.42        0.1459        0.0000        8.1164        8.1164       7.970528       0.00425
  44     16.01        0.1459        0.0001        8.1139        8.1139       7.968039       0.00457
  43     22.46        0.1459        0.0001        8.1102        8.1102       7.964356       0.00482
  42     31.51        0.1459        0.0001        8.1046        8.1048       7.958900       0.00509
  41     44.20        0.1458        0.0002        8.0961        8.0962       7.950407       0.00565
  40     62.00        0.1458        0.0002        8.0830        8.0832       7.937434       0.00615
  39     85.78        0.1457        0.0003        8.0648        8.0651       7.919438       0.00639
  38     109.5        0.1456        0.0004        8.0455        8.0459       7.900267       0.00681
  37     133.1        0.1455        0.0005        8.0269        8.0273       7.881797       0.00663
  36     156.8        0.1455        0.0005        8.0087        8.0092       7.863771       0.00639
  35     180.6        0.1454        0.0006        7.9890        7.9896       7.844253       0.00693
  34     202.8        0.1453        0.0007        7.9690        7.9697       7.824393       0.00754
  33     228.4        0.1453        0.0008        7.9464        7.9472       7.801892       0.00742
  32     252.2        0.1452        0.0009        7.9207        7.9215       7.776338       0.00907
  31     276.0        0.1452        0.0010        7.8914        7.8924       7.747214       0.01034
  30     299.8        0.1451        0.0010        7.8568        7.8578       7.712673       0.01226
  29     323.5        0.1451        0.0011        7.8153        7.8165       7.671349       0.01467
  28     347.3        0.1451        0.0012        7.7654        7.7666       7.621525       0.01769
  27     371.1        0.1451        0.0013        7.7079        7.7092       7.564085       0.02039
  26     394.9        0.1451        0.0013        7.6413        7.6426       7.497533       0.02362
  25     418.6        0.1451        0.0014        7.5679        7.5693       7.424219       0.02602
  24     442.4        0.1452        0.0015        7.4896        7.4910       7.345868       0.02781
  23     466.2        0.1452        0.0015        7.4091        7.4106       7.265432       0.02855
  22     489.9        0.1452        0.0016        7.3287        7.3303       7.185012       0.02855
  21     513.7        0.1453        0.0017        7.2462        7.2479       7.102598       0.02925
  20     537.5        0.1454        0.0017        7.1614        7.1631       7.017758       0.03011
  19     561.3        0.1455        0.0018        7.0718        7.0735       6.928036       0.03185
  18     585.0        0.1456        0.0018        6.9746        6.9764       6.830801       0.03451
  17     608.8        0.1458        0.0019        6.8715        6.8734       6.727642       0.03662
  16     632.6        0.1459        0.0019        6.7623        6.7642       6.618284       0.03882
  15     656.4        0.1462        0.0020        6.6440        6.6460       6.499845       0.04204
  14     680.1        0.1464        0.0020        6.5188        6.5208       6.374416       0.04452
  13     703.9        0.1467        0.0020        6.3883        6.3903       6.243644       0.04642
  12     727.7        0.1471        0.0021        6.2521        6.2542       6.107110       0.04846
  11     751.5        0.1475        0.0021        6.1100        6.1121       5.964584       0.05059
  10     775.2        0.1481        0.0021        5.9654        5.9675       5.819384       0.05154
   9     799.0        0.1488        0.0021        5.8193        5.8214       5.672653       0.05208
   8     822.8        0.1496        0.0021        5.6735        5.6757       5.526051       0.05204
   7     846.6        0.1506        0.0022        5.5367        5.5388       5.388270       0.04891
   6     870.4        0.1516        0.0022        5.4076        5.4098       5.258148       0.04619
   5     894.1        0.1528        0.0022        5.2839        5.2861       5.133249       0.04433
   4     917.9        0.1542        0.0022        5.1628        5.1650       5.010835       0.04345
   3     941.7        0.1557        0.0022        5.0435        5.0457       4.889975       0.04290
   2     965.5        0.1575        0.0022        4.9263        4.9286       4.771097       0.04220
   1     989.2        0.1595        0.0022        4.8119        4.8142       4.654673       0.04132
   0    1013.0        0.1618        0.0022        4.7006        4.7029       4.541035       0.04035



 Wavenumbers:  4650. -  5150. cm-1, ATM      1
 LEVEL PRESSURE   UPWARD FLUX   DIFDOWN FLUX  DIRDOWN FLUX  DOWNWARD FLUX   NET FLUX    HEATING RATE
          mb          W/m2          W/m2          W/m2        W/m2          W/m2       degree/day
  60   .000300        0.1042        0.0000        7.6868        7.6868       7.582652       0.00000
  59    0.1000        0.1042        0.0000        7.6847        7.6847       7.580561       0.17703
  58    0.1403        0.1042        0.0000        7.6839        7.6839       7.579746       0.17056
  57    0.1968        0.1042        0.0000        7.6828        7.6828       7.578627       0.16713
  56    0.2760        0.1042        0.0000        7.6813        7.6813       7.577125       0.16006
  55    0.3871        0.1042        0.0000        7.6793        7.6793       7.575105       0.15344
  54    0.5430        0.1042        0.0000        7.6766        7.6766       7.572466       0.14286
  53    0.7617        0.1042        0.0000        7.6733        7.6733       7.569080       0.13064
  52     1.069        0.1042        0.0000        7.6690        7.6690       7.564857       0.11618
  51     1.499        0.1042        0.0000        7.6641        7.6641       7.559893       0.09735
  50     2.102        0.1042        0.0000        7.6586        7.6586       7.554400       0.07680
  49     2.949        0.1042        0.0000        7.6527        7.6527       7.548579       0.05803
  48     4.137        0.1042        0.0000        7.6469        7.6470       7.542806       0.04102
  47     5.803        0.1041        0.0000        7.6412        7.6412       7.537055       0.02913
  46     8.139        0.1041        0.0000        7.6347        7.6347       7.530593       0.02334
  45     11.42        0.1041        0.0001        7.6259        7.6260       7.521870       0.02246
  44     16.01        0.1041        0.0001        7.6126        7.6127       7.508602       0.02435
  43     22.46        0.1041        0.0001        7.5914        7.5916       7.487506       0.02761
  42     31.51        0.1040        0.0002        7.5575        7.5577       7.453638       0.03159
  41     44.20        0.1040        0.0002        7.5045        7.5047       7.400789       0.03515
  40     62.00        0.1039        0.0003        7.4267        7.4270       7.323167       0.03680
  39     85.78        0.1038        0.0005        7.3270        7.3275       7.223730       0.03530
  38     109.5        0.1037        0.0006        7.2378        7.2384       7.134706       0.03160
  37     133.1        0.1036        0.0007        7.1638        7.1645       7.060904       0.02650
  36     156.8        0.1035        0.0008        7.1003        7.1011       6.997600       0.02245
  35     180.6        0.1034        0.0009        7.0385        7.0394       6.936016       0.02186
  34     202.8        0.1033        0.0010        6.9815        6.9826       6.879282       0.02154
  33     228.4        0.1032        0.0011        6.9232        6.9244       6.821182       0.01917
  32     252.2        0.1031        0.0013        6.8628        6.8641       6.760959       0.02138
  31     276.0        0.1031        0.0014        6.7995        6.8009       6.697796       0.02242
  30     299.8        0.1030        0.0015        6.7297        6.7312       6.628214       0.02470
  29     323.5        0.1030        0.0016        6.6528        6.6544       6.551417       0.02726
  28     347.3        0.1029        0.0017        6.5704        6.5720       6.469091       0.02922
  27     371.1        0.1029        0.0018        6.4824        6.4842       6.381259       0.03118
  26     394.9        0.1029        0.0019        6.3873        6.3891       6.286184       0.03375
  25     418.6        0.1029        0.0019        6.2863        6.2882       6.185288       0.03581
  24     442.4        0.1030        0.0020        6.1795        6.1815       6.078562       0.03788
  23     466.2        0.1030        0.0021        6.0683        6.0704       5.967374       0.03947
  22     489.9        0.1031        0.0022        5.9543        5.9565       5.853331       0.04048
  21     513.7        0.1032        0.0022        5.8367        5.8389       5.735674       0.04176
  20     537.5        0.1033        0.0023        5.7173        5.7196       5.616297       0.04237
  19     561.3        0.1035        0.0024        5.5964        5.5988       5.495297       0.04295
  18     585.0        0.1037        0.0024        5.4738        5.4762       5.372522       0.04358
  17     608.8        0.1039        0.0025        5.3530        5.3555       5.251586       0.04293
  16     632.6        0.1041        0.0025        5.2342        5.2367       5.132586       0.04224
  15     656.4        0.1044        0.0025        5.1141        5.1166       5.012172       0.04274
  14     680.1        0.1048        0.0026        4.9949        4.9975       4.892713       0.04240
  13     703.9        0.1052        0.0026        4.8770        4.8796       4.774445       0.04198
  12     727.7        0.1056        0.0026        4.7580        4.7606       4.655011       0.04239
  11     751.5        0.1062        0.0027        4.6366        4.6393       4.533084       0.04328
  10     775.2        0.1068        0.0027        4.5137        4.5164       4.409580       0.04384
   9     799.0        0.1076        0.0027        4.3891        4.3918       4.284178       0.04451
   8     822.8        0.1084        0.0027        4.2658        4.2686       4.160123       0.04403
   7     846.6        0.1094        0.0027        4.1485        4.1512       4.041862       0.04198
   6     870.4        0.1104        0.0027        4.0371        4.0398       3.929403       0.03992
   5     894.1        0.1115        0.0027        3.9311        3.9338       3.822349       0.03800
   4     917.9        0.1127        0.0028        3.8290        3.8317       3.718993       0.03669
   3     941.7        0.1141        0.0028        3.7303        3.7331       3.618979       0.03550
   2     965.5        0.1156        0.0028        3.6356        3.6383       3.522758       0.03415
   1     989.2        0.1172        0.0028        3.5447        3.5474       3.430169       0.03286
   0    1013.0        0.1191        0.0028        3.4572        3.4600       3.340867       0.03171



 Wavenumbers:  5150. -  6150. cm-1, ATM      1
 LEVEL PRESSURE   UPWARD FLUX   DIFDOWN FLUX  DIRDOWN FLUX  DOWNWARD FLUX   NET FLUX    HEATING RATE
          mb          W/m2          W/m2          W/m2        W/m2          W/m2       degree/day
  60   .000300        0.2873        0.0000       19.2709       19.2709      18.983613       0.00000
  59    0.1000        0.2873        0.0000       19.2704       19.2704      18.983118       0.04195
  58    0.1403        0.2873        0.0000       19.2702       19.2702      18.982918       0.04185
  57    0.1968        0.2873        0.0000       19.2699       19.2699      18.982637       0.04199
  56    0.2760        0.2873        0.0000       19.2695       19.2695      18.982247       0.04153
  55    0.3871        0.2873        0.0000       19.2690       19.2690      18.981700       0.04158
  54    0.5430        0.2873        0.0000       19.2682       19.2682      18.980938       0.04122
  53    0.7617        0.2873        0.0000       19.2671       19.2672      18.979877       0.04094
  52     1.069        0.2873        0.0000       19.2656       19.2657      18.978387       0.04100
  51     1.499        0.2873        0.0000       19.2636       19.2636      18.976327       0.04039
  50     2.102        0.2873        0.0001       19.2607       19.2608      18.973497       0.03957
  49     2.949        0.2872        0.0001       19.2567       19.2568      18.969532       0.03952
  48     4.137        0.2872        0.0001       19.2512       19.2513      18.964077       0.03876
  47     5.803        0.2872        0.0001       19.2437       19.2438      18.956669       0.03753
  46     8.139        0.2871        0.0002       19.2336       19.2338      18.946723       0.03592
  45     11.42        0.2870        0.0003       19.2203       19.2206      18.933579       0.03384
  44     16.01        0.2869        0.0004       19.2032       19.2036      18.916645       0.03108
  43     22.46        0.2868        0.0006       19.1816       19.1821      18.895369       0.02784
  42     31.51        0.2866        0.0008       19.1553       19.1561      18.869523       0.02411
  41     44.20        0.2863        0.0011       19.1243       19.1254      18.839145       0.02020
  40     62.00        0.2859        0.0015       19.0889       19.0905      18.804606       0.01638
  39     85.78        0.2853        0.0021       19.0502       19.0523      18.767025       0.01334
  38     109.5        0.2848        0.0027       19.0161       19.0188      18.734016       0.01172
  37     133.1        0.2842        0.0033       18.9851       18.9884      18.704188       0.01071
  36     156.8        0.2837        0.0038       18.9543       18.9582      18.674454       0.01054
  35     180.6        0.2832        0.0044       18.9124       18.9169      18.633698       0.01447
  34     202.8        0.2827        0.0050       18.8380       18.8430      18.560316       0.02786
  33     228.4        0.2821        0.0055       18.6808       18.6864      18.404249       0.05149
  32     252.2        0.2816        0.0060       18.4132       18.4192      18.137601       0.09465
  31     276.0        0.2811        0.0065       18.0437       18.0502      17.769029       0.13083
  30     299.8        0.2806        0.0069       17.6090       17.6159      17.335216       0.15399
  29     323.5        0.2802        0.0073       17.1397       17.1470      16.866818       0.16626
  28     347.3        0.2798        0.0076       16.6132       16.6208      16.341017       0.18664
  27     371.1        0.2794        0.0079       16.0506       16.0585      15.779116       0.19945
  26     394.9        0.2790        0.0081       15.4642       15.4724      15.193396       0.20791
  25     418.6        0.2786        0.0083       14.8862       14.8945      14.615901       0.20499
  24     442.4        0.2783        0.0085       14.3233       14.3318      14.053533       0.19962
  23     466.2        0.2780        0.0087       13.7925       13.8011      13.523185       0.18825
  22     489.9        0.2777        0.0088       13.3064       13.3152      13.037555       0.17238
  21     513.7        0.2774        0.0089       12.8571       12.8661      12.588665       0.15934
  20     537.5        0.2772        0.0090       12.4517       12.4607      12.183544       0.14380
  19     561.3        0.2770        0.0092       12.0889       12.0981      11.821096       0.12865
  18     585.0        0.2768        0.0093       11.7654       11.7747      11.497908       0.11472
  17     608.8        0.2766        0.0094       11.4854       11.4948      11.218144       0.09930
  16     632.6        0.2765        0.0095       11.2408       11.2503      10.973802       0.08673
  15     656.4        0.2765        0.0097       11.0171       11.0268      10.750321       0.07933
  14     680.1        0.2765        0.0099       10.8102       10.8200      10.543580       0.07338
  13     703.9        0.2765        0.0100       10.6141       10.6241      10.347632       0.06955
  12     727.7        0.2766        0.0102       10.4185       10.4286      10.151989       0.06945
  11     751.5        0.2768        0.0103       10.2154       10.2257       9.948904       0.07209
  10     775.2        0.2772        0.0104       10.0048       10.0152       9.738066       0.07484
   9     799.0        0.2776        0.0105        9.7867        9.7973       9.519627       0.07754
   8     822.8        0.2782        0.0106        9.5668        9.5774       9.299195       0.07824
   7     846.6        0.2789        0.0107        9.3635        9.3743       9.095332       0.07236
   6     870.4        0.2798        0.0108        9.1789        9.1897       8.909992       0.06579
   5     894.1        0.2807        0.0109        9.0120        9.0229       8.742207       0.05956
   4     917.9        0.2818        0.0110        8.8595        8.8706       8.588804       0.05445
   3     941.7        0.2831        0.0111        8.7199        8.7310       8.447968       0.04999
   2     965.5        0.2846        0.0112        8.5920        8.6033       8.318732       0.04587
   1     989.2        0.2863        0.0114        8.4739        8.4853       8.198957       0.04251
   0    1013.0        0.2884        0.0115        8.3630        8.3744       8.086028       0.04009



 Wavenumbers:  6150. -  7700. cm-1, ATM      1
 LEVEL PRESSURE   UPWARD FLUX   DIFDOWN FLUX  DIRDOWN FLUX  DOWNWARD FLUX   NET FLUX    HEATING RATE
          mb          W/m2          W/m2          W/m2        W/m2          W/m2       degree/day
  60   .000300        0.4489        0.0000       35.6423       35.6423      35.193438       0.00000
  59    0.1000        0.4489        0.0000       35.6416       35.6416      35.192778       0.05582
  58    0.1403        0.4488        0.0000       35.6413       35.6414      35.192511       0.05588
  57    0.1968        0.4488        0.0000       35.6410       35.6410      35.192135       0.05619
  56    0.2760        0.4488        0.0000       35.6404       35.6404      35.191612       0.05571
  55    0.3871        0.4488        0.0000       35.6397       35.6397      35.190876       0.05592
  54    0.5430        0.4488        0.0001       35.6386       35.6387      35.189849       0.05560
  53    0.7617        0.4488        0.0001       35.6371       35.6372      35.188414       0.05538
  52     1.069        0.4488        0.0001       35.6350       35.6351      35.186394       0.05556
  51     1.499        0.4487        0.0002       35.6321       35.6323      35.183601       0.05478
  50     2.102        0.4486        0.0002       35.6282       35.6284      35.179758       0.05373
  49     2.949        0.4486        0.0003       35.6226       35.6229      35.174363       0.05378
  48     4.137        0.4484        0.0004       35.6149       35.6153      35.166906       0.05299
  47     5.803        0.4483        0.0006       35.6043       35.6050      35.156692       0.05174
  46     8.139        0.4480        0.0009       35.5900       35.5908      35.142798       0.05018
  45     11.42        0.4477        0.0012       35.5706       35.5718      35.124085       0.04818
  44     16.01        0.4472        0.0017       35.5447       35.5464      35.099224       0.04563
  43     22.46        0.4465        0.0024       35.5110       35.5134      35.066833       0.04238
  42     31.51        0.4456        0.0033       35.4676       35.4710      35.025368       0.03868
  41     44.20        0.4443        0.0047       35.4132       35.4178      34.973549       0.03446
  40     62.00        0.4425        0.0065       35.3468       35.3534      34.910893       0.02971
  39     85.78        0.4400        0.0090       35.2701       35.2791      34.839033       0.02551
  38     109.5        0.4376        0.0115       35.2005       35.2120      34.774475       0.02292
  37     133.1        0.4352        0.0139       35.1382       35.1521      34.716896       0.02068
  36     156.8        0.4329        0.0162       35.0777       35.0939      34.661027       0.01981
  35     180.6        0.4304        0.0187       35.0007       35.0194      34.588983       0.02558
  34     202.8        0.4281        0.0211       34.8817       34.9027      34.474646       0.04341
  33     228.4        0.4257        0.0234       34.6655       34.6889      34.263172       0.06977
  32     252.2        0.4233        0.0256       34.3093       34.3349      33.911568       0.12481
  31     276.0        0.4211        0.0277       33.7712       33.7989      33.377856       0.18945
  30     299.8        0.4188        0.0296       33.0457       33.0752      32.656370       0.25610
  29     323.5        0.4167        0.0312       32.2127       32.2439      31.827227       0.29431
  28     347.3        0.4146        0.0327       31.3238       31.3565      30.941879       0.31426
  27     371.1        0.4127        0.0340       30.3927       30.4267      30.014035       0.32935
  26     394.9        0.4108        0.0352       29.3788       29.4139      29.003120       0.35883
  25     418.6        0.4090        0.0361       28.3306       28.3667      27.957710       0.37108
  24     442.4        0.4073        0.0369       27.2798       27.3167      26.909387       0.37211
  23     466.2        0.4057        0.0376       26.2593       26.2969      25.891204       0.36141
  22     489.9        0.4042        0.0382       25.2863       25.3245      24.920238       0.34465
  21     513.7        0.4028        0.0387       24.3400       24.3787      23.975817       0.33523
  20     537.5        0.4015        0.0390       23.4378       23.4768      23.075304       0.31964
  19     561.3        0.4004        0.0393       22.5792       22.6185      22.218182       0.30424
  18     585.0        0.3993        0.0396       21.7597       21.7993      21.399983       0.29043
  17     608.8        0.3983        0.0398       20.9986       21.0384      20.640088       0.26973
  16     632.6        0.3975        0.0400       20.2877       20.3277      19.930213       0.25198
  15     656.4        0.3968        0.0402       19.5989       19.6391      19.242303       0.24418
  14     680.1        0.3962        0.0403       18.9347       18.9750      18.578817       0.23551
  13     703.9        0.3958        0.0403       18.2967       18.3371      17.941274       0.22630
  12     727.7        0.3957        0.0404       17.6730       17.7134      17.317736       0.22133
  11     751.5        0.3958        0.0403       17.0568       17.0971      16.701340       0.21880
  10     775.2        0.3962        0.0402       16.4573       16.4975      16.101296       0.21299
   9     799.0        0.3970        0.0400       15.8753       15.9153      15.518311       0.20694
   8     822.8        0.3981        0.0398       15.3162       15.3560      14.957822       0.19895
   7     846.6        0.3997        0.0397       14.8124       14.8521      14.452468       0.17938
   6     870.4        0.4015        0.0396       14.3574       14.3970      13.995496       0.16221
   5     894.1        0.4037        0.0395       13.9423       13.9819      13.578193       0.14813
   4     917.9        0.4063        0.0395       13.5568       13.5963      13.189985       0.13780
   3     941.7        0.4095        0.0395       13.1956       13.2351      12.825547       0.12936
   2     965.5        0.4134        0.0395       12.8576       12.8971      12.483713       0.12134
   1     989.2        0.4180        0.0395       12.5397       12.5792      12.161207       0.11445
   0    1013.0        0.4235        0.0395       12.2388       12.2783      11.854751       0.10880



 Wavenumbers:  7700. -  8050. cm-1, ATM      1
 LEVEL PRESSURE   UPWARD FLUX   DIFDOWN FLUX  DIRDOWN FLUX  DOWNWARD FLUX   NET FLUX    HEATING RATE
          mb          W/m2          W/m2          W/m2        W/m2          W/m2       degree/day
  60   .000300        0.2499        0.0000        8.4233        8.4233       8.173412       0.00000
  59    0.1000        0.2499        0.0000        8.4232        8.4232       8.173250       0.01371
  58    0.1403        0.2499        0.0000        8.4231        8.4231       8.173184       0.01379
  57    0.1968        0.2499        0.0000        8.4230        8.4230       8.173091       0.01387
  56    0.2760        0.2499        0.0000        8.4229        8.4229       8.172962       0.01375
  55    0.3871        0.2499        0.0000        8.4227        8.4227       8.172780       0.01381
  54    0.5430        0.2499        0.0000        8.4224        8.4224       8.172526       0.01375
  53    0.7617        0.2499        0.0000        8.4220        8.4221       8.172170       0.01373
  52     1.069        0.2499        0.0000        8.4215        8.4216       8.171668       0.01382
  51     1.499        0.2499        0.0001        8.4208        8.4209       8.170970       0.01369
  50     2.102        0.2499        0.0001        8.4198        8.4199       8.170002       0.01353
  49     2.949        0.2499        0.0001        8.4184        8.4185       8.168630       0.01368
  48     4.137        0.2498        0.0002        8.4164        8.4165       8.166707       0.01367
  47     5.803        0.2498        0.0002        8.4136        8.4138       8.164020       0.01361
  46     8.139        0.2497        0.0003        8.4097        8.4100       8.160268       0.01355
  45     11.42        0.2496        0.0005        8.4042        8.4047       8.155026       0.01349
  44     16.01        0.2495        0.0007        8.3966        8.3972       8.147722       0.01341
  43     22.46        0.2494        0.0009        8.3860        8.3869       8.137543       0.01332
  42     31.51        0.2491        0.0013        8.3712        8.3725       8.123391       0.01320
  41     44.20        0.2488        0.0018        8.3508        8.3526       8.103740       0.01307
  40     62.00        0.2484        0.0025        8.3226        8.3252       8.076781       0.01278
  39     85.78        0.2478        0.0035        8.2859        8.2894       8.041577       0.01250
  38     109.5        0.2472        0.0045        8.2495        8.2539       8.006667       0.01239
  37     133.1        0.2467        0.0054        8.2151        8.2205       7.973823       0.01179
  36     156.8        0.2462        0.0063        8.1824        8.1887       7.942551       0.01109
  35     180.6        0.2456        0.0072        8.1484        8.1556       7.910034       0.01154
  34     202.8        0.2451        0.0081        8.1163        8.1244       7.879360       0.01165
  33     228.4        0.2445        0.0090        8.0841        8.0932       7.848657       0.01013
  32     252.2        0.2440        0.0099        8.0524        8.0624       7.818418       0.01073
  31     276.0        0.2434        0.0108        8.0216        8.0324       7.789004       0.01044
  30     299.8        0.2429        0.0117        7.9909        8.0027       7.759776       0.01037
  29     323.5        0.2424        0.0126        7.9605        7.9732       7.730809       0.01028
  28     347.3        0.2419        0.0135        7.9307        7.9442       7.702334       0.01011
  27     371.1        0.2414        0.0144        7.9014        7.9158       7.674392       0.00992
  26     394.9        0.2409        0.0153        7.8717        7.8870       7.646142       0.01003
  25     418.6        0.2404        0.0162        7.8422        7.8583       7.617947       0.01001
  24     442.4        0.2399        0.0170        7.8126        7.8296       7.589697       0.01003
  23     466.2        0.2395        0.0179        7.7829        7.8007       7.561271       0.01009
  22     489.9        0.2390        0.0187        7.7533        7.7720       7.532955       0.01005
  21     513.7        0.2386        0.0196        7.7232        7.7427       7.504145       0.01023
  20     537.5        0.2382        0.0204        7.6929        7.7134       7.475168       0.01029
  19     561.3        0.2378        0.0212        7.6625        7.6837       7.445903       0.01039
  18     585.0        0.2374        0.0221        7.6310        7.6531       7.415633       0.01074
  17     608.8        0.2371        0.0229        7.5992        7.6221       7.385029       0.01086
  16     632.6        0.2367        0.0237        7.5671        7.5907       7.353999       0.01101
  15     656.4        0.2364        0.0245        7.5336        7.5581       7.321696       0.01147
  14     680.1        0.2362        0.0253        7.4994        7.5247       7.288498       0.01178
  13     703.9        0.2359        0.0261        7.4641        7.4902       7.254214       0.01217
  12     727.7        0.2358        0.0268        7.4271        7.4539       7.218188       0.01279
  11     751.5        0.2356        0.0276        7.3880        7.4156       7.179950       0.01357
  10     775.2        0.2355        0.0283        7.3468        7.3751       7.139630       0.01431
   9     799.0        0.2355        0.0291        7.3034        7.3325       7.096972       0.01514
   8     822.8        0.2355        0.0298        7.2573        7.2871       7.051555       0.01612
   7     846.6        0.2356        0.0305        7.2101        7.2406       7.005006       0.01652
   6     870.4        0.2357        0.0312        7.1621        7.1933       6.957601       0.01683
   5     894.1        0.2359        0.0319        7.1133        7.1452       6.909284       0.01715
   4     917.9        0.2361        0.0325        7.0630        7.0955       6.859390       0.01771
   3     941.7        0.2364        0.0332        7.0110        7.0442       6.807789       0.01832
   2     965.5        0.2368        0.0338        6.9577        6.9915       6.754729       0.01883
   1     989.2        0.2372        0.0345        6.9030        6.9374       6.700208       0.01935
   0    1013.0        0.2377        0.0351        6.8469        6.8819       6.644181       0.01989



 Wavenumbers:  8050. - 12850. cm-1, ATM      1
 LEVEL PRESSURE   UPWARD FLUX   DIFDOWN FLUX  DIRDOWN FLUX  DOWNWARD FLUX   NET FLUX    HEATING RATE
          mb          W/m2          W/m2          W/m2        W/m2          W/m2       degree/day
  60   .000300        4.2634        0.0000      117.9329      117.9329     113.669532       0.00000
  59    0.1000        4.2632        0.0002      117.9325      117.9327     113.669532       0.00000
  58    0.1403        4.2631        0.0003      117.9324      117.9327     113.669532       0.00000
  57    0.1968        4.2630        0.0004      117.9322      117.9326     113.669532       0.00000
  56    0.2760        4.2629        0.0006      117.9318      117.9324     113.669532       0.00000
  55    0.3871        4.2626        0.0008      117.9314      117.9322     113.669532      -0.00000
  54    0.5430        4.2623        0.0011      117.9308      117.9319     113.669532       0.00000
  53    0.7617        4.2619        0.0015      117.9299      117.9315     113.669532      -0.00000
  52     1.069        4.2613        0.0022      117.9287      117.9309     113.669532       0.00000
  51     1.499        4.2605        0.0030      117.9270      117.9300     113.669532       0.00000
  50     2.102        4.2593        0.0042      117.9246      117.9289     113.669532       0.00000
  49     2.949        4.2577        0.0059      117.9213      117.9272     113.669532      -0.00000
  48     4.137        4.2554        0.0083      117.9166      117.9249     113.669532       0.00000
  47     5.803        4.2522        0.0117      117.9101      117.9217     113.669532      -0.00000
  46     8.139        4.2477        0.0164      117.9009      117.9172     113.669532       0.00000
  45     11.42        4.2414        0.0229      117.8880      117.9109     113.669532       0.00000
  44     16.01        4.2325        0.0321      117.8700      117.9021     113.669532       0.00000
  43     22.46        4.2202        0.0450      117.8447      117.8897     113.669532      -0.00000
  42     31.51        4.2028        0.0630      117.8093      117.8723     113.669532       0.00000
  41     44.20        4.1784        0.0884      117.7595      117.8479     113.669532       0.00000
  40     62.00        4.1443        0.1238      117.6901      117.8139     113.669532       0.00000
  39     85.78        4.0988        0.1710      117.5974      117.7684     113.669532      -0.00000
  38     109.5        4.0526        0.2189      117.4905      117.7094     113.656841       0.00450
  37     133.1        4.0081        0.2651      117.3878      117.6528     113.644739       0.00435
  36     156.8        3.9648        0.3100      117.2872      117.5971     113.632355       0.00439
  35     180.6        3.9187        0.3576      117.1758      117.5334     113.614707       0.00627
  34     202.8        3.8744        0.4035      117.0520      117.4555     113.581163       0.01274
  33     228.4        3.8291        0.4501      116.8869      117.3371     113.507943       0.02416
  32     252.2        3.7839        0.4968      116.6644      117.1612     113.377315       0.04637
  31     276.0        3.7392        0.5427      116.3710      116.9136     113.174442       0.07201
  30     299.8        3.6943        0.5885      115.9935      116.5820     112.887729       0.10177
  29     323.5        3.6495        0.6341      115.5409      116.1750     112.525502       0.12858
  28     347.3        3.6054        0.6789      115.0143      115.6932     112.087793       0.15537
  27     371.1        3.5620        0.7226      114.4156      115.1381     111.576088       0.18163
  26     394.9        3.5184        0.7663      113.7115      114.4778     110.959350       0.21892
  25     418.6        3.4753        0.8091      112.9117      113.7209     110.245595       0.25335
  24     442.4        3.4326        0.8511      112.0165      112.8676     109.435001       0.28773
  23     466.2        3.3902        0.8923      111.0412      111.9335     108.543380       0.31649
  22     489.9        3.3487        0.9322      110.0015      110.9337     107.584969       0.34020
  21     513.7        3.3076        0.9713      108.8752      109.8464     106.538868       0.37132
  20     537.5        3.2674        1.0089      107.6781      108.6870     105.419610       0.39729
  19     561.3        3.2282        1.0451      106.4164      107.4616     104.233371       0.42107
  18     585.0        3.1891        1.0808      105.0915      106.1723     102.983165       0.44377
  17     608.8        3.1511        1.1151      103.7513      104.8663     101.715275       0.45005
  16     632.6        3.1142        1.1481      102.3976      103.5456     100.431488       0.45569
  15     656.4        3.0777        1.1802      100.9841      102.1644      99.086684       0.47735
  14     680.1        3.0426        1.2108       99.5191      100.7298      97.687257       0.49674
  13     703.9        3.0089        1.2397       98.0017       99.2413      96.232411       0.51641
  12     727.7        2.9763        1.2672       96.4033       97.6705      94.694225       0.54599
  11     751.5        2.9452        1.2930       94.7028       95.9959      93.050683       0.58339
  10     775.2        2.9161        1.3168       92.9271       94.2439      91.327773       0.61156
   9     799.0        2.8895        1.3384       91.0940       92.4323      89.542861       0.63357
   8     822.8        2.8648        1.3586       89.2310       90.5896      87.724771       0.64535
   7     846.6        2.8419        1.3783       87.4700       88.8482      86.006362       0.60996
   6     870.4        2.8209        1.3973       85.8117       87.2091      84.388159       0.57440
   5     894.1        2.8020        1.4158       84.2397       85.6555      82.853519       0.54473
   4     917.9        2.7851        1.4339       82.7225       84.1564      81.371264       0.52614
   3     941.7        2.7708        1.4513       81.2509       82.7022      79.931412       0.51109
   2     965.5        2.7595        1.4680       79.8289       81.2969      78.537377       0.49482
   1     989.2        2.7517        1.4838       78.4531       79.9369      77.185284       0.47984
   0    1013.0        2.7477        1.4990       77.1207       78.6197      75.872039       0.46625



 Wavenumbers: 12850. - 16000. cm-1, ATM      1
 LEVEL PRESSURE   UPWARD FLUX   DIFDOWN FLUX  DIRDOWN FLUX  DOWNWARD FLUX   NET FLUX    HEATING RATE
          mb          W/m2          W/m2          W/m2        W/m2          W/m2       degree/day
  60   .000300        6.3906        0.0000       73.8954       73.8954      67.504786       0.00000
  59    0.1000        6.3902        0.0004       73.8879       73.8884      67.498138       0.56275
  58    0.1403        6.3901        0.0006       73.8850       73.8856      67.495531       0.54583
  57    0.1968        6.3899        0.0009       73.8810       73.8818      67.491946       0.53552
  56    0.2760        6.3896        0.0012       73.8755       73.8767      67.487149       0.51117
  55    0.3871        6.3892        0.0017       73.8683       73.8700      67.480763       0.48505
  54    0.5430        6.3887        0.0024       73.8587       73.8611      67.472457       0.44964
  53    0.7617        6.3880        0.0033       73.8462       73.8496      67.461620       0.41818
  52     1.069        6.3870        0.0047       73.8296       73.8343      67.447267       0.39480
  51     1.499        6.3858        0.0066       73.8072       73.8137      67.427917       0.37950
  50     2.102        6.3844        0.0092       73.7751       73.7842      67.399801       0.39311
  49     2.949        6.3828        0.0129       73.7246       73.7374      67.354576       0.45081
  48     4.137        6.3812        0.0180       73.6452       73.6632      67.282013       0.51564
  47     5.803        6.3794        0.0252       73.5281       73.5534      67.173984       0.54726
  46     8.139        6.3766        0.0353       73.3689       73.4042      67.027528       0.52894
  45     11.42        6.3719        0.0493       73.1655       73.2148      66.842897       0.47536
  44     16.01        6.3638        0.0689       72.9117       72.9806      66.616726       0.41514
  43     22.46        6.3506        0.0962       72.5987       72.6949      66.344228       0.35657
  42     31.51        6.3288        0.1342       72.2323       72.3665      66.037721       0.28593
  41     44.20        6.2927        0.1874       71.8324       72.0198      65.727050       0.20661
  40     62.00        6.2370        0.2611       71.3992       71.6603      65.423303       0.14401
  39     85.78        6.1556        0.3589       70.9713       71.3302      65.174584       0.08828
  38     109.5        6.0705        0.4582       70.6135       71.0718      65.001216       0.06154
  37     133.1        5.9876        0.5532       70.2896       70.8428      64.855265       0.05241
  36     156.8        5.9063        0.6452       69.9835       70.6287      64.722443       0.04710
  35     180.6        5.8192        0.7425       69.6698       70.4123      64.593084       0.04592
  34     202.8        5.7346        0.8357       69.3794       70.2151      64.480427       0.04277
  33     228.4        5.6481        0.9302       69.0880       70.0182      64.370079       0.03641
  32     252.2        5.5613        1.0246       68.7985       69.8231      64.261870       0.03841
  31     276.0        5.4753        1.1174       68.5154       69.6328      64.157535       0.03703
  30     299.8        5.3886        1.2105       68.2313       69.4418      64.053153       0.03705
  29     323.5        5.3018        1.3034       67.9455       69.2488      63.946993       0.03768
  28     347.3        5.2159        1.3949       67.6596       69.0545      63.838603       0.03847
  27     371.1        5.1312        1.4848       67.3745       68.8593      63.728094       0.03923
  26     394.9        5.0455        1.5754       67.0812       68.6566      63.611147       0.04151
  25     418.6        4.9601        1.6653       66.7827       68.4481      63.487965       0.04372
  24     442.4        4.8750        1.7546       66.4772       68.2318      63.356819       0.04655
  23     466.2        4.7899        1.8435       66.1636       68.0070      63.217105       0.04959
  22     489.9        4.7061        1.9308       65.8450       67.7757      63.069641       0.05234
  21     513.7        4.6220        2.0179       65.5140       67.5319      62.909890       0.05671
  20     537.5        4.5391        2.1034       65.1741       67.2775      62.738451       0.06085
  19     561.3        4.4571        2.1875       64.8234       67.0109      62.553806       0.06554
  18     585.0        4.3744        2.2720       64.4552       66.7272      62.352760       0.07136
  17     608.8        4.2930        2.3548       64.0816       66.4364      62.143427       0.07430
  16     632.6        4.2127        2.4358       63.7028       66.1386      61.925873       0.07722
  15     656.4        4.1321        2.5167       63.3082       65.8249      61.692777       0.08274
  14     680.1        4.0528        2.5956       62.9019       65.4975      61.444685       0.08806
  13     703.9        3.9750        2.6726       62.4824       65.1551      61.180073       0.09393
  12     727.7        3.8976        2.7486       62.0418       64.7904      60.892875       0.10194
  11     751.5        3.8206        2.8235       61.5769       64.4004      60.579761       0.11114
  10     775.2        3.7453        2.8961       61.0914       63.9874      60.242170       0.11983
   9     799.0        3.6717        2.9663       60.5838       63.5501      59.878425       0.12911
   8     822.8        3.5986        3.0353       60.0519       63.0872      59.488557       0.13839
   7     846.6        3.5266        3.1029       59.5202       62.6231      59.096457       0.13918
   6     870.4        3.4560        3.1689       58.9925       62.1614      58.705338       0.13883
   5     894.1        3.3869        3.2332       58.4691       61.7023      58.315487       0.13838
   4     917.9        3.3184        3.2966       57.9427       61.2393      57.920911       0.14006
   3     941.7        3.2510        3.3587       57.4131       60.7718      57.520845       0.14201
   2     965.5        3.1852        3.4190       56.8841       60.3031      57.117884       0.14303
   1     989.2        3.1210        3.4776       56.3559       59.8335      56.712420       0.14389
   0    1013.0        3.0586        3.5345       55.8284       59.3629      56.304283       0.14490



 Wavenumbers: 16000. - 22650. cm-1, ATM      1
 LEVEL PRESSURE   UPWARD FLUX   DIFDOWN FLUX  DIRDOWN FLUX  DOWNWARD FLUX   NET FLUX    HEATING RATE
          mb          W/m2          W/m2          W/m2        W/m2          W/m2       degree/day
  60   .000300       22.4832        0.0000      117.8180      117.8180      95.334883       0.00000
  59    0.1000       22.4813        0.0025      117.8129      117.8154      95.334107       0.06572
  58    0.1403       22.4805        0.0034      117.8106      117.8140      95.333485       0.13026
  57    0.1968       22.4795        0.0048      117.8070      117.8119      95.332360       0.16805
  56    0.2760       22.4781        0.0068      117.8017      117.8085      95.330382       0.21080
  55    0.3871       22.4762        0.0095      117.7937      117.8033      95.327046       0.25334
  54    0.5430       22.4737        0.0134      117.7818      117.7951      95.321455       0.30270
  53    0.7617       22.4703        0.0187      117.7632      117.7819      95.311588       0.38072
  52     1.069       22.4659        0.0263      117.7334      117.7597      95.293854       0.48782
  51     1.499       22.4605        0.0368      117.6857      117.7226      95.262114       0.62248
  50     2.102       22.4543        0.0514      117.6071      117.6585      95.204235       0.80924
  49     2.949       22.4479        0.0721      117.4724      117.5445      95.096589       1.07304
  48     4.137       22.4424        0.1011      117.2528      117.3539      94.911426       1.31578
  47     5.803       22.4372        0.1414      116.9247      117.0661      94.628990       1.43077
  46     8.139       22.4289        0.1977      116.4763      116.6741      94.245128       1.38634
  45     11.42       22.4123        0.2762      115.9011      116.1774      93.765092       1.23592
  44     16.01       22.3809        0.3854      115.1792      115.5646      93.183677       1.06720
  43     22.46       22.3259        0.5374      114.2809      114.8183      92.492368       0.90460
  42     31.51       22.2298        0.7486      113.2129      113.9615      91.731767       0.70954
  41     44.20       22.0643        1.0426      112.0114      113.0540      90.989733       0.49348
  40     62.00       21.8022        1.4479      110.6484      112.0963      90.294101       0.32981
  39     85.78       21.4141        1.9824      109.2093      111.1917      89.777589       0.18334
  38     109.5       21.0003        2.5181      107.9624      110.4805      89.480199       0.10556
  37     133.1       20.5984        3.0264      106.8264      109.8528      89.254410       0.08108
  36     156.8       20.2061        3.5142      105.7603      109.2745      89.068463       0.06594
  35     180.6       19.7871        4.0259      104.6751      108.7009      88.913809       0.05490
  34     202.8       19.3818        4.5122      103.6753      108.1875      88.805717       0.04104
  33     228.4       18.9683        5.0018      102.6830      107.6848      88.716499       0.02944
  32     252.2       18.5543        5.4863      101.7082      107.1945      88.640178       0.02709
  31     276.0       18.1458        5.9589      100.7643      106.7232      88.577366       0.02230
  30     299.8       17.7349        6.4291       99.8297      106.2588      88.523909       0.01897
  29     323.5       17.3244        6.8942       98.9051      105.7993      88.474843       0.01742
  28     347.3       16.9188        7.3491       97.9993      105.3484      88.429630       0.01605
  27     371.1       16.5196        7.7925       97.1153      104.9078      88.388163       0.01472
  26     394.9       16.1161        8.2362       96.2284      104.4646      88.348453       0.01410
  25     418.6       15.7150        8.6731       95.3521      104.0252      88.310205       0.01358
  24     442.4       15.3155        9.1038       94.4845      103.5884      88.272876       0.01325
  23     466.2       14.9164        9.5300       93.6227      103.1526      88.236281       0.01299
  22     489.9       14.5230        9.9458       92.7778      102.7236      88.200538       0.01269
  21     513.7       14.1287       10.3584       91.9346      102.2931      88.164376       0.01284
  20     537.5       13.7394       10.7618       91.1052      101.8670      88.127665       0.01303
  19     561.3       13.3544       11.1568       90.2875      101.4443      88.089959       0.01338
  18     585.0       12.9653       11.5518       89.4637      101.0156      88.050282       0.01408
  17     608.8       12.5813       11.9377       88.6530      100.5907      88.009415       0.01451
  16     632.6       12.2022       12.3147       87.8546      100.1693      87.967113       0.01502
  15     656.4       11.8202       12.6907       87.0514       99.7420      87.921835       0.01607
  14     680.1       11.4429       13.0580       86.2583       99.3163      87.873413       0.01719
  13     703.9       11.0702       13.4169       85.4744       98.8913      87.821173       0.01854
  12     727.7       10.6964       13.7729       84.6870       98.4598      87.763448       0.02049
  11     751.5       10.3216       14.1257       83.8946       98.0203      87.698643       0.02300
  10     775.2        9.9505       14.4711       83.1060       97.5770      87.626536       0.02560
   9     799.0        9.5830       14.8089       82.3203       97.1292      87.546271       0.02849
   8     822.8        9.2131       15.1447       81.5260       96.6707      87.457624       0.03147
   7     846.6        8.8452       15.4747       80.7365       96.2112      87.366011       0.03252
   6     870.4        8.4811       15.7972       79.9563       95.7535      87.272381       0.03323
   5     894.1        8.1207       16.1124       79.1855       95.2979      87.177218       0.03378
   4     917.9        7.7601       16.4238       78.4155       94.8393      87.079173       0.03480
   3     941.7        7.4005       16.7304       77.6484       94.3788      86.978270       0.03582
   2     965.5        7.0445       17.0298       76.8901       93.9199      86.875435       0.03650
   1     989.2        6.6920       17.3223       76.1408       93.4632      86.771139       0.03701
   0    1013.0        6.3431       17.6081       75.4004       93.0085      86.665409       0.03754



 Wavenumbers: 22650. - 29000. cm-1, ATM      1
 LEVEL PRESSURE   UPWARD FLUX   DIFDOWN FLUX  DIRDOWN FLUX  DOWNWARD FLUX   NET FLUX    HEATING RATE
          mb          W/m2          W/m2          W/m2        W/m2          W/m2       degree/day
  60   .000300       17.1956        0.0000       44.4602       44.4602      27.264616       0.00000
  59    0.1000       17.1936        0.0030       44.4552       44.4582      27.264616      -0.00000
  58    0.1403       17.1928        0.0043       44.4532       44.4574      27.264616       0.00000
  57    0.1968       17.1917        0.0060       44.4503       44.4563      27.264616       0.00000
  56    0.2760       17.1901        0.0084       44.4463       44.4547      27.264616      -0.00000
  55    0.3871       17.1879        0.0118       44.4407       44.4525      27.264616      -0.00000
  54    0.5430       17.1848        0.0165       44.4329       44.4494      27.264616       0.00000
  53    0.7617       17.1804        0.0231       44.4219       44.4450      27.264616      -0.00000
  52     1.069       17.1743        0.0325       44.4064       44.4389      27.264616       0.00000
  51     1.499       17.1657        0.0455       44.3848       44.4303      27.264616       0.00000
  50     2.102       17.1538        0.0635       44.3549       44.4185      27.264616      -0.00000
  49     2.949       17.1370        0.0891       44.3125       44.4016      27.264616      -0.00000
  48     4.137       17.1134        0.1249       44.2532       44.3780      27.264616       0.00000
  47     5.803       17.0805        0.1749       44.1702       44.3451      27.264616      -0.00000
  46     8.139       17.0344        0.2446       44.0544       44.2990      27.264616      -0.00000
  45     11.42       16.9699        0.3419       43.8926       44.2345      27.264616       0.00000
  44     16.01       16.8800        0.4774       43.6672       44.1446      27.264616       0.00000
  43     22.46       16.7543        0.6657       43.3532       44.0189      27.264616      -0.00000
  42     31.51       16.5790        0.9268       42.9168       43.8436      27.264616       0.00000
  41     44.20       16.3346        1.2877       42.3115       43.5992      27.264616      -0.00000
  40     62.00       15.9973        1.7796       41.4823       43.2619      27.264616       0.00000
  39     85.78       15.5532        2.4162       40.4017       42.8178      27.264616      -0.00000
  38     109.5       15.1093        3.0398       39.3341       42.3739      27.264616      -0.00000
  37     133.1       14.6886        3.6187       38.3345       41.9532      27.264616       0.00000
  36     156.8       14.2854        4.1625       37.3875       41.5500      27.264616       0.00000
  35     180.6       13.8632        4.7198       36.4080       41.1278      27.264616      -0.00000
  34     202.8       13.4628        5.2370       35.4904       40.7274      27.264616       0.00000
  33     228.4       13.0603        5.7455       34.5794       40.3249      27.264616       0.00000
  32     252.2       12.6624        6.2366       33.6904       39.9270      27.264616       0.00000
  31     276.0       12.2747        6.7041       32.8352       39.5393      27.264616       0.00000
  30     299.8       11.8893        7.1578       31.9961       39.1539      27.264616       0.00000
  29     323.5       11.5083        7.5954       31.1775       38.7729      27.264616       0.00000
  28     347.3       11.1356        8.0127       30.3875       38.4002      27.264616      -0.00000
  27     371.1       10.7723        8.4091       29.6278       38.0369      27.264616       0.00000
  26     394.9       10.4085        8.7957       28.8774       37.6731      27.264616       0.00000
  25     418.6       10.0501        9.1665       28.1482       37.3147      27.264616      -0.00000
  24     442.4        9.6963        9.5223       27.4385       36.9609      27.264616       0.00000
  23     466.2        9.3458        9.8649       26.7455       36.6104      27.264616      -0.00000
  22     489.9        9.0032       10.1900       26.0778       36.2678      27.264616      -0.00000
  21     513.7        8.6625       10.5037       25.4234       35.9272      27.264616       0.00000
  20     537.5        8.3287       10.8018       24.7916       35.5934      27.264616       0.00000
  19     561.3        8.0011       11.0853       24.1803       35.2657      27.264616      -0.00000
  18     585.0        7.6723       11.3607       23.5762       34.9369      27.264616       0.00000
  17     608.8        7.3501       11.6217       22.9930       34.6147      27.264616      -0.00000
  16     632.6        7.0341       11.8690       22.4297       34.2987      27.264616       0.00000
  15     656.4        6.7177       12.1079       21.8744       33.9823      27.264616      -0.00000
  14     680.1        6.4071       12.3341       21.3376       33.6718      27.264616       0.00000
  13     703.9        6.1021       12.5481       20.8186       33.3667      27.264616      -0.00000
  12     727.7        5.7979       12.7535       20.3090       33.0625      27.264616       0.00000
  11     751.5        5.4944       12.9502       19.8087       32.7590      27.264616      -0.00000
  10     775.2        5.1952       13.1363       19.3235       32.4598      27.264616       0.00000
   9     799.0        4.9002       13.3120       18.8529       32.1649      27.264616       0.00000
   8     822.8        4.6047       13.4803       18.3889       31.8693      27.264616       0.00000
   7     846.6        4.3120       13.6394       17.9372       31.5766      27.264616      -0.00000
   6     870.4        4.0237       13.7888       17.4995       31.2883      27.264616       0.00000
   5     894.1        3.7395       13.9287       17.0754       31.0041      27.264616       0.00000
   4     917.9        3.4563       14.0611       16.6599       30.7209      27.264616      -0.00000
   3     941.7        3.1750       14.1855       16.2541       30.4396      27.264616       0.00000
   2     965.5        2.8975       14.3014       15.8608       30.1621      27.264616      -0.00000
   1     989.2        2.6238       14.4090       15.4794       29.8884      27.264616       0.00000
   0    1013.0        2.3538       14.5087       15.1096       29.6184      27.264616       0.00000



 Wavenumbers: 29000. - 38000. cm-1, ATM      1
 LEVEL PRESSURE   UPWARD FLUX   DIFDOWN FLUX  DIRDOWN FLUX  DOWNWARD FLUX   NET FLUX    HEATING RATE
          mb          W/m2          W/m2          W/m2        W/m2          W/m2       degree/day
  60   .000300        3.6441        0.0000       15.6785       15.6785      12.034386       0.00000
  59    0.1000        3.6421        0.0026       15.6420       15.6446      12.002529       2.69657
  58    0.1403        3.6413        0.0036       15.6149       15.6185      11.977243       5.29516
  57    0.1968        3.6402        0.0051       15.5672       15.5723      11.932121       6.73969
  56    0.2760        3.6388        0.0071       15.4864       15.4935      11.854757       8.24349
  55    0.3871        3.6369        0.0099       15.3569       15.3668      11.729914       9.48307
  54    0.5430        3.6343        0.0136       15.1562       15.1698      11.535497      10.52413
  53    0.7617        3.6311        0.0186       14.8448       14.8634      11.232298      11.69978
  52     1.069        3.6272        0.0251       14.3922       14.4173      10.790179      12.16135
  51     1.499        3.6227        0.0333       13.8103       13.8436      10.220904      11.16477
  50     2.102        3.6183        0.0436       13.1362       13.1798       9.561533       9.21890
  49     2.949        3.6148        0.0569       12.3902       12.4471       8.832321       7.26899
  48     4.137        3.6136        0.0740       11.6145       11.6886       8.074945       5.38196
  47     5.803        3.6151        0.0964       10.8691       10.9655       7.350485       3.66998
  46     8.139        3.6180        0.1261       10.1869       10.3129       6.694911       2.36765
  45     11.42        3.6204        0.1656        9.5704        9.7360       6.115664       1.49135
  44     16.01        3.6205        0.2183        8.9952        9.2135       5.593002       0.95935
  43     22.46        3.6167        0.2882        8.4356        8.7238       5.107153       0.63575
  42     31.51        3.6028        0.3813        7.8938        8.2752       4.672404       0.40556
  41     44.20        3.5675        0.5057        7.3778        7.8835       4.315987       0.23703
  40     62.00        3.5028        0.6698        6.8610        7.5308       4.027948       0.13656
  39     85.78        3.3959        0.8770        6.3577        7.2347       3.838833       0.06713
  38     109.5        3.2785        1.0743        5.9434        7.0177       3.739227       0.03536
  37     133.1        3.1672        1.2504        5.5845        6.8349       3.667709       0.02568
  36     156.8        3.0617        1.4090        5.2639        6.6729       3.611157       0.02005
  35     180.6        2.9514        1.5663        4.9508        6.5171       3.565739       0.01612
  34     202.8        2.8467        1.7075        4.6741        6.3816       3.534946       0.01169
  33     228.4        2.7423        1.8413        4.4112        6.2526       3.510228       0.00816
  32     252.2        2.6404        1.9658        4.1642        6.1300       3.489610       0.00732
  31     276.0        2.5422        2.0795        3.9358        6.0153       3.473125       0.00585
  30     299.8        2.4455        2.1857        3.7194        5.9051       3.459518       0.00483
  29     323.5        2.3512        2.2838        3.5149        5.7987       3.447460       0.00428
  28     347.3        2.2601        2.3732        3.3237        5.6969       3.436781       0.00379
  27     371.1        2.1724        2.4542        3.1456        5.5998       3.427425       0.00332
  26     394.9        2.0855        2.5295        2.9749        5.5045       3.418932       0.00301
  25     418.6        2.0009        2.5982        2.8139        5.4121       3.411215       0.00274
  24     442.4        1.9182        2.6607        2.6617        5.3224       3.404180       0.00250
  23     466.2        1.8371        2.7174        2.5175        5.2349       3.397789       0.00227
  22     489.9        1.7587        2.7680        2.3827        5.1507       3.392045       0.00204
  21     513.7        1.6813        2.8137        2.2544        5.0681       3.386742       0.00188
  20     537.5        1.6062        2.8539        2.1342        4.9881       3.381868       0.00173
  19     561.3        1.5331        2.8894        2.0211        4.9105       3.377370       0.00160
  18     585.0        1.4603        2.9208        1.9126        4.8334       3.373105       0.00151
  17     608.8        1.3895        2.9479        1.8108        4.7586       3.369139       0.00141
  16     632.6        1.3205        2.9708        1.7151        4.6859       3.365443       0.00131
  15     656.4        1.2518        2.9903        1.6235        4.6138       3.361926       0.00125
  14     680.1        1.1849        3.0060        1.5375        4.5435       3.358643       0.00117
  13     703.9        1.1194        3.0184        1.4566        4.4750       3.355572       0.00109
  12     727.7        1.0545        3.0276        1.3795        4.4071       3.352655       0.00104
  11     751.5        0.9900        3.0340        1.3059        4.3399       3.349884       0.00098
  10     775.2        0.9267        3.0375        1.2365        4.2740       3.347287       0.00092
   9     799.0        0.8645        3.0382        1.1711        4.2093       3.344849       0.00087
   8     822.8        0.8024        3.0364        1.1085        4.1449       3.342517       0.00083
   7     846.6        0.7411        3.0321        1.0493        4.0814       3.340298       0.00079
   6     870.4        0.6809        3.0256        0.9935        4.0191       3.338197       0.00075
   5     894.1        0.6216        3.0168        0.9410        3.9578       3.336204       0.00071
   4     917.9        0.5627        3.0060        0.8910        3.8970       3.334295       0.00068
   3     941.7        0.5043        2.9932        0.8435        3.8368       3.332471       0.00065
   2     965.5        0.4468        2.9787        0.7988        3.7775       3.330741       0.00061
   1     989.2        0.3901        2.9624        0.7567        3.7192       3.329100       0.00058
   0    1013.0        0.3342        2.9447        0.7170        3.6617       3.327544       0.00055



 Wavenumbers: 38000. - 50000. cm-1, ATM      1
 LEVEL PRESSURE   UPWARD FLUX   DIFDOWN FLUX  DIRDOWN FLUX  DOWNWARD FLUX   NET FLUX    HEATING RATE
          mb          W/m2          W/m2          W/m2        W/m2          W/m2       degree/day
  60   .000300        0.0056        0.0000        0.9670        0.9670       0.961411       0.00000
  59    0.1000        0.0051        0.0006        0.9462        0.9468       0.941737       1.66531
  58    0.1403        0.0049        0.0008        0.9313        0.9322       0.927309       3.02142
  57    0.1968        0.0046        0.0012        0.9057        0.9069       0.902292       3.73658
  56    0.2760        0.0043        0.0016        0.8635        0.8650       0.860782       4.42314
  55    0.3871        0.0038        0.0021        0.7984        0.8005       0.796659       4.87074
  54    0.5430        0.0033        0.0026        0.7036        0.7062       0.702943       5.07303
  53    0.7617        0.0026        0.0031        0.5709        0.5740       0.571327       5.07878
  52     1.069        0.0020        0.0033        0.4087        0.4119       0.409980       4.43815
  51     1.499        0.0014        0.0030        0.2533        0.2563       0.254915       3.04118
  50     2.102        0.0009        0.0024        0.1404        0.1428       0.141927       1.57973
  49     2.949        0.0006        0.0018        0.0717        0.0735       0.072975       0.68733
  48     4.137        0.0003        0.0013        0.0341        0.0354       0.035095       0.26918
  47     5.803        0.0002        0.0009        0.0157        0.0166       0.016383       0.09479
  46     8.139        0.0001        0.0006        0.0064        0.0070       0.006910       0.03421
  45     11.42        0.0000        0.0003        0.0022        0.0025       0.002491       0.01138
  44     16.01        0.0000        0.0002        0.0006        0.0008       0.000750       0.00320
  43     22.46        0.0000        0.0001        0.0001        0.0002       0.000183       0.00074
  42     31.51        0.0000        0.0000        0.0000        0.0000       0.000037       0.00014
  41     44.20        0.0000        0.0000        0.0000        0.0000       0.000006       0.00002
  40     62.00        0.0000        0.0000        0.0000        0.0000       0.000001       0.00000
  39     85.78        0.0000        0.0000        0.0000        0.0000       0.000000       0.00000
  38     109.5        0.0000        0.0000        0.0000        0.0000       0.000000       0.00000
  37     133.1        0.0000        0.0000        0.0000        0.0000       0.000000       0.00000
  36     156.8        0.0000        0.0000        0.0000        0.0000       0.000000       0.00000
  35     180.6        0.0000        0.0000        0.0000        0.0000       0.000000       0.00000
  34     202.8        0.0000        0.0000        0.0000        0.0000       0.000000       0.00000
  33     228.4        0.0000        0.0000        0.0000        0.0000       0.000000       0.00000
  32     252.2        0.0000        0.0000        0.0000        0.0000       0.000000       0.00000
  31     276.0        0.0000        0.0000        0.0000        0.0000       0.000000       0.00000
  30     299.8        0.0000        0.0000        0.0000        0.0000       0.000000       0.00000
  29     323.5        0.0000        0.0000        0.0000        0.0000       0.000000       0.00000
  28     347.3        0.0000        0.0000        0.0000        0.0000       0.000000       0.00000
  27     371.1        0.0000        0.0000        0.0000        0.0000       0.000000       0.00000
  26     394.9        0.0000        0.0000        0.0000        0.0000       0.000000       0.00000
  25     418.6        0.0000        0.0000        0.0000        0.0000       0.000000       0.00000
  24     442.4        0.0000        0.0000        0.0000        0.0000       0.000000       0.00000
  23     466.2        0.0000        0.0000        0.0000        0.0000       0.000000       0.00000
  22     489.9        0.0000        0.0000        0.0000        0.0000       0.000000       0.00000
  21     513.7        0.0000        0.0000        0.0000        0.0000       0.000000       0.00000
  20     537.5        0.0000        0.0000        0.0000        0.0000       0.000000       0.00000
  19     561.3        0.0000        0.0000        0.0000        0.0000       0.000000       0.00000
  18     585.0        0.0000        0.0000        0.0000        0.0000       0.000000       0.00000
  17     608.8        0.0000        0.0000        0.0000        0.0000       0.000000       0.00000
  16     632.6        0.0000        0.0000        0.0000        0.0000       0.000000       0.00000
  15     656.4        0.0000        0.0000        0.0000        0.0000       0.000000       0.00000
  14     680.1        0.0000        0.0000        0.0000        0.0000       0.000000       0.00000
  13     703.9        0.0000        0.0000        0.0000        0.0000       0.000000       0.00000
  12     727.7        0.0000        0.0000        0.0000        0.0000       0.000000       0.00000
  11     751.5        0.0000        0.0000        0.0000        0.0000       0.000000       0.00000
  10     775.2        0.0000        0.0000        0.0000        0.0000       0.000000       0.00000
   9     799.0        0.0000        0.0000        0.0000        0.0000       0.000000       0.00000
   8     822.8        0.0000        0.0000        0.0000        0.0000       0.000000       0.00000
   7     846.6        0.0000        0.0000        0.0000        0.0000       0.000000       0.00000
   6     870.4        0.0000        0.0000        0.0000        0.0000       0.000000       0.00000
   5     894.1        0.0000        0.0000        0.0000        0.0000       0.000000       0.00000
   4     917.9        0.0000        0.0000        0.0000        0.0000       0.000000       0.00000
   3     941.7        0.0000        0.0000        0.0000        0.0000       0.000000       0.00000
   2     965.5        0.0000        0.0000        0.0000        0.0000       0.000000       0.00000
   1     989.2        0.0000        0.0000        0.0000        0.0000       0.000000       0.00000
   0    1013.0        0.0000        0.0000        0.0000        0.0000       0.000000       0.00000



 Wavenumbers:   820. -  2600. cm-1, ATM      1
 LEVEL PRESSURE   UPWARD FLUX   DIFDOWN FLUX  DIRDOWN FLUX  DOWNWARD FLUX   NET FLUX    HEATING RATE
          mb          W/m2          W/m2          W/m2        W/m2          W/m2       degree/day
  60   .000300        0.0169        0.0000        4.5237        4.5237       4.506750       0.00000
  59    0.1000        0.0169        0.0000        4.5164        4.5164       4.499414       0.62094
  58    0.1403        0.0169        0.0000        4.5147        4.5147       4.497775       0.34328
  57    0.1968        0.0169        0.0000        4.5127        4.5127       4.495717       0.30737
  56    0.2760        0.0169        0.0000        4.5101        4.5101       4.493168       0.27160
  55    0.3871        0.0169        0.0000        4.5067        4.5067       4.489775       0.25773
  54    0.5430        0.0169        0.0000        4.5019        4.5019       4.485000       0.25851
  53    0.7617        0.0169        0.0000        4.4951        4.4951       4.478205       0.26220
  52     1.069        0.0169        0.0000        4.4858        4.4858       4.468881       0.25646
  51     1.499        0.0169        0.0000        4.4734        4.4734       4.456504       0.24275
  50     2.102        0.0169        0.0000        4.4569        4.4569       4.439994       0.23083
  49     2.949        0.0169        0.0000        4.4347        4.4347       4.417741       0.22182
  48     4.137        0.0169        0.0000        4.4060        4.4060       4.389046       0.20391
  47     5.803        0.0169        0.0000        4.3693        4.3693       4.352334       0.18597
  46     8.139        0.0169        0.0000        4.3229        4.3229       4.305972       0.16744
  45     11.42        0.0169        0.0000        4.2698        4.2698       4.252852       0.13676
  44     16.01        0.0169        0.0000        4.2192        4.2192       4.202243       0.09289
  43     22.46        0.0169        0.0000        4.1768        4.1768       4.159880       0.05543
  42     31.51        0.0169        0.0000        4.1346        4.1346       4.117642       0.03940
  41     44.20        0.0169        0.0000        4.0805        4.0806       4.063620       0.03593
  40     62.00        0.0169        0.0000        4.0093        4.0093       3.992382       0.03378
  39     85.78        0.0169        0.0000        3.9235        3.9235       3.906535       0.03047
  38     109.5        0.0169        0.0000        3.8452        3.8452       3.828290       0.02777
  37     133.1        0.0169        0.0000        3.7768        3.7768       3.759913       0.02455
  36     156.8        0.0169        0.0000        3.7171        3.7171       3.700176       0.02118
  35     180.6        0.0169        0.0000        3.6559        3.6559       3.638980       0.02173
  34     202.8        0.0169        0.0000        3.5891        3.5891       3.572168       0.02537
  33     228.4        0.0169        0.0000        3.5125        3.5125       3.495597       0.02526
  32     252.2        0.0169        0.0000        3.4265        3.4265       3.409588       0.03053
  31     276.0        0.0169        0.0000        3.3363        3.3363       3.319406       0.03201
  30     299.8        0.0169        0.0000        3.2269        3.2269       3.209961       0.03885
  29     323.5        0.0169        0.0000        3.0920        3.0920       3.075056       0.04789
  28     347.3        0.0169        0.0000        2.9330        2.9330       2.916104       0.05642
  27     371.1        0.0169        0.0000        2.7709        2.7709       2.754001       0.05754
  26     394.9        0.0170        0.0000        2.6190        2.6190       2.602036       0.05394
  25     418.6        0.0170        0.0000        2.4931        2.4931       2.476172       0.04468
  24     442.4        0.0170        0.0000        2.3960        2.3960       2.379032       0.03448
  23     466.2        0.0170        0.0000        2.3228        2.3228       2.305837       0.02598
  22     489.9        0.0170        0.0000        2.2609        2.2609       2.243910       0.02198
  21     513.7        0.0171        0.0000        2.2005        2.2005       2.183432       0.02147
  20     537.5        0.0171        0.0000        2.1385        2.1385       2.121408       0.02202
  19     561.3        0.0172        0.0000        2.0743        2.0743       2.057177       0.02280
  18     585.0        0.0172        0.0000        2.0083        2.0084       1.991167       0.02343
  17     608.8        0.0173        0.0000        1.9435        1.9436       1.926287       0.02303
  16     632.6        0.0174        0.0000        1.8805        1.8805       1.863177       0.02240
  15     656.4        0.0175        0.0000        1.8177        1.8177       1.800280       0.02233
  14     680.1        0.0176        0.0000        1.7560        1.7560       1.738439       0.02195
  13     703.9        0.0177        0.0000        1.6954        1.6954       1.677672       0.02157
  12     727.7        0.0179        0.0000        1.6339        1.6340       1.616060       0.02187
  11     751.5        0.0181        0.0000        1.5691        1.5691       1.550989       0.02310
  10     775.2        0.0185        0.0000        1.5000        1.5001       1.481632       0.02462
   9     799.0        0.0188        0.0000        1.4254        1.4255       1.406617       0.02663
   8     822.8        0.0193        0.0000        1.3456        1.3457       1.326339       0.02850
   7     846.6        0.0199        0.0000        1.2673        1.2673       1.247437       0.02801
   6     870.4        0.0205        0.0000        1.1909        1.1909       1.170421       0.02734
   5     894.1        0.0212        0.0000        1.1164        1.1164       1.095242       0.02669
   4     917.9        0.0219        0.0000        1.0431        1.0432       1.021240       0.02627
   3     941.7        0.0228        0.0000        0.9711        0.9712       0.948338       0.02588
   2     965.5        0.0238        0.0000        0.9009        0.9010       0.877120       0.02528
   1     989.2        0.0250        0.0000        0.8329        0.8329       0.807889       0.02457
   0    1013.0        0.0264        0.0000        0.7674        0.7675       0.741070       0.02372

  Modules and versions used in this calculation:

       rrtmg_sw.1col.f90:  $Revision$                    rrtmg_sw_init.f90:  $Revision$        
     rrtmgsw_cldprop.f90:  $Revision$                  rrtmgsw_cldprmc.f90:  NOT USED          
     rrtmg_sw_reftra.f90:  $Revision$                  rrtmg_sw_spcvrt.f90:  NOT USED          
     rrtmg_sw_spcvmc.f90:  NOT USED                    rrtmgsw_setcoef.f90:  NOT USED          
     rrtmg_sw_taumol.f90:  $Revision$                  rrtmg_sw_vrtqdr.f90:  NOT USED          
                rrtatm.f:  NOT USED                             util_xxx.f:  NOT USED          
                 extra.f:  NOT USED                       rrtmg_sw_k_g.f90:  $Revision$        

