

 Wavenumbers:   820. - 50000. cm-1, ATM      1
 LEVEL PRESSURE   UPWARD FLUX   DIFDOWN FLUX  DIRDOWN FLUX  DOWNWARD FLUX   NET FLUX    HEATING RATE
          mb          W/m2          W/m2          W/m2        W/m2          W/m2       degree/day
  60   .000300       37.7968        0.0000      236.3090      236.3090     198.512139       0.00000
  59    0.1000       37.7893        0.0090      236.2160      236.2250     198.435706       6.46970
  58    0.1403       37.7863        0.0126      236.1638      236.1764     198.390082       9.55415
  57    0.1968       37.7822        0.0177      236.0782      236.0959     198.313658      11.41510
  56    0.2760       37.7766        0.0246      235.9427      235.9673     198.190751      13.09632
  55    0.3871       37.7689        0.0342      235.7418      235.7760     198.007125      13.94821
  54    0.5430       37.7584        0.0473      235.4609      235.5082     197.749761      13.93156
  53    0.7617       37.7444        0.0650      235.0841      235.1490     197.404682      13.31582
  52     1.069       37.7256        0.0890      234.6254      234.7143     196.988728      11.44165
  51     1.499       37.7012        0.1213      234.1152      234.2364     196.535243       8.89385
  50     2.102       37.6699        0.1649      233.5346      233.6995     196.029552       7.07025
  49     2.949       37.6297        0.2257      232.8257      233.0514     195.421669       6.05954
  48     4.137       37.5788        0.3095      231.9665      232.2760     194.697199       5.14813
  47     5.803       37.5122        0.4248      230.9442      231.3690     193.856758       4.25752
  46     8.139       37.4204        0.5838      229.7473      230.3311     192.910711       3.41671
  45     11.42       37.2891        0.8030      228.3495      229.1525     191.863407       2.69643
  44     16.01       37.1007        1.1041      226.6916      227.7957     190.695047       2.14454
  43     22.46       36.8308        1.5171      224.6996      226.2167     189.385862       1.71312
  42     31.51       36.4416        2.0816      222.3497      224.4313     187.989751       1.30238
  41     44.20       35.8774        2.8518      219.6348      222.4866     186.609240       0.91809
  40     62.00       35.0815        3.8869      216.4480      220.3349     185.253320       0.64286
  39     85.78       34.0155        5.2096      212.9140      218.1236     184.108083       0.40651
  38     109.5       32.9511        6.4891      209.7504      216.2395     183.288461       0.29093
  37     133.1       31.9550        7.6630      206.9107      214.5736     182.618643       0.24054
  36     156.8       31.0129        8.7539      204.2914      213.0453     182.032350       0.20790
  35     180.6       30.0382        9.8621      201.6304      211.4924     181.454253       0.20524
  34     202.8       29.1235       10.8828      199.0926      209.9754     180.851935       0.22869
  33     228.4       28.2147       11.8798      196.3902      208.2699     180.055288       0.26284
  32     252.2       27.3269       12.8372      193.5018      206.3390     179.012110       0.37029
  31     276.0       26.4714       13.7442      190.4738      204.2180     177.746589       0.44921
  30     299.8       25.6304       14.6204      187.2728      201.8932     176.262864       0.52666
  29     323.5       24.8079       15.4627      183.9407      199.4034     174.595491       0.59185
  28     347.3       24.0118       16.2638      180.5165      196.7803     172.768418       0.64854
  27     371.1       23.2436       17.0235      177.1139      194.1374     170.893805       0.66541
  26     394.9       22.4820       17.7631      173.6761      191.4392     168.957146       0.68743
  25     418.6       21.7388       18.4718      170.2819      188.7537     167.014934       0.68941
  24     442.4       21.0120       19.1519      166.9259      186.0778     165.065873       0.69184
  23     466.2       20.2983       19.8072      163.6363      183.4435     163.145217       0.68175
  22     489.9       19.6069       20.4298      160.4548      180.8846     161.277657       0.66291
  21     513.7       18.9251       21.0319      157.3103      178.3422     159.417080       0.66043
  20     537.5       18.2626       21.6052      154.2433      175.8485     157.585917       0.64999
  19     561.3       17.6176       22.1520      151.2433      173.3953     155.777724       0.64183
  18     585.0       16.9754       22.6851      148.2677      170.9528     153.977391       0.63904
  17     608.8       16.3511       23.1925      145.3842      168.5768     152.225649       0.62180
  16     632.6       15.7437       23.6757      142.5768      166.2525     150.508883       0.60938
  15     656.4       15.1402       24.1450      139.7562      163.9012     148.760995       0.62043
  14     680.1       14.5525       24.5914      136.9543      161.5457     146.993199       0.62749
  13     703.9       13.9800       25.0158      134.1760      159.1919     145.211904       0.63229
  12     727.7       13.4137       25.4250      131.3784      156.8034     143.389777       0.64678
  11     751.5       12.8537       25.8188      128.5422      154.3610     141.507357       0.66818
  10     775.2       12.3068       26.1924      125.7077      151.9001     139.593329       0.67940
   9     799.0       11.7727       26.5463      122.8834      149.4297     137.656988       0.68732
   8     822.8       11.2427       26.8873      120.0769      146.9641     135.721397       0.68706
   7     846.6       10.7224       27.2131      117.4177      144.6308     133.908396       0.64354
   6     870.4       10.2142       27.5228      114.8984      142.4213     132.207111       0.60389
   5     894.1        9.7174       27.8173      112.4975      140.3148     130.597370       0.57139
   4     917.9        9.2267       28.0998      110.1705      138.2703     129.043618       0.55152
   3     941.7        8.7435       28.3698      107.9049      136.2747     127.531196       0.53685
   2     965.5        8.2714       28.6254      105.7109      134.3363     126.064909       0.52047
   1     989.2        7.8101       28.8673      103.5824      132.4497     124.639644       0.50580
   0    1013.0        7.3594       29.0960      101.5155      130.6116     123.252177       0.49260



 Wavenumbers:  2600. -  3250. cm-1, ATM      1
 LEVEL PRESSURE   UPWARD FLUX   DIFDOWN FLUX  DIRDOWN FLUX  DOWNWARD FLUX   NET FLUX    HEATING RATE
          mb          W/m2          W/m2          W/m2        W/m2          W/m2       degree/day
  60   .000300        0.0113        0.0000        2.0827        2.0827       2.071424       0.00000
  59    0.1000        0.0113        0.0000        2.0826        2.0826       2.071352       0.00612
  58    0.1403        0.0113        0.0000        2.0826        2.0826       2.071323       0.00610
  57    0.1968        0.0113        0.0000        2.0825        2.0825       2.071282       0.00612
  56    0.2760        0.0113        0.0000        2.0825        2.0825       2.071225       0.00607
  55    0.3871        0.0113        0.0000        2.0824        2.0824       2.071141       0.00632
  54    0.5430        0.0113        0.0000        2.0823        2.0823       2.071019       0.00665
  53    0.7617        0.0113        0.0000        2.0821        2.0821       2.070827       0.00739
  52     1.069        0.0113        0.0000        2.0818        2.0818       2.070511       0.00869
  51     1.499        0.0113        0.0000        2.0812        2.0812       2.069944       0.01112
  50     2.102        0.0113        0.0000        2.0802        2.0802       2.068976       0.01354
  49     2.949        0.0113        0.0000        2.0787        2.0787       2.067434       0.01537
  48     4.137        0.0113        0.0000        2.0765        2.0765       2.065278       0.01532
  47     5.803        0.0113        0.0000        2.0739        2.0739       2.062673       0.01320
  46     8.139        0.0113        0.0000        2.0712        2.0712       2.059896       0.01003
  45     11.42        0.0113        0.0000        2.0683        2.0683       2.057031       0.00738
  44     16.01        0.0113        0.0000        2.0649        2.0649       2.053661       0.00619
  43     22.46        0.0113        0.0000        2.0601        2.0601       2.048812       0.00635
  42     31.51        0.0113        0.0000        2.0523        2.0523       2.041025       0.00726
  41     44.20        0.0112        0.0000        2.0390        2.0390       2.027793       0.00880
  40     62.00        0.0112        0.0000        2.0180        2.0180       2.006806       0.00995
  39     85.78        0.0112        0.0000        1.9909        1.9909       1.979694       0.00962
  38     109.5        0.0112        0.0000        1.9671        1.9672       1.955932       0.00843
  37     133.1        0.0112        0.0000        1.9489        1.9490       1.937777       0.00652
  36     156.8        0.0112        0.0001        1.9347        1.9347       1.923517       0.00506
  35     180.6        0.0112        0.0001        1.9217        1.9218       1.910555       0.00460
  34     202.8        0.0112        0.0001        1.9096        1.9097       1.898510       0.00457
  33     228.4        0.0112        0.0001        1.8956        1.8956       1.884439       0.00464
  32     252.2        0.0112        0.0001        1.8778        1.8779       1.866674       0.00631
  31     276.0        0.0112        0.0001        1.8563        1.8564       1.845177       0.00763
  30     299.8        0.0112        0.0001        1.8290        1.8291       1.817953       0.00966
  29     323.5        0.0112        0.0001        1.7953        1.7954       1.784213       0.01198
  28     347.3        0.0112        0.0001        1.7549        1.7550       1.743814       0.01434
  27     371.1        0.0112        0.0001        1.7094        1.7095       1.698304       0.01615
  26     394.9        0.0112        0.0001        1.6582        1.6583       1.647134       0.01816
  25     418.6        0.0112        0.0001        1.6036        1.6037       1.592491       0.01940
  24     442.4        0.0112        0.0001        1.5466        1.5467       1.535530       0.02022
  23     466.2        0.0112        0.0001        1.4898        1.4899       1.478685       0.02018
  22     489.9        0.0112        0.0001        1.4343        1.4344       1.423218       0.01969
  21     513.7        0.0112        0.0001        1.3789        1.3790       1.367785       0.01968
  20     537.5        0.0113        0.0001        1.3237        1.3238       1.312572       0.01960
  19     561.3        0.0113        0.0001        1.2688        1.2689       1.257634       0.01950
  18     585.0        0.0113        0.0002        1.2135        1.2136       1.202302       0.01964
  17     608.8        0.0113        0.0002        1.1591        1.1592       1.147870       0.01932
  16     632.6        0.0114        0.0002        1.1055        1.1056       1.094244       0.01904
  15     656.4        0.0114        0.0002        1.0513        1.0515       1.040071       0.01923
  14     680.1        0.0115        0.0002        0.9976        0.9978       0.986296       0.01909
  13     703.9        0.0115        0.0002        0.9448        0.9449       0.933390       0.01878
  12     727.7        0.0116        0.0002        0.8924        0.8925       0.880919       0.01863
  11     751.5        0.0117        0.0001        0.8399        0.8401       0.828412       0.01864
  10     775.2        0.0118        0.0001        0.7883        0.7885       0.776725       0.01835
   9     799.0        0.0119        0.0001        0.7376        0.7377       0.725840       0.01806
   8     822.8        0.0120        0.0001        0.6879        0.6881       0.676050       0.01767
   7     846.6        0.0122        0.0001        0.6423        0.6424       0.630245       0.01626
   6     870.4        0.0123        0.0001        0.6003        0.6004       0.588068       0.01497
   5     894.1        0.0125        0.0001        0.5613        0.5615       0.548963       0.01388
   4     917.9        0.0127        0.0001        0.5247        0.5249       0.512152       0.01307
   3     941.7        0.0129        0.0001        0.4902        0.4904       0.477445       0.01232
   2     965.5        0.0132        0.0001        0.4580        0.4581       0.444934       0.01154
   1     989.2        0.0134        0.0001        0.4278        0.4279       0.414487       0.01081
   0    1013.0        0.0138        0.0001        0.3996        0.3997       0.385932       0.01014



 Wavenumbers:  3250. -  4000. cm-1, ATM      1
 LEVEL PRESSURE   UPWARD FLUX   DIFDOWN FLUX  DIRDOWN FLUX  DOWNWARD FLUX   NET FLUX    HEATING RATE
          mb          W/m2          W/m2          W/m2        W/m2          W/m2       degree/day
  60   .000300        0.0004        0.0000        3.5111        3.5111       3.510700       0.00000
  59    0.1000        0.0004        0.0000        3.5014        3.5014       3.500999       0.82114
  58    0.1403        0.0004        0.0000        3.4998        3.4998       3.499437       0.32719
  57    0.1968        0.0004        0.0000        3.4979        3.4979       3.497489       0.29089
  56    0.2760        0.0004        0.0000        3.4954        3.4954       3.494948       0.27081
  55    0.3871        0.0004        0.0000        3.4920        3.4920       3.491576       0.25610
  54    0.5430        0.0004        0.0000        3.4877        3.4877       3.487320       0.23038
  53    0.7617        0.0004        0.0000        3.4826        3.4826       3.482236       0.19619
  52     1.069        0.0004        0.0000        3.4770        3.4770       3.476579       0.15562
  51     1.499        0.0004        0.0000        3.4708        3.4708       3.470406       0.12107
  50     2.102        0.0004        0.0000        3.4634        3.4634       3.463045       0.10291
  49     2.949        0.0004        0.0000        3.4536        3.4536       3.453246       0.09768
  48     4.137        0.0004        0.0000        3.4401        3.4401       3.439669       0.09648
  47     5.803        0.0004        0.0000        3.4209        3.4209       3.420537       0.09692
  46     8.139        0.0004        0.0000        3.3938        3.3938       3.393410       0.09797
  45     11.42        0.0004        0.0000        3.3560        3.3560       3.355589       0.09738
  44     16.01        0.0004        0.0000        3.3066        3.3066       3.306232       0.09059
  43     22.46        0.0004        0.0000        3.2480        3.2481       3.247676       0.07662
  42     31.51        0.0004        0.0000        3.1805        3.1805       3.180170       0.06297
  41     44.20        0.0003        0.0001        3.0940        3.0940       3.093702       0.05750
  40     62.00        0.0003        0.0001        2.9788        2.9789       2.978578       0.05458
  39     85.78        0.0003        0.0001        2.8443        2.8444       2.844093       0.04774
  38     109.5        0.0003        0.0001        2.7214        2.7216       2.721307       0.04358
  37     133.1        0.0002        0.0002        2.6191        2.6192       2.618990       0.03674
  36     156.8        0.0002        0.0002        2.5313        2.5315       2.531255       0.03111
  35     180.6        0.0002        0.0002        2.4444        2.4446       2.444424       0.03083
  34     202.8        0.0002        0.0002        2.3477        2.3479       2.347751       0.03670
  33     228.4        0.0001        0.0002        2.2271        2.2273       2.227186       0.03978
  32     252.2        0.0001        0.0002        2.0778        2.0780       2.077866       0.05300
  31     276.0        0.0001        0.0003        1.8943        1.8946       1.894450       0.06511
  30     299.8        0.0001        0.0003        1.6850        1.6852       1.685127       0.07430
  29     323.5        0.0001        0.0002        1.4794        1.4797       1.479589       0.07296
  28     347.3        0.0001        0.0002        1.2938        1.2940       1.293941       0.06590
  27     371.1        0.0001        0.0002        1.1349        1.1352       1.135094       0.05638
  26     394.9        0.0000        0.0002        0.9928        0.9930       0.992982       0.05044
  25     418.6        0.0000        0.0002        0.8671        0.8673       0.867247       0.04463
  24     442.4        0.0000        0.0002        0.7541        0.7543       0.754220       0.04012
  23     466.2        0.0000        0.0002        0.6527        0.6529       0.652868       0.03598
  22     489.9        0.0000        0.0002        0.5608        0.5610       0.561001       0.03261
  21     513.7        0.0000        0.0002        0.4743        0.4744       0.474404       0.03074
  20     537.5        0.0000        0.0001        0.3946        0.3948       0.394750       0.02827
  19     561.3        0.0000        0.0001        0.3229        0.3231       0.323062       0.02545
  18     585.0        0.0000        0.0001        0.2596        0.2597       0.259683       0.02250
  17     608.8        0.0000        0.0001        0.2054        0.2055       0.205529       0.01922
  16     632.6        0.0000        0.0001        0.1590        0.1591       0.159100       0.01648
  15     656.4        0.0000        0.0001        0.1181        0.1182       0.118166       0.01453
  14     680.1        0.0000        0.0001        0.0832        0.0832       0.083241       0.01240
  13     703.9        0.0000        0.0001        0.0549        0.0550       0.054949       0.01004
  12     727.7        0.0000        0.0001        0.0332        0.0332       0.033240       0.00771
  11     751.5        0.0000        0.0000        0.0179        0.0179       0.017913       0.00544
  10     775.2        0.0000        0.0000        0.0084        0.0085       0.008470       0.00335
   9     799.0        0.0000        0.0000        0.0034        0.0034       0.003437       0.00179
   8     822.8        0.0000        0.0000        0.0012        0.0012       0.001181       0.00080
   7     846.6        0.0000        0.0000        0.0004        0.0004       0.000367       0.00029
   6     870.4        0.0000        0.0000        0.0001        0.0001       0.000105       0.00009
   5     894.1        0.0000        0.0000        0.0000        0.0000       0.000028       0.00003
   4     917.9        0.0000        0.0000        0.0000        0.0000       0.000008       0.00001
   3     941.7        0.0000        0.0000        0.0000        0.0000       0.000002       0.00000
   2     965.5        0.0000        0.0000        0.0000        0.0000       0.000001       0.00000
   1     989.2        0.0000        0.0000        0.0000        0.0000       0.000000       0.00000
   0    1013.0        0.0000        0.0000        0.0000        0.0000       0.000000       0.00000



 Wavenumbers:  4000. -  4650. cm-1, ATM      1
 LEVEL PRESSURE   UPWARD FLUX   DIFDOWN FLUX  DIRDOWN FLUX  DOWNWARD FLUX   NET FLUX    HEATING RATE
          mb          W/m2          W/m2          W/m2        W/m2          W/m2       degree/day
  60   .000300        0.0673        0.0000        4.1231        4.1231       4.055780       0.00000
  59    0.1000        0.0673        0.0000        4.1231        4.1231       4.055771       0.00076
  58    0.1403        0.0673        0.0000        4.1231        4.1231       4.055767       0.00076
  57    0.1968        0.0673        0.0000        4.1231        4.1231       4.055762       0.00077
  56    0.2760        0.0673        0.0000        4.1231        4.1231       4.055755       0.00076
  55    0.3871        0.0673        0.0000        4.1231        4.1231       4.055745       0.00080
  54    0.5430        0.0673        0.0000        4.1230        4.1230       4.055729       0.00085
  53    0.7617        0.0673        0.0000        4.1230        4.1230       4.055704       0.00095
  52     1.069        0.0673        0.0000        4.1230        4.1230       4.055663       0.00114
  51     1.499        0.0673        0.0000        4.1229        4.1229       4.055586       0.00151
  50     2.102        0.0673        0.0000        4.1227        4.1228       4.055445       0.00197
  49     2.949        0.0673        0.0000        4.1225        4.1225       4.055193       0.00251
  48     4.137        0.0673        0.0000        4.1221        4.1221       4.054767       0.00303
  47     5.803        0.0673        0.0000        4.1214        4.1214       4.054083       0.00346
  46     8.139        0.0673        0.0000        4.1203        4.1203       4.053022       0.00383
  45     11.42        0.0673        0.0000        4.1186        4.1187       4.051403       0.00417
  44     16.01        0.0673        0.0001        4.1162        4.1163       4.048989       0.00443
  43     22.46        0.0672        0.0001        4.1126        4.1127       4.045468       0.00461
  42     31.51        0.0672        0.0001        4.1075        4.1076       4.040357       0.00477
  41     44.20        0.0672        0.0002        4.0996        4.0997       4.032572       0.00518
  40     62.00        0.0671        0.0002        4.0879        4.0881       4.020971       0.00550
  39     85.78        0.0670        0.0003        4.0719        4.0722       4.005209       0.00559
  38     109.5        0.0669        0.0004        4.0552        4.0556       3.988630       0.00588
  37     133.1        0.0669        0.0005        4.0392        4.0396       3.972754       0.00570
  36     156.8        0.0668        0.0005        4.0236        4.0241       3.957323       0.00547
  35     180.6        0.0667        0.0006        4.0068        4.0074       3.940666       0.00591
  34     202.8        0.0666        0.0007        3.9898        3.9905       3.923855       0.00638
  33     228.4        0.0666        0.0008        3.9709        3.9717       3.905090       0.00619
  32     252.2        0.0665        0.0009        3.9498        3.9506       3.884144       0.00743
  31     276.0        0.0664        0.0009        3.9261        3.9271       3.860641       0.00834
  30     299.8        0.0664        0.0010        3.8983        3.8993       3.832952       0.00983
  29     323.5        0.0663        0.0011        3.8655        3.8666       3.800278       0.01160
  28     347.3        0.0663        0.0012        3.8272        3.8284       3.762139       0.01354
  27     371.1        0.0662        0.0012        3.7855        3.7868       3.720560       0.01476
  26     394.9        0.0662        0.0013        3.7401        3.7414       3.675260       0.01608
  25     418.6        0.0661        0.0014        3.6928        3.6942       3.628083       0.01675
  24     442.4        0.0661        0.0014        3.6441        3.6455       3.579445       0.01726
  23     466.2        0.0661        0.0015        3.5941        3.5956       3.529535       0.01772
  22     489.9        0.0660        0.0016        3.5423        3.5439       3.477832       0.01835
  21     513.7        0.0660        0.0016        3.4864        3.4880       3.422011       0.01981
  20     537.5        0.0660        0.0017        3.4263        3.4279       3.361936       0.02132
  19     561.3        0.0660        0.0017        3.3617        3.3634       3.297423       0.02290
  18     585.0        0.0660        0.0018        3.2927        3.2944       3.228433       0.02449
  17     608.8        0.0660        0.0018        3.2221        3.2239       3.157927       0.02503
  16     632.6        0.0660        0.0019        3.1511        3.1529       3.086906       0.02521
  15     656.4        0.0661        0.0019        3.0782        3.0801       3.014085       0.02585
  14     680.1        0.0661        0.0019        3.0051        3.0070       2.940921       0.02597
  13     703.9        0.0662        0.0020        2.9323        2.9342       2.868098       0.02585
  12     727.7        0.0662        0.0020        2.8589        2.8609       2.794672       0.02606
  11     751.5        0.0663        0.0020        2.7836        2.7856       2.719311       0.02675
  10     775.2        0.0665        0.0020        2.7065        2.7086       2.642123       0.02740
   9     799.0        0.0666        0.0021        2.6269        2.6290       2.562354       0.02832
   8     822.8        0.0669        0.0021        2.5453        2.5474       2.480519       0.02905
   7     846.6        0.0671        0.0021        2.4675        2.4696       2.402504       0.02769
   6     870.4        0.0674        0.0021        2.3940        2.3960       2.328675       0.02621
   5     894.1        0.0677        0.0021        2.3245        2.3266       2.258963       0.02475
   4     917.9        0.0680        0.0021        2.2585        2.2606       2.192577       0.02356
   3     941.7        0.0684        0.0021        2.1956        2.1977       2.129300       0.02246
   2     965.5        0.0688        0.0021        2.1361        2.1382       2.069381       0.02127
   1     989.2        0.0693        0.0021        2.0799        2.0820       2.012692       0.02012
   0    1013.0        0.0699        0.0021        2.0266        2.0287       1.958897       0.01910



 Wavenumbers:  4650. -  5150. cm-1, ATM      1
 LEVEL PRESSURE   UPWARD FLUX   DIFDOWN FLUX  DIRDOWN FLUX  DOWNWARD FLUX   NET FLUX    HEATING RATE
          mb          W/m2          W/m2          W/m2        W/m2          W/m2       degree/day
  60   .000300        0.0466        0.0000        3.9027        3.9027       3.856119       0.00000
  59    0.1000        0.0466        0.0000        3.9007        3.9007       3.854078       0.17270
  58    0.1403        0.0466        0.0000        3.8999        3.8999       3.853314       0.15998
  57    0.1968        0.0466        0.0000        3.8989        3.8989       3.852291       0.15284
  56    0.2760        0.0466        0.0000        3.8975        3.8975       3.850961       0.14172
  55    0.3871        0.0466        0.0000        3.8958        3.8958       3.849251       0.12988
  54    0.5430        0.0466        0.0000        3.8937        3.8937       3.847147       0.11390
  53    0.7617        0.0466        0.0000        3.8912        3.8912       3.844651       0.09633
  52     1.069        0.0466        0.0000        3.8884        3.8884       3.841825       0.07772
  51     1.499        0.0466        0.0000        3.8855        3.8855       3.838890       0.05757
  50     2.102        0.0466        0.0000        3.8826        3.8826       3.836015       0.04020
  49     2.949        0.0466        0.0000        3.8797        3.8798       3.833181       0.02825
  48     4.137        0.0466        0.0000        3.8767        3.8767       3.830171       0.02139
  47     5.803        0.0466        0.0000        3.8729        3.8730       3.826411       0.01905
  46     8.139        0.0465        0.0000        3.8676        3.8676       3.821069       0.01929
  45     11.42        0.0465        0.0001        3.8595        3.8595       3.813011       0.02075
  44     16.01        0.0465        0.0001        3.8470        3.8471       3.800605       0.02277
  43     22.46        0.0465        0.0001        3.8278        3.8279       3.781419       0.02511
  42     31.51        0.0464        0.0002        3.7984        3.7986       3.752157       0.02730
  41     44.20        0.0464        0.0002        3.7561        3.7564       3.710006       0.02803
  40     62.00        0.0463        0.0003        3.7013        3.7016       3.655341       0.02592
  39     85.78        0.0462        0.0005        3.6410        3.6415       3.595315       0.02131
  38     109.5        0.0460        0.0006        3.5925        3.5931       3.547065       0.01713
  37     133.1        0.0459        0.0007        3.5518        3.5525       3.506595       0.01453
  36     156.8        0.0458        0.0008        3.5136        3.5144       3.468530       0.01350
  35     180.6        0.0457        0.0009        3.4720        3.4729       3.427215       0.01467
  34     202.8        0.0456        0.0010        3.4301        3.4311       3.385501       0.01584
  33     228.4        0.0455        0.0011        3.3849        3.3860       3.340480       0.01485
  32     252.2        0.0454        0.0012        3.3369        3.3381       3.292668       0.01697
  31     276.0        0.0453        0.0013        3.2864        3.2877       3.242371       0.01785
  30     299.8        0.0452        0.0014        3.2314        3.2328       3.187554       0.01946
  29     323.5        0.0452        0.0015        3.1720        3.1735       3.128355       0.02101
  28     347.3        0.0451        0.0016        3.1100        3.1117       3.066581       0.02193
  27     371.1        0.0450        0.0017        3.0461        3.0478       3.002834       0.02263
  26     394.9        0.0449        0.0018        2.9793        2.9811       2.936185       0.02366
  25     418.6        0.0449        0.0019        2.9109        2.9128       2.867911       0.02423
  24     442.4        0.0448        0.0019        2.8414        2.8433       2.798485       0.02464
  23     466.2        0.0448        0.0020        2.7715        2.7735       2.728755       0.02475
  22     489.9        0.0448        0.0021        2.7024        2.7045       2.659715       0.02451
  21     513.7        0.0447        0.0021        2.6332        2.6354       2.590638       0.02452
  20     537.5        0.0447        0.0022        2.5651        2.5673       2.522567       0.02416
  19     561.3        0.0447        0.0023        2.4976        2.4999       2.455141       0.02393
  18     585.0        0.0447        0.0023        2.4301        2.4324       2.387666       0.02395
  17     608.8        0.0447        0.0023        2.3642        2.3666       2.321858       0.02336
  16     632.6        0.0448        0.0024        2.2998        2.3021       2.257386       0.02288
  15     656.4        0.0448        0.0024        2.2347        2.2371       2.192310       0.02310
  14     680.1        0.0449        0.0025        2.1703        2.1727       2.127846       0.02288
  13     703.9        0.0449        0.0025        2.1066        2.1091       2.064115       0.02262
  12     727.7        0.0450        0.0025        2.0425        2.0450       2.000021       0.02275
  11     751.5        0.0451        0.0025        1.9777        1.9802       1.935047       0.02306
  10     775.2        0.0453        0.0025        1.9127        1.9152       1.869938       0.02311
   9     799.0        0.0455        0.0026        1.8480        1.8505       1.805041       0.02304
   8     822.8        0.0457        0.0026        1.7853        1.7879       1.742192       0.02231
   7     846.6        0.0459        0.0026        1.7269        1.7295       1.683584       0.02080
   6     870.4        0.0462        0.0026        1.6726        1.6752       1.628996       0.01938
   5     894.1        0.0464        0.0026        1.6217        1.6243       1.577848       0.01816
   4     917.9        0.0467        0.0026        1.5731        1.5757       1.528969       0.01735
   3     941.7        0.0471        0.0026        1.5265        1.5291       1.482040       0.01666
   2     965.5        0.0474        0.0026        1.4818        1.4844       1.436992       0.01599
   1     989.2        0.0478        0.0026        1.4388        1.4414       1.393602       0.01540
   0    1013.0        0.0482        0.0026        1.3973        1.3998       1.351616       0.01491



 Wavenumbers:  5150. -  6150. cm-1, ATM      1
 LEVEL PRESSURE   UPWARD FLUX   DIFDOWN FLUX  DIRDOWN FLUX  DOWNWARD FLUX   NET FLUX    HEATING RATE
          mb          W/m2          W/m2          W/m2        W/m2          W/m2       degree/day
  60   .000300        0.1438        0.0000        9.7841        9.7841       9.640258       0.00000
  59    0.1000        0.1438        0.0000        9.7836        9.7836       9.639763       0.04190
  58    0.1403        0.1438        0.0000        9.7834        9.7834       9.639564       0.04173
  57    0.1968        0.1438        0.0000        9.7831        9.7831       9.639284       0.04182
  56    0.2760        0.1438        0.0000        9.7827        9.7827       9.638897       0.04129
  55    0.3871        0.1438        0.0000        9.7822        9.7822       9.638354       0.04125
  54    0.5430        0.1438        0.0000        9.7814        9.7814       9.637600       0.04077
  53    0.7617        0.1438        0.0000        9.7804        9.7804       9.636556       0.04032
  52     1.069        0.1438        0.0000        9.7789        9.7789       9.635097       0.04012
  51     1.499        0.1438        0.0000        9.7769        9.7769       9.633099       0.03919
  50     2.102        0.1438        0.0001        9.7741        9.7742       9.630385       0.03795
  49     2.949        0.1438        0.0001        9.7703        9.7704       9.626645       0.03728
  48     4.137        0.1437        0.0001        9.7653        9.7654       9.621616       0.03573
  47     5.803        0.1437        0.0001        9.7586        9.7587       9.615004       0.03350
  46     8.139        0.1436        0.0002        9.7499        9.7501       9.606481       0.03078
  45     11.42        0.1436        0.0003        9.7391        9.7394       9.595856       0.02736
  44     16.01        0.1435        0.0004        9.7262        9.7266       9.583158       0.02331
  43     22.46        0.1433        0.0006        9.7114        9.7120       9.568699       0.01892
  42     31.51        0.1431        0.0008        9.6953        9.6961       9.553009       0.01464
  41     44.20        0.1428        0.0011        9.6779        9.6790       9.536261       0.01114
  40     62.00        0.1424        0.0015        9.6585        9.6601       9.517703       0.00880
  39     85.78        0.1418        0.0021        9.6352        9.6373       9.495534       0.00787
  38     109.5        0.1412        0.0027        9.6114        9.6141       9.472830       0.00806
  37     133.1        0.1407        0.0033        9.5870        9.5903       9.449636       0.00833
  36     156.8        0.1401        0.0038        9.5611        9.5649       9.424790       0.00881
  35     180.6        0.1396        0.0044        9.5246        9.5290       9.389370       0.01257
  34     202.8        0.1390        0.0049        9.4590        9.4639       9.324881       0.02449
  33     228.4        0.1385        0.0055        9.3276        9.3331       9.194595       0.04299
  32     252.2        0.1380        0.0060        9.1305        9.1365       8.998475       0.06961
  31     276.0        0.1375        0.0064        8.8960        8.9024       8.764932       0.08290
  30     299.8        0.1370        0.0068        8.6265        8.6334       8.496400       0.09532
  29     323.5        0.1365        0.0072        8.3096        8.3168       8.180293       0.11220
  28     347.3        0.1361        0.0075        7.9598        7.9673       7.831225       0.12391
  27     371.1        0.1356        0.0078        7.6161        7.6239       7.488217       0.12175
  26     394.9        0.1352        0.0080        7.2782        7.2862       7.150952       0.11972
  25     418.6        0.1349        0.0082        6.9587        6.9669       6.832028       0.11320
  24     442.4        0.1345        0.0083        6.6640        6.6723       6.537826       0.10443
  23     466.2        0.1342        0.0085        6.4036        6.4121       6.277915       0.09226
  22     489.9        0.1338        0.0086        6.1785        6.1871       6.053282       0.07974
  21     513.7        0.1335        0.0087        5.9807        5.9894       5.855892       0.07007
  20     537.5        0.1332        0.0088        5.8101        5.8189       5.685691       0.06041
  19     561.3        0.1330        0.0089        5.6625        5.6714       5.538425       0.05227
  18     585.0        0.1327        0.0091        5.5325        5.5415       5.408827       0.04600
  17     608.8        0.1325        0.0092        5.4177        5.4269       5.294413       0.04061
  16     632.6        0.1323        0.0093        5.3119        5.3212       5.188983       0.03742
  15     656.4        0.1320        0.0095        5.2067        5.2162       5.084117       0.03722
  14     680.1        0.1319        0.0096        5.0997        5.1093       4.977406       0.03788
  13     703.9        0.1317        0.0098        4.9900        4.9998       4.868038       0.03882
  12     727.7        0.1316        0.0099        4.8767        4.8866       4.755026       0.04011
  11     751.5        0.1315        0.0100        4.7605        4.7705       4.639014       0.04118
  10     775.2        0.1315        0.0102        4.6459        4.6561       4.524548       0.04063
   9     799.0        0.1315        0.0103        4.5361        4.5464       4.414878       0.03893
   8     822.8        0.1316        0.0104        4.4342        4.4446       4.312954       0.03618
   7     846.6        0.1317        0.0105        4.3462        4.3567       4.224958       0.03123
   6     870.4        0.1319        0.0105        4.2694        4.2800       4.148059       0.02730
   5     894.1        0.1321        0.0106        4.2001        4.2108       4.078655       0.02464
   4     917.9        0.1324        0.0107        4.1347        4.1455       4.013095       0.02327
   3     941.7        0.1327        0.0108        4.0708        4.0816       3.948926       0.02278
   2     965.5        0.1331        0.0109        4.0071        4.0180       3.884918       0.02272
   1     989.2        0.1335        0.0110        3.9425        3.9536       3.820043       0.02302
   0    1013.0        0.1341        0.0111        3.8765        3.8877       3.753625       0.02358



 Wavenumbers:  6150. -  7700. cm-1, ATM      1
 LEVEL PRESSURE   UPWARD FLUX   DIFDOWN FLUX  DIRDOWN FLUX  DOWNWARD FLUX   NET FLUX    HEATING RATE
          mb          W/m2          W/m2          W/m2        W/m2          W/m2       degree/day
  60   .000300        0.2415        0.0000       18.0961       18.0961      17.854536       0.00000
  59    0.1000        0.2415        0.0000       18.0954       18.0954      17.853877       0.05578
  58    0.1403        0.2415        0.0000       18.0951       18.0951      17.853610       0.05578
  57    0.1968        0.2415        0.0000       18.0947       18.0947      17.853235       0.05605
  56    0.2760        0.2415        0.0000       18.0942       18.0942      17.852714       0.05551
  55    0.3871        0.2415        0.0000       18.0934       18.0935      17.851981       0.05564
  54    0.5430        0.2415        0.0001       18.0924       18.0924      17.850961       0.05522
  53    0.7617        0.2415        0.0001       18.0909       18.0910      17.849540       0.05485
  52     1.069        0.2414        0.0001       18.0889       18.0890      17.847546       0.05483
  51     1.499        0.2414        0.0002       18.0860       18.0862      17.844805       0.05377
  50     2.102        0.2413        0.0002       18.0822       18.0824      17.841060       0.05236
  49     2.949        0.2412        0.0003       18.0768       18.0771      17.835856       0.05188
  48     4.137        0.2411        0.0004       18.0694       18.0699      17.828766       0.05038
  47     5.803        0.2409        0.0006       18.0596       18.0602      17.819247       0.04822
  46     8.139        0.2407        0.0009       18.0464       18.0473      17.806624       0.04559
  45     11.42        0.2403        0.0012       18.0294       18.0306      17.790267       0.04211
  44     16.01        0.2399        0.0017       18.0078       18.0095      17.769598       0.03794
  43     22.46        0.2392        0.0024       17.9811       17.9834      17.744234       0.03319
  42     31.51        0.2383        0.0033       17.9492       17.9526      17.714289       0.02793
  41     44.20        0.2369        0.0046       17.9123       17.9169      17.679971       0.02282
  40     62.00        0.2351        0.0065       17.8701       17.8765      17.641419       0.01828
  39     85.78        0.2327        0.0089       17.8221       17.8310      17.598309       0.01530
  38     109.5        0.2302        0.0114       17.7766       17.7881      17.557844       0.01436
  37     133.1        0.2278        0.0138       17.7331       17.7469      17.519101       0.01391
  36     156.8        0.2255        0.0161       17.6884       17.7045      17.478980       0.01423
  35     180.6        0.2231        0.0186       17.6289       17.6475      17.424425       0.01937
  34     202.8        0.2207        0.0209       17.5339       17.5548      17.334108       0.03429
  33     228.4        0.2184        0.0232       17.3560       17.3793      17.160881       0.05715
  32     252.2        0.2160        0.0254       17.0708       17.0962      16.880195       0.09963
  31     276.0        0.2138        0.0274       16.6840       16.7115      16.497695       0.13577
  30     299.8        0.2116        0.0293       16.2182       16.2475      16.035865       0.16393
  29     323.5        0.2095        0.0309       15.6977       15.7286      15.519078       0.18344
  28     347.3        0.2075        0.0323       15.1148       15.1471      14.939627       0.20568
  27     371.1        0.2056        0.0336       14.5056       14.5392      14.333619       0.21511
  26     394.9        0.2037        0.0346       13.8813       13.9159      13.712219       0.22057
  25     418.6        0.2020        0.0355       13.2727       13.3082      13.106241       0.21510
  24     442.4        0.2003        0.0362       12.6836       12.7199      12.519558       0.20825
  23     466.2        0.1987        0.0368       12.1291       12.1660      11.967269       0.19604
  22     489.9        0.1972        0.0373       11.6170       11.6544      11.457150       0.18107
  21     513.7        0.1958        0.0378       11.1327       11.1704      10.974659       0.17126
  20     537.5        0.1944        0.0381       10.6791       10.7172      10.522754       0.16041
  19     561.3        0.1932        0.0383       10.2524       10.2907      10.097584       0.15092
  18     585.0        0.1919        0.0386        9.8492        9.8878       9.695854       0.14260
  17     608.8        0.1908        0.0388        9.4766        9.5154       9.324568       0.13179
  16     632.6        0.1897        0.0389        9.1302        9.1691       8.979388       0.12252
  15     656.4        0.1887        0.0390        8.7964        8.8355       8.646764       0.11807
  14     680.1        0.1878        0.0391        8.4770        8.5161       8.328283       0.11305
  13     703.9        0.1869        0.0391        8.1723        8.2114       8.024478       0.10784
  12     727.7        0.1862        0.0391        7.8756        7.9147       7.728522       0.10505
  11     751.5        0.1855        0.0390        7.5826        7.6217       7.436175       0.10377
  10     775.2        0.1850        0.0389        7.2980        7.3369       7.151950       0.10089
   9     799.0        0.1845        0.0387        7.0237        7.0624       6.877858       0.09729
   8     822.8        0.1842        0.0385        6.7633        6.8018       6.617552       0.09240
   7     846.6        0.1840        0.0384        6.5318        6.5702       6.386164       0.08213
   6     870.4        0.1839        0.0383        6.3243        6.3626       6.178632       0.07367
   5     894.1        0.1839        0.0382        6.1348        6.1730       5.989053       0.06729
   4     917.9        0.1841        0.0381        5.9574        5.9955       5.811435       0.06305
   3     941.7        0.1843        0.0381        5.7896        5.8277       5.643375       0.05965
   2     965.5        0.1848        0.0381        5.6315        5.6696       5.484785       0.05629
   1     989.2        0.1854        0.0380        5.4828        5.5208       5.335404       0.05301
   0    1013.0        0.1862        0.0380        5.3431        5.3811       5.194931       0.04987



 Wavenumbers:  7700. -  8050. cm-1, ATM      1
 LEVEL PRESSURE   UPWARD FLUX   DIFDOWN FLUX  DIRDOWN FLUX  DOWNWARD FLUX   NET FLUX    HEATING RATE
          mb          W/m2          W/m2          W/m2        W/m2          W/m2       degree/day
  60   .000300        0.1284        0.0000        4.2766        4.2766       4.148226       0.00000
  59    0.1000        0.1284        0.0000        4.2765        4.2765       4.148065       0.01365
  58    0.1403        0.1284        0.0000        4.2764        4.2764       4.148000       0.01373
  57    0.1968        0.1284        0.0000        4.2763        4.2763       4.147907       0.01380
  56    0.2760        0.1284        0.0000        4.2762        4.2762       4.147779       0.01369
  55    0.3871        0.1284        0.0000        4.2760        4.2760       4.147598       0.01374
  54    0.5430        0.1284        0.0000        4.2757        4.2757       4.147345       0.01368
  53    0.7617        0.1284        0.0000        4.2753        4.2754       4.146991       0.01365
  52     1.069        0.1284        0.0000        4.2748        4.2749       4.146492       0.01374
  51     1.499        0.1284        0.0001        4.2741        4.2742       4.145798       0.01361
  50     2.102        0.1283        0.0001        4.2731        4.2732       4.144837       0.01344
  49     2.949        0.1283        0.0001        4.2717        4.2718       4.143475       0.01357
  48     4.137        0.1283        0.0002        4.2697        4.2698       4.141568       0.01355
  47     5.803        0.1282        0.0002        4.2669        4.2671       4.138909       0.01347
  46     8.139        0.1281        0.0003        4.2630        4.2634       4.135204       0.01338
  45     11.42        0.1280        0.0005        4.2576        4.2581       4.130045       0.01328
  44     16.01        0.1279        0.0007        4.2501        4.2508       4.122888       0.01314
  43     22.46        0.1277        0.0009        4.2397        4.2407       4.112977       0.01297
  42     31.51        0.1274        0.0013        4.2254        4.2267       4.099312       0.01275
  41     44.20        0.1270        0.0018        4.2058        4.2075       4.080559       0.01247
  40     62.00        0.1264        0.0025        4.1791        4.1816       4.055201       0.01202
  39     85.78        0.1257        0.0034        4.1450        4.1485       4.022784       0.01151
  38     109.5        0.1249        0.0044        4.1119        4.1162       3.991317       0.01117
  37     133.1        0.1242        0.0053        4.0812        4.0865       3.962296       0.01042
  36     156.8        0.1235        0.0061        4.0525        4.0586       3.935135       0.00963
  35     180.6        0.1228        0.0071        4.0231        4.0301       3.907343       0.00987
  34     202.8        0.1221        0.0079        3.9957        4.0036       3.881526       0.00980
  33     228.4        0.1214        0.0088        3.9685        3.9774       3.856008       0.00842
  32     252.2        0.1206        0.0097        3.9422        3.9518       3.831203       0.00880
  31     276.0        0.1199        0.0105        3.9167        3.9273       3.807316       0.00848
  30     299.8        0.1193        0.0114        3.8916        3.9030       3.783797       0.00835
  29     323.5        0.1186        0.0123        3.8669        3.8792       3.760647       0.00822
  28     347.3        0.1179        0.0131        3.8428        3.8559       3.738033       0.00803
  27     371.1        0.1172        0.0139        3.8192        3.8332       3.715955       0.00784
  26     394.9        0.1166        0.0148        3.7955        3.8103       3.693727       0.00789
  25     418.6        0.1159        0.0156        3.7719        3.7875       3.671593       0.00786
  24     442.4        0.1152        0.0164        3.7483        3.7647       3.649463       0.00786
  23     466.2        0.1146        0.0172        3.7246        3.7419       3.627254       0.00788
  22     489.9        0.1140        0.0180        3.7011        3.7191       3.605161       0.00784
  21     513.7        0.1134        0.0188        3.6772        3.6960       3.582688       0.00798
  20     537.5        0.1127        0.0196        3.6533        3.6728       3.560098       0.00802
  19     561.3        0.1122        0.0204        3.6291        3.6494       3.537291       0.00810
  18     585.0        0.1116        0.0211        3.6041        3.6253       3.513703       0.00837
  17     608.8        0.1110        0.0219        3.5790        3.6008       3.489849       0.00847
  16     632.6        0.1104        0.0226        3.5535        3.5761       3.465653       0.00859
  15     656.4        0.1099        0.0234        3.5270        3.5504       3.440475       0.00894
  14     680.1        0.1094        0.0241        3.4999        3.5240       3.414601       0.00918
  13     703.9        0.1089        0.0248        3.4720        3.4968       3.387880       0.00949
  12     727.7        0.1084        0.0255        3.4427        3.4682       3.359801       0.00997
  11     751.5        0.1079        0.0262        3.4118        3.4379       3.330025       0.01057
  10     775.2        0.1075        0.0269        3.3792        3.4061       3.298635       0.01114
   9     799.0        0.1071        0.0275        3.3450        3.3725       3.265456       0.01178
   8     822.8        0.1067        0.0282        3.3086        3.3368       3.230113       0.01255
   7     846.6        0.1064        0.0288        3.2714        3.3002       3.193825       0.01288
   6     870.4        0.1060        0.0294        3.2334        3.2628       3.156806       0.01314
   5     894.1        0.1057        0.0300        3.1947        3.2247       3.118998       0.01342
   4     917.9        0.1055        0.0306        3.1547        3.1853       3.079887       0.01388
   3     941.7        0.1052        0.0312        3.1134        3.1446       3.039370       0.01438
   2     965.5        0.1050        0.0317        3.0709        3.1026       2.997651       0.01481
   1     989.2        0.1048        0.0323        3.0273        3.0596       2.954749       0.01523
   0    1013.0        0.1047        0.0328        2.9826        3.0153       2.910650       0.01566



 Wavenumbers:  8050. - 12850. cm-1, ATM      1
 LEVEL PRESSURE   UPWARD FLUX   DIFDOWN FLUX  DIRDOWN FLUX  DOWNWARD FLUX   NET FLUX    HEATING RATE
          mb          W/m2          W/m2          W/m2        W/m2          W/m2       degree/day
  60   .000300        2.8696        0.0000       59.8761       59.8761      57.006542       0.00000
  59    0.1000        2.8694        0.0002       59.8757       59.8759      57.006542      -0.00000
  58    0.1403        2.8693        0.0003       59.8756       59.8758      57.006542      -0.00000
  57    0.1968        2.8692        0.0004       59.8753       59.8757      57.006542       0.00000
  56    0.2760        2.8690        0.0006       59.8750       59.8756      57.006542       0.00000
  55    0.3871        2.8688        0.0008       59.8746       59.8754      57.006542      -0.00000
  54    0.5430        2.8685        0.0011       59.8740       59.8751      57.006542       0.00000
  53    0.7617        2.8681        0.0015       59.8731       59.8746      57.006542       0.00000
  52     1.069        2.8675        0.0021       59.8719       59.8740      57.006542       0.00000
  51     1.499        2.8666        0.0030       59.8702       59.8732      57.006542       0.00000
  50     2.102        2.8655        0.0042       59.8678       59.8720      57.006542       0.00000
  49     2.949        2.8638        0.0059       59.8645       59.8704      57.006542       0.00000
  48     4.137        2.8615        0.0083       59.8598       59.8681      57.006542       0.00000
  47     5.803        2.8583        0.0116       59.8532       59.8648      57.006542      -0.00000
  46     8.139        2.8538        0.0162       59.8441       59.8603      57.006542       0.00000
  45     11.42        2.8474        0.0228       59.8312       59.8540      57.006542       0.00000
  44     16.01        2.8385        0.0319       59.8132       59.8451      57.006542      -0.00000
  43     22.46        2.8261        0.0447       59.7879       59.8326      57.006542       0.00000
  42     31.51        2.8086        0.0626       59.7525       59.8151      57.006542       0.00000
  41     44.20        2.7841        0.0878       59.7028       59.7906      57.006542       0.00000
  40     62.00        2.7498        0.1228       59.6335       59.7564      57.006542      -0.00000
  39     85.78        2.7041        0.1697       59.5410       59.7107      57.006542       0.00000
  38     109.5        2.6578        0.2171       59.4346       59.6517      56.993965       0.00446
  37     133.1        2.6131        0.2628       59.3324       59.5952      56.982114       0.00426
  36     156.8        2.5697        0.3072       59.2327       59.5398      56.970115       0.00425
  35     180.6        2.5236        0.3543       59.1226       59.4768      56.953228       0.00600
  34     202.8        2.4793        0.3995       59.0015       59.4010      56.921732       0.01196
  33     228.4        2.4341        0.4455       58.8443       59.2899      56.855803       0.02175
  32     252.2        2.3888        0.4915       58.6431       59.1346      56.745715       0.03908
  31     276.0        2.3443        0.5366       58.3959       58.9325      56.588241       0.05590
  30     299.8        2.2995        0.5817       58.0957       58.6774      56.377826       0.07469
  29     323.5        2.2549        0.6264       57.7369       58.3633      56.108403       0.09563
  28     347.3        2.2110        0.6702       57.3082       57.9784      55.767394       0.12104
  27     371.1        2.1679        0.7128       56.8200       57.5329      55.364988       0.14284
  26     394.9        2.1246        0.7554       56.2604       57.0157      54.891159       0.16819
  25     418.6        2.0817        0.7969       55.6421       56.4391      54.357343       0.18948
  24     442.4        2.0394        0.8375       54.9649       55.8024      53.763074       0.21094
  23     466.2        1.9973        0.8773       54.2409       55.1182      53.120815       0.22798
  22     489.9        1.9563        0.9156       53.4888       54.4044      52.448154       0.23877
  21     513.7        1.9155        0.9530       52.6977       53.6507      51.735197       0.25307
  20     537.5        1.8756        0.9890       51.8831       52.8721      50.996419       0.26224
  19     561.3        1.8367        1.0234       51.0468       52.0702      50.233491       0.27081
  18     585.0        1.7978        1.0572       50.1839       51.2411      49.443370       0.28046
  17     608.8        1.7598        1.0896       49.3172       50.4068      48.647037       0.28267
  16     632.6        1.7228        1.1207       48.4456       49.5663      47.843431       0.28525
  15     656.4        1.6861        1.1508       47.5387       48.6895      47.003325       0.29820
  14     680.1        1.6505        1.1793       46.6055       47.7848      46.134279       0.30848
  13     703.9        1.6159        1.2061       45.6532       46.8593      45.243349       0.31624
  12     727.7        1.5820        1.2314       44.6717       45.9031      44.321115       0.32736
  11     751.5        1.5489        1.2551       43.6531       44.9082      43.359258       0.34142
  10     775.2        1.5170        1.2767       42.6161       43.8928      42.375772       0.34910
   9     799.0        1.4865        1.2962       41.5689       42.8650      41.378499       0.35399
   8     822.8        1.4569        1.3142       40.5244       41.8386      40.381710       0.35382
   7     846.6        1.4283        1.3317       39.5484       40.8801      39.451839       0.33007
   6     870.4        1.4008        1.3485       38.6362       39.9847      38.583938       0.30807
   5     894.1        1.3744        1.3647       37.7781       39.1429      37.768491       0.28945
   4     917.9        1.3488        1.3804       36.9556       38.3360      36.987190       0.27733
   3     941.7        1.3243        1.3955       36.1612       37.5566      36.232330       0.26794
   2     965.5        1.3011        1.4097       35.3974       36.8071      35.506085       0.25779
   1     989.2        1.2791        1.4232       34.6606       36.0838      34.804657       0.24893
   0    1013.0        1.2586        1.4360       33.9477       35.3836      34.125077       0.24127



 Wavenumbers: 12850. - 16000. cm-1, ATM      1
 LEVEL PRESSURE   UPWARD FLUX   DIFDOWN FLUX  DIRDOWN FLUX  DOWNWARD FLUX   NET FLUX    HEATING RATE
          mb          W/m2          W/m2          W/m2        W/m2          W/m2       degree/day
  60   .000300        4.5911        0.0000       37.5177       37.5177      32.926621       0.00000
  59    0.1000        4.5907        0.0004       37.5105       37.5110      32.920310       0.53417
  58    0.1403        4.5905        0.0006       37.5079       37.5085      32.918004       0.48292
  57    0.1968        4.5903        0.0009       37.5044       37.5053      32.914962       0.45435
  56    0.2760        4.5900        0.0012       37.4999       37.5011      32.911083       0.41332
  55    0.3871        4.5896        0.0017       37.4941       37.4958      32.906208       0.37030
  54    0.5430        4.5890        0.0024       37.4869       37.4892      32.900205       0.32494
  53    0.7617        4.5882        0.0033       37.4775       37.4808      32.892584       0.29411
  52     1.069        4.5872        0.0046       37.4648       37.4695      32.882261       0.28396
  51     1.499        4.5858        0.0065       37.4466       37.4530      32.867191       0.29555
  50     2.102        4.5841        0.0091       37.4180       37.4270      32.842899       0.33964
  49     2.949        4.5820        0.0127       37.3701       37.3828      32.800748       0.42017
  48     4.137        4.5794        0.0178       37.2925       37.3103      32.730888       0.49643
  47     5.803        4.5762        0.0249       37.1775       37.2024      32.626237       0.53014
  46     8.139        4.5715        0.0348       37.0218       37.0565      32.485029       0.50998
  45     11.42        4.5644        0.0485       36.8246       36.8731      32.308738       0.45388
  44     16.01        4.5534        0.0677       36.5814       36.6490      32.095614       0.39119
  43     22.46        4.5368        0.0942       36.2858       36.3800      31.843218       0.33027
  42     31.51        4.5113        0.1311       35.9460       36.0771      31.565795       0.25880
  41     44.20        4.4721        0.1824       35.5826       35.7650      31.292940       0.18146
  40     62.00        4.4138        0.2531       35.1928       35.4458      31.032057       0.12369
  39     85.78        4.3317        0.3465       34.8066       35.1531      30.821382       0.07478
  38     109.5        4.2470        0.4408       34.4775       34.9183      30.671318       0.05327
  37     133.1        4.1651        0.5308       34.1788       34.7095      30.544413       0.04557
  36     156.8        4.0854        0.6175       33.8987       34.5161      30.430689       0.04033
  35     180.6        4.0006        0.7088       33.6155       34.3243      30.323675       0.03799
  34     202.8        3.9188        0.7960       33.3574       34.1534      30.234550       0.03384
  33     228.4        3.8356        0.8843       33.1019       33.9861      30.150572       0.02771
  32     252.2        3.7523        0.9720       32.8510       33.8230      30.070714       0.02835
  31     276.0        3.6702        1.0580       32.6079       33.6659      29.995705       0.02663
  30     299.8        3.5878        1.1440       32.3657       33.5098      29.921965       0.02617
  29     323.5        3.5055        1.2295       32.1234       33.3529      29.847362       0.02648
  28     347.3        3.4243        1.3135       31.8819       33.1954      29.771130       0.02706
  27     371.1        3.3444        1.3958       31.6418       33.0376      29.693202       0.02766
  26     394.9        3.2638        1.4786       31.3957       32.8743      29.610441       0.02938
  25     418.6        3.1838        1.5603       31.1466       32.7069      29.523133       0.03099
  24     442.4        3.1042        1.6413       30.8930       32.5343      29.430105       0.03302
  23     466.2        3.0248        1.7216       30.6345       32.3561      29.331370       0.03505
  22     489.9        2.9467        1.8003       30.3745       32.1748      29.228080       0.03666
  21     513.7        2.8685        1.8785       30.1073       31.9858      29.117327       0.03931
  20     537.5        2.7915        1.9551       29.8363       31.7914      28.999904       0.04168
  19     561.3        2.7156        2.0302       29.5604       31.5906      28.875062       0.04431
  18     585.0        2.6390        2.1054       29.2748       31.3803      28.741297       0.04748
  17     608.8        2.5637        2.1788       28.9896       31.1685      28.604766       0.04846
  16     632.6        2.4897        2.2504       28.7045       30.9550      28.465269       0.04952
  15     656.4        2.4155        2.3216       28.4119       30.7335      28.318040       0.05226
  14     680.1        2.3426        2.3909       28.1153       30.5062      28.163585       0.05483
  13     703.9        2.2710        2.4582       27.8136       30.2718      28.000769       0.05779
  12     727.7        2.1998        2.5243       27.5007       30.0250      27.825246       0.06230
  11     751.5        2.1289        2.5892       27.1747       29.7639      27.634966       0.06754
  10     775.2        2.0594        2.6518       26.8380       29.4898      27.430370       0.07262
   9     799.0        1.9913        2.7121       26.4891       29.2012      27.209943       0.07824
   8     822.8        1.9234        2.7710       26.1261       28.8971      26.973669       0.08387
   7     846.6        1.8566        2.8285       25.7644       28.5929      26.736319       0.08425
   6     870.4        1.7910        2.8841       25.4065       28.2906      26.499641       0.08401
   5     894.1        1.7266        2.9381       25.0521       27.9903      26.263605       0.08378
   4     917.9        1.6629        2.9909       24.6973       27.6882      26.025290       0.08459
   3     941.7        1.5999        3.0423       24.3412       27.3835      25.783588       0.08579
   2     965.5        1.5383        3.0918       23.9878       27.0796      25.541326       0.08599
   1     989.2        1.4779        3.1396       23.6369       26.7766      25.298649       0.08612
   0    1013.0        1.4189        3.1857       23.2900       26.4757      25.056854       0.08585



 Wavenumbers: 16000. - 22650. cm-1, ATM      1
 LEVEL PRESSURE   UPWARD FLUX   DIFDOWN FLUX  DIRDOWN FLUX  DOWNWARD FLUX   NET FLUX    HEATING RATE
          mb          W/m2          W/m2          W/m2        W/m2          W/m2       degree/day
  60   .000300       16.2296        0.0000       59.8178       59.8178      43.588198       0.00000
  59    0.1000       16.2276        0.0024       59.8127       59.8150      43.587443       0.06387
  58    0.1403       16.2268        0.0034       59.8103       59.8137      43.586838       0.12659
  57    0.1968       16.2257        0.0047       59.8068       59.8115      43.585745       0.16330
  56    0.2760       16.2242        0.0066       59.8015       59.8081      43.583823       0.20484
  55    0.3871       16.2222        0.0093       59.7935       59.8028      43.580582       0.24617
  54    0.5430       16.2194        0.0130       59.7815       59.7945      43.575149       0.29411
  53    0.7617       16.2156        0.0182       59.7629       59.7811      43.565564       0.36986
  52     1.069       16.2105        0.0256       59.7332       59.7588      43.548339       0.47380
  51     1.499       16.2039        0.0358       59.6855       59.7214      43.517523       0.60437
  50     2.102       16.1957        0.0500       59.6070       59.6570      43.461363       0.78519
  49     2.949       16.1858        0.0701       59.4727       59.5428      43.357031       1.04001
  48     4.137       16.1744        0.0982       59.2541       59.3523      43.177908       1.27286
  47     5.803       16.1602        0.1373       58.9283       59.0657      42.905492       1.38001
  46     8.139       16.1398        0.1917       58.4849       58.6766      42.536807       1.33153
  45     11.42       16.1080        0.2673       57.9191       58.1863      42.078294       1.18050
  44     16.01       16.0583        0.3719       57.2132       57.5851      41.526791       1.01229
  43     22.46       15.9817        0.5166       56.3417       56.8584      40.876637       0.85075
  42     31.51       15.8625        0.7164       55.3146       56.0311      40.168563       0.66054
  41     44.20       15.6763        0.9921       54.1698       55.1619      39.485560       0.45422
  40     62.00       15.3989        1.3683       52.8836       54.2519      38.853023       0.29989
  39     85.78       15.0082        1.8587       51.5387       53.3974      38.389157       0.16465
  38     109.5       14.6042        2.3444       50.3839       52.7283      38.124030       0.09411
  37     133.1       14.2183        2.8001       49.3428       52.1429      37.924577       0.07163
  36     156.8       13.8469        3.2330       48.3756       51.6086      37.761694       0.05776
  35     180.6       13.4558        3.6823       47.4008       51.0831      37.627322       0.04770
  34     202.8       13.0825        4.1050       46.5117       50.6167      37.534136       0.03538
  33     228.4       12.7064        4.5263       45.6379       50.1642      37.457789       0.02519
  32     252.2       12.3340        4.9390       44.7880       49.7270      37.392955       0.02301
  31     276.0       11.9707        5.3376       43.9731       49.3107      37.339977       0.01880
  30     299.8       11.6092        5.7302       43.1742       48.9044      37.295208       0.01589
  29     323.5       11.2519        6.1148       42.3915       48.5063      37.254406       0.01448
  28     347.3       10.9024        6.4872       41.6322       48.1195      37.217073       0.01325
  27     371.1       10.5619        6.8467       40.8983       47.7450      37.183073       0.01207
  26     394.9       10.2211        7.2029       40.1690       47.3719      37.150746       0.01147
  25     418.6        9.8857        7.5502       39.4554       47.0056      37.119837       0.01097
  24     442.4        9.5550        7.8892       38.7557       46.6449      37.089897       0.01063
  23     466.2        9.2277        8.2213       38.0672       46.2885      37.060774       0.01034
  22     489.9        8.9083        8.5421       37.3988       45.9409      37.032560       0.01001
  21     513.7        8.5911        8.8574       36.7380       45.5954      37.004259       0.01005
  20     537.5        8.2809        9.1625       36.0942       45.2567      36.975788       0.01011
  19     561.3        7.9769        9.4582       35.4655       44.9238      36.946827       0.01028
  18     585.0        7.6726        9.7511       34.8382       44.5893      36.916663       0.01071
  17     608.8        7.3750       10.0343       34.2266       44.2609      36.885929       0.01091
  16     632.6        7.0838       10.3082       33.6301       43.9383      36.854478       0.01116
  15     656.4        6.7931       10.5785       33.0358       43.6143      36.821228       0.01180
  14     680.1        6.5085       10.8399       32.4547       43.2946      36.786143       0.01245
  13     703.9        6.2297       11.0927       31.8859       42.9786      36.748822       0.01325
  12     727.7        5.9527       11.3408       31.3201       42.6608      36.708192       0.01442
  11     751.5        5.6772       11.5840       30.7565       42.3406      36.663328       0.01593
  10     775.2        5.4068       11.8195       30.2015       42.0210      36.614191       0.01744
   9     799.0        5.1412       12.0473       29.6544       41.7017      36.560444       0.01908
   8     822.8        4.8763       12.2711       29.1073       41.3785      36.502165       0.02069
   7     846.6        4.6150       12.4886       28.5694       41.0580      36.443020       0.02099
   6     870.4        4.3586       12.6987       28.0436       40.7422      36.383579       0.02110
   5     894.1        4.1071       12.9016       27.5296       40.4313      36.324222       0.02107
   4     917.9        3.8574       13.0998       27.0217       40.1215      36.264068       0.02135
   3     941.7        3.6106       13.2926       26.5211       39.8137      36.203149       0.02162
   2     965.5        3.3682       13.4786       26.0316       39.5102      36.142059       0.02168
   1     989.2        3.1302       13.6581       25.5531       39.2112      36.081018       0.02166
   0    1013.0        2.8965       13.8314       25.0853       38.9166      36.020135       0.02162



 Wavenumbers: 22650. - 29000. cm-1, ATM      1
 LEVEL PRESSURE   UPWARD FLUX   DIFDOWN FLUX  DIRDOWN FLUX  DOWNWARD FLUX   NET FLUX    HEATING RATE
          mb          W/m2          W/m2          W/m2        W/m2          W/m2       degree/day
  60   .000300       11.4830        0.0000       22.5731       22.5731      11.090089       0.00000
  59    0.1000       11.4808        0.0029       22.5680       22.5709      11.090089       0.00000
  58    0.1403       11.4799        0.0040       22.5660       22.5700      11.090089      -0.00000
  57    0.1968       11.4787        0.0056       22.5631       22.5688      11.090089      -0.00000
  56    0.2760       11.4770        0.0079       22.5592       22.5670      11.090089       0.00000
  55    0.3871       11.4745        0.0111       22.5535       22.5646      11.090089       0.00000
  54    0.5430       11.4711        0.0155       22.5457       22.5612      11.090089      -0.00000
  53    0.7617       11.4664        0.0218       22.5347       22.5565      11.090089      -0.00000
  52     1.069       11.4597        0.0306       22.5192       22.5498      11.090089       0.00000
  51     1.499       11.4504        0.0428       22.4977       22.5405      11.090089       0.00000
  50     2.102       11.4375        0.0597       22.4679       22.5276      11.090089       0.00000
  49     2.949       11.4193        0.0837       22.4256       22.5093      11.090089      -0.00000
  48     4.137       11.3937        0.1173       22.3665       22.4838      11.090089       0.00000
  47     5.803       11.3580        0.1641       22.2840       22.4481      11.090089       0.00000
  46     8.139       11.3083        0.2292       22.1691       22.3983      11.090089      -0.00000
  45     11.42       11.2390        0.3198       22.0092       22.3290      11.090089      -0.00000
  44     16.01       11.1427        0.4453       21.7875       22.2328      11.090089       0.00000
  43     22.46       11.0092        0.6188       21.4805       22.0993      11.090089      -0.00000
  42     31.51       10.8249        0.8572       21.0578       21.9150      11.090089       0.00000
  41     44.20       10.5715        1.1826       20.4790       21.6616      11.090089       0.00000
  40     62.00       10.2285        1.6184       19.7002       21.3186      11.090089      -0.00000
  39     85.78        9.7885        2.1697       18.7089       20.8786      11.090089       0.00000
  38     109.5        9.3617        2.6950       17.7568       20.4518      11.090089       0.00000
  37     133.1        8.9686        3.1704       16.8883       20.0587      11.090089      -0.00000
  36     156.8        8.6021        3.6055       16.0867       19.6922      11.090089       0.00000
  35     180.6        8.2290        4.0398       15.2793       19.3191      11.090089      -0.00000
  34     202.8        7.8848        4.4320       14.5429       18.9749      11.090089       0.00000
  33     228.4        7.5481        4.8075       13.8306       18.6381      11.090089       0.00000
  32     252.2        7.2239        5.1608       13.1533       18.3140      11.090089       0.00000
  31     276.0        6.9163        5.4881       12.5183       18.0064      11.090089       0.00000
  30     299.8        6.6184        5.7970       11.9115       17.7084      11.090089       0.00000
  29     323.5        6.3311        6.0870       11.3342       17.4212      11.090089      -0.00000
  28     347.3        6.0570        6.3561       10.7910       17.1471      11.090089       0.00000
  27     371.1        5.7962        6.6048       10.2814       16.8863      11.090089       0.00000
  26     394.9        5.5413        6.8404        9.7910       16.6314      11.090089      -0.00000
  25     418.6        5.2960        7.0600        9.3261       16.3861      11.090089      -0.00000
  24     442.4        5.0593        7.2646        8.8847       16.1494      11.090089       0.00000
  23     466.2        4.8299        7.4560        8.4641       15.9200      11.090089       0.00000
  22     489.9        4.6107        7.6321        8.0687       15.7007      11.090089       0.00000
  21     513.7        4.3971        7.7969        7.6903       15.4872      11.090089      -0.00000
  20     537.5        4.1922        7.9485        7.3338       15.2823      11.090089      -0.00000
  19     561.3        3.9951        8.0881        6.9970       15.0852      11.090089       0.00000
  18     585.0        3.8011        8.2193        6.6719       14.8912      11.090089      -0.00000
  17     608.8        3.6146        8.3392        6.3655       14.7047      11.090089       0.00000
  16     632.6        3.4351        8.4488        6.0764       14.5252      11.090089       0.00000
  15     656.4        3.2585        8.5508        5.7979       14.3486      11.090089      -0.00000
  14     680.1        3.0882        8.6435        5.5349       14.1783      11.090089      -0.00000
  13     703.9        2.9237        8.7277        5.2862       14.0138      11.090089       0.00000
  12     727.7        2.7624        8.8049        5.0476       13.8525      11.090089      -0.00000
  11     751.5        2.6039        8.8755        4.8185       13.6940      11.090089       0.00000
  10     775.2        2.4501        8.9388        4.6014       13.5402      11.090089      -0.00000
   9     799.0        2.3007        8.9954        4.3954       13.3908      11.090089       0.00000
   8     822.8        2.1532        9.0463        4.1969       13.2432      11.090089       0.00000
   7     846.6        2.0091        9.0913        4.0079       13.0992      11.090089       0.00000
   6     870.4        1.8691        9.1303        3.8289       12.9592      11.090089      -0.00000
   5     894.1        1.7329        9.1638        3.6591       12.8229      11.090089       0.00000
   4     917.9        1.5988        9.1924        3.4965       12.6889      11.090089       0.00000
   3     941.7        1.4672        9.2163        3.3410       12.5573      11.090089      -0.00000
   2     965.5        1.3389        9.2354        3.1936       12.4290      11.090089       0.00000
   1     989.2        1.2138        9.2501        3.0537       12.3039      11.090089       0.00000
   0    1013.0        1.0916        9.2607        2.9210       12.1817      11.090089       0.00000



 Wavenumbers: 29000. - 38000. cm-1, ATM      1
 LEVEL PRESSURE   UPWARD FLUX   DIFDOWN FLUX  DIRDOWN FLUX  DOWNWARD FLUX   NET FLUX    HEATING RATE
          mb          W/m2          W/m2          W/m2        W/m2          W/m2       degree/day
  60   .000300        1.9752        0.0000        7.9602        7.9602       5.985043       0.00000
  59    0.1000        1.9730        0.0025        7.9239        7.9264       5.953451       2.67409
  58    0.1403        1.9721        0.0035        7.8973        7.9008       5.928682       5.18678
  57    0.1968        1.9709        0.0049        7.8512        7.8561       5.885147       6.50260
  56    0.2760        1.9693        0.0068        7.7749        7.7816       5.812333       7.75872
  55    0.3871        1.9671        0.0094        7.6577        7.6671       5.699934       8.53781
  54    0.5430        1.9643        0.0129        7.4875        7.5003       5.536068       8.87035
  53    0.7617        1.9605        0.0174        7.2481        7.2655       5.304994       8.91667
  52     1.069        1.9557        0.0232        6.9437        6.9669       5.011222       8.08077
  51     1.499        1.9498        0.0306        6.5993        6.6298       4.680032       6.49537
  50     2.102        1.9429        0.0397        6.2202        6.2600       4.317102       5.07426
  49     2.949        1.9349        0.0515        5.7974        5.8489       3.914069       4.01754
  48     4.137        1.9261        0.0664        5.3604        5.4268       3.500700       2.93742
  47     5.803        1.9163        0.0854        4.9422        5.0276       3.111342       1.97242
  46     8.139        1.9042        0.1101        4.5596        4.6697       2.765552       1.24884
  45     11.42        1.8880        0.1424        4.2076        4.3501       2.462033       0.78145
  44     16.01        1.8661        0.1844        3.8715        4.0559       2.189779       0.49973
  43     22.46        1.8365        0.2387        3.5431        3.7817       1.945227       0.32001
  42     31.51        1.7953        0.3086        3.2248        3.5334       1.738090       0.19323
  41     44.20        1.7367        0.3990        2.9149        3.3139       1.577182       0.10701
  40     62.00        1.6568        0.5131        2.5969        3.1099       1.453172       0.05879
  39     85.78        1.5531        0.6497        2.2787        2.9284       1.375314       0.02764
  38     109.5        1.4546        0.7721        2.0186        2.7907       1.336120       0.01391
  37     133.1        1.3679        0.8752        1.8019        2.6770       1.309121       0.00970
  36     156.8        1.2907        0.9631        1.6161        2.5792       1.288519       0.00731
  35     180.6        1.2150        1.0451        1.4425        2.4876       1.272549       0.00567
  34     202.8        1.1476        1.1145        1.2952        2.4097       1.262061       0.00398
  33     228.4        1.0840        1.1764        1.1615        2.3379       1.253894       0.00269
  32     252.2        1.0250        1.2305        1.0418        2.2723       1.247275       0.00235
  31     276.0        0.9707        1.2769        0.9359        2.2128       1.242111       0.00183
  30     299.8        0.9198        1.3172        0.8406        2.1578       1.237951       0.00148
  29     323.5        0.8723        1.3517        0.7550        2.1067       1.234348       0.00128
  28     347.3        0.8283        1.3806        0.6788        2.0595       1.231220       0.00111
  27     371.1        0.7874        1.4047        0.6112        2.0159       1.228528       0.00096
  26     394.9        0.7484        1.4250        0.5496        1.9746       1.226123       0.00085
  25     418.6        0.7117        1.4415        0.4942        1.9357       1.223971       0.00076
  24     442.4        0.6771        1.4546        0.4445        1.8991       1.222035       0.00069
  23     466.2        0.6441        1.4646        0.3997        1.8644       1.220296       0.00062
  22     489.9        0.6130        1.4719        0.3599        1.8318       1.218749       0.00055
  21     513.7        0.5832        1.4768        0.3238        1.8006       1.217332       0.00050
  20     537.5        0.5550        1.4794        0.2916        1.7710       1.216040       0.00046
  19     561.3        0.5281        1.4800        0.2629        1.7429       1.214855       0.00042
  18     585.0        0.5018        1.4790        0.2365        1.7155       1.213736       0.00040
  17     608.8        0.4767        1.4763        0.2131        1.6894       1.212701       0.00037
  16     632.6        0.4526        1.4722        0.1921        1.6643       1.211739       0.00034
  15     656.4        0.4290        1.4668        0.1730        1.6398       1.210826       0.00032
  14     680.1        0.4062        1.4603        0.1559        1.6162       1.209975       0.00030
  13     703.9        0.3843        1.4529        0.1406        1.5934       1.209179       0.00028
  12     727.7        0.3627        1.4444        0.1267        1.5711       1.208424       0.00027
  11     751.5        0.3414        1.4350        0.1141        1.5491       1.207706       0.00025
  10     775.2        0.3207        1.4249        0.1028        1.5277       1.207033       0.00024
   9     799.0        0.3004        1.4141        0.0927        1.5068       1.206400       0.00022
   8     822.8        0.2803        1.4027        0.0834        1.4861       1.205794       0.00022
   7     846.6        0.2605        1.3906        0.0751        1.4657       1.205216       0.00021
   6     870.4        0.2411        1.3781        0.0677        1.4458       1.204667       0.00019
   5     894.1        0.2221        1.3653        0.0610        1.4263       1.204145       0.00019
   4     917.9        0.2032        1.3519        0.0549        1.4069       1.203643       0.00018
   3     941.7        0.1845        1.3382        0.0495        1.3877       1.203161       0.00017
   2     965.5        0.1661        1.3242        0.0446        1.3688       1.202703       0.00016
   1     989.2        0.1479        1.3100        0.0402        1.3502       1.202267       0.00015
   0    1013.0        0.1300        1.2956        0.0362        1.3318       1.201851       0.00015



 Wavenumbers: 38000. - 50000. cm-1, ATM      1
 LEVEL PRESSURE   UPWARD FLUX   DIFDOWN FLUX  DIRDOWN FLUX  DOWNWARD FLUX   NET FLUX    HEATING RATE
          mb          W/m2          W/m2          W/m2        W/m2          W/m2       degree/day
  60   .000300        0.0042        0.0000        0.4910        0.4910       0.486795       0.00000
  59    0.1000        0.0036        0.0006        0.4704        0.4710       0.467371       1.64419
  58    0.1403        0.0034        0.0008        0.4560        0.4568       0.453428       2.91971
  57    0.1968        0.0031        0.0011        0.4319        0.4330       0.429878       3.51752
  56    0.2760        0.0028        0.0015        0.3938        0.3953       0.392530       3.97962
  55    0.3871        0.0024        0.0019        0.3393        0.3413       0.338884       4.07498
  54    0.5430        0.0019        0.0023        0.2689        0.2712       0.269323       3.76542
  53    0.7617        0.0014        0.0026        0.1874        0.1900       0.188603       3.11482
  52     1.069        0.0009        0.0026        0.1125        0.1151       0.114152       2.04794
  51     1.499        0.0006        0.0023        0.0610        0.0633       0.062685       1.00937
  50     2.102        0.0003        0.0017        0.0303        0.0321       0.031728       0.43282
  49     2.949        0.0002        0.0012        0.0132        0.0144       0.014251       0.17422
  48     4.137        0.0001        0.0008        0.0050        0.0059       0.005780       0.06020
  47     5.803        0.0000        0.0005        0.0015        0.0020       0.001957       0.01936
  46     8.139        0.0000        0.0003        0.0003        0.0006       0.000594       0.00492
  45     11.42        0.0000        0.0001        0.0000        0.0002       0.000187       0.00105
  44     16.01        0.0000        0.0001        0.0000        0.0001       0.000063       0.00023
  43     22.46        0.0000        0.0000        0.0000        0.0000       0.000020       0.00006
  42     31.51        0.0000        0.0000        0.0000        0.0000       0.000006       0.00001
  41     44.20        0.0000        0.0000        0.0000        0.0000       0.000001       0.00000
  40     62.00        0.0000        0.0000        0.0000        0.0000       0.000000       0.00000
  39     85.78        0.0000        0.0000        0.0000        0.0000       0.000000       0.00000
  38     109.5        0.0000        0.0000        0.0000        0.0000       0.000000       0.00000
  37     133.1        0.0000        0.0000        0.0000        0.0000       0.000000       0.00000
  36     156.8        0.0000        0.0000        0.0000        0.0000       0.000000       0.00000
  35     180.6        0.0000        0.0000        0.0000        0.0000       0.000000       0.00000
  34     202.8        0.0000        0.0000        0.0000        0.0000       0.000000       0.00000
  33     228.4        0.0000        0.0000        0.0000        0.0000       0.000000       0.00000
  32     252.2        0.0000        0.0000        0.0000        0.0000       0.000000       0.00000
  31     276.0        0.0000        0.0000        0.0000        0.0000       0.000000       0.00000
  30     299.8        0.0000        0.0000        0.0000        0.0000       0.000000       0.00000
  29     323.5        0.0000        0.0000        0.0000        0.0000       0.000000       0.00000
  28     347.3        0.0000        0.0000        0.0000        0.0000       0.000000       0.00000
  27     371.1        0.0000        0.0000        0.0000        0.0000       0.000000       0.00000
  26     394.9        0.0000        0.0000        0.0000        0.0000       0.000000       0.00000
  25     418.6        0.0000        0.0000        0.0000        0.0000       0.000000       0.00000
  24     442.4        0.0000        0.0000        0.0000        0.0000       0.000000       0.00000
  23     466.2        0.0000        0.0000        0.0000        0.0000       0.000000       0.00000
  22     489.9        0.0000        0.0000        0.0000        0.0000       0.000000       0.00000
  21     513.7        0.0000        0.0000        0.0000        0.0000       0.000000       0.00000
  20     537.5        0.0000        0.0000        0.0000        0.0000       0.000000       0.00000
  19     561.3        0.0000        0.0000        0.0000        0.0000       0.000000       0.00000
  18     585.0        0.0000        0.0000        0.0000        0.0000       0.000000       0.00000
  17     608.8        0.0000        0.0000        0.0000        0.0000       0.000000       0.00000
  16     632.6        0.0000        0.0000        0.0000        0.0000       0.000000       0.00000
  15     656.4        0.0000        0.0000        0.0000        0.0000       0.000000       0.00000
  14     680.1        0.0000        0.0000        0.0000        0.0000       0.000000       0.00000
  13     703.9        0.0000        0.0000        0.0000        0.0000       0.000000       0.00000
  12     727.7        0.0000        0.0000        0.0000        0.0000       0.000000       0.00000
  11     751.5        0.0000        0.0000        0.0000        0.0000       0.000000       0.00000
  10     775.2        0.0000        0.0000        0.0000        0.0000       0.000000       0.00000
   9     799.0        0.0000        0.0000        0.0000        0.0000       0.000000       0.00000
   8     822.8        0.0000        0.0000        0.0000        0.0000       0.000000       0.00000
   7     846.6        0.0000        0.0000        0.0000        0.0000       0.000000       0.00000
   6     870.4        0.0000        0.0000        0.0000        0.0000       0.000000       0.00000
   5     894.1        0.0000        0.0000        0.0000        0.0000       0.000000       0.00000
   4     917.9        0.0000        0.0000        0.0000        0.0000       0.000000       0.00000
   3     941.7        0.0000        0.0000        0.0000        0.0000       0.000000       0.00000
   2     965.5        0.0000        0.0000        0.0000        0.0000       0.000000       0.00000
   1     989.2        0.0000        0.0000        0.0000        0.0000       0.000000       0.00000
   0    1013.0        0.0000        0.0000        0.0000        0.0000       0.000000       0.00000



 Wavenumbers:   820. -  2600. cm-1, ATM      1
 LEVEL PRESSURE   UPWARD FLUX   DIFDOWN FLUX  DIRDOWN FLUX  DOWNWARD FLUX   NET FLUX    HEATING RATE
          mb          W/m2          W/m2          W/m2        W/m2          W/m2       degree/day
  60   .000300        0.0049        0.0000        2.2967        2.2967       2.291809       0.00000
  59    0.1000        0.0049        0.0000        2.2915        2.2915       2.286595       0.44132
  58    0.1403        0.0049        0.0000        2.2904        2.2904       2.285483       0.23289
  57    0.1968        0.0049        0.0000        2.2890        2.2890       2.284043       0.21506
  56    0.2760        0.0049        0.0000        2.2870        2.2870       2.282073       0.20996
  55    0.3871        0.0049        0.0000        2.2842        2.2842       2.279240       0.21521
  54    0.5430        0.0049        0.0000        2.2802        2.2802       2.275263       0.21528
  53    0.7617        0.0049        0.0000        2.2747        2.2747       2.269803       0.21068
  52     1.069        0.0049        0.0000        2.2673        2.2673       2.262411       0.20332
  51     1.499        0.0049        0.0000        2.2576        2.2576       2.252654       0.19136
  50     2.102        0.0049        0.0000        2.2450        2.2450       2.240067       0.17598
  49     2.949        0.0049        0.0000        2.2288        2.2288       2.223910       0.16106
  48     4.137        0.0049        0.0000        2.2084        2.2084       2.203456       0.14535
  47     5.803        0.0049        0.0000        2.1832        2.1832       2.178234       0.12777
  46     8.139        0.0049        0.0000        2.1553        2.1553       2.150393       0.10055
  45     11.42        0.0049        0.0000        2.1292        2.1292       2.124322       0.06712
  44     16.01        0.0049        0.0000        2.1060        2.1060       2.101038       0.04274
  43     22.46        0.0049        0.0000        2.0798        2.0798       2.074845       0.03427
  42     31.51        0.0049        0.0000        2.0453        2.0453       2.040349       0.03218
  41     44.20        0.0049        0.0000        2.0010        2.0010       1.996061       0.02945
  40     62.00        0.0049        0.0000        1.9473        1.9473       1.942419       0.02543
  39     85.78        0.0049        0.0000        1.8896        1.8896       1.884659       0.02050
  38     109.5        0.0049        0.0000        1.8429        1.8429       1.838014       0.01656
  37     133.1        0.0049        0.0000        1.8061        1.8061       1.801182       0.01323
  36     156.8        0.0049        0.0000        1.7766        1.7766       1.771715       0.01045
  35     180.6        0.0049        0.0000        1.7483        1.7483       1.743392       0.01006
  34     202.8        0.0049        0.0000        1.7181        1.7181       1.713235       0.01145
  33     228.4        0.0049        0.0000        1.6833        1.6834       1.678463       0.01147
  32     252.2        0.0049        0.0000        1.6390        1.6390       1.634137       0.01573
  31     276.0        0.0049        0.0000        1.5828        1.5828       1.577884       0.01997
  30     299.8        0.0049        0.0000        1.5051        1.5051       1.500177       0.02758
  29     323.5        0.0049        0.0000        1.4133        1.4133       1.408431       0.03257
  28     347.3        0.0049        0.0000        1.3210        1.3211       1.316153       0.03276
  27     371.1        0.0049        0.0000        1.2442        1.2442       1.239342       0.02726
  26     394.9        0.0049        0.0000        1.1850        1.1850       1.180129       0.02102
  25     418.6        0.0049        0.0000        1.1398        1.1399       1.134968       0.01603
  24     442.4        0.0049        0.0000        1.1010        1.1011       1.096147       0.01378
  23     466.2        0.0049        0.0000        1.0645        1.0645       1.059594       0.01297
  22     489.9        0.0049        0.0000        1.0276        1.0276       1.022668       0.01311
  21     513.7        0.0049        0.0000        0.9897        0.9897       0.984797       0.01344
  20     537.5        0.0049        0.0000        0.9522        0.9522       0.947311       0.01331
  19     561.3        0.0049        0.0000        0.9158        0.9158       0.910840       0.01295
  18     585.0        0.0050        0.0000        0.8807        0.8807       0.875768       0.01245
  17     608.8        0.0050        0.0000        0.8481        0.8481       0.843115       0.01159
  16     632.6        0.0050        0.0000        0.8172        0.8172       0.812216       0.01097
  15     656.4        0.0050        0.0000        0.7865        0.7865       0.781498       0.01090
  14     680.1        0.0051        0.0000        0.7555        0.7556       0.750532       0.01099
  13     703.9        0.0051        0.0000        0.7238        0.7238       0.718748       0.01128
  12     727.7        0.0051        0.0000        0.6896        0.6896       0.684509       0.01215
  11     751.5        0.0052        0.0000        0.6513        0.6513       0.646113       0.01363
  10     775.2        0.0053        0.0000        0.6087        0.6088       0.603484       0.01513
   9     799.0        0.0054        0.0000        0.5621        0.5621       0.556749       0.01659
   8     822.8        0.0055        0.0000        0.5129        0.5129       0.507409       0.01751
   7     846.6        0.0057        0.0000        0.4659        0.4659       0.460267       0.01673
   6     870.4        0.0058        0.0000        0.4216        0.4217       0.415858       0.01576
   5     894.1        0.0060        0.0000        0.3803        0.3803       0.374310       0.01475
   4     917.9        0.0062        0.0000        0.3414        0.3414       0.335216       0.01388
   3     941.7        0.0064        0.0000        0.3048        0.3048       0.298420       0.01306
   2     965.5        0.0066        0.0000        0.2706        0.2706       0.263984       0.01222
   1     989.2        0.0069        0.0000        0.2389        0.2389       0.231987       0.01136
   0    1013.0        0.0072        0.0000        0.2097        0.2097       0.202520       0.01046

  Modules and versions used in this calculation:

       rrtmg_sw.1col.f90:  $Revision$                    rrtmg_sw_init.f90:  $Revision$        
     rrtmgsw_cldprop.f90:  $Revision$                  rrtmgsw_cldprmc.f90:  NOT USED          
     rrtmg_sw_reftra.f90:  $Revision$                  rrtmg_sw_spcvrt.f90:  NOT USED          
     rrtmg_sw_spcvmc.f90:  NOT USED                    rrtmgsw_setcoef.f90:  NOT USED          
     rrtmg_sw_taumol.f90:  $Revision$                  rrtmg_sw_vrtqdr.f90:  NOT USED          
                rrtatm.f:  NOT USED                             util_xxx.f:  NOT USED          
                 extra.f:  NOT USED                       rrtmg_sw_k_g.f90:  $Revision$        

