

 Wavenumbers:   820. - 50000. cm-1, ATM      1
 LEVEL PRESSURE   UPWARD FLUX   DIFDOWN FLUX  DIRDOWN FLUX  DOWNWARD FLUX   NET FLUX    HEATING RATE
          mb          W/m2          W/m2          W/m2        W/m2          W/m2       degree/day
  51    .06700      300.8065        0.0000      617.8126      617.8126     317.006031       0.00000
  50    .07753      300.8061        0.0013      617.7947      617.7960     316.989911      12.92061
  49    .09103      300.8055        0.0029      617.7778      617.7806     316.975130       9.23863
  48    0.1069      300.8049        0.0047      617.7581      617.7628     316.957906       9.16819
  47    0.1255      300.8042        0.0068      617.7340      617.7408     316.936612       9.65386
  46    0.1487      300.8034        0.0095      617.7009      617.7104     316.907000      10.79390
  45    0.1794      300.8023        0.0131      617.6521      617.6652     316.862884      12.11099
  44    0.2165      300.8012        0.0174      617.5895      617.6069     316.805717      13.00438
  43    0.2613      300.8000        0.0225      617.5089      617.5314     316.731414      14.00588
  42    0.3336      300.7982        0.0308      617.3641      617.3949     316.596726      15.70329
  41    0.4307      300.7962        0.0418      617.1591      617.2009     316.404700      16.69619
  40    0.5894      300.7938        0.0595      616.8005      616.8599     316.066147      18.00379
  39     1.339      300.7976        0.1392      614.9443      615.0835     314.285913      20.04221
  38     1.782      300.8102        0.1840      613.9670      614.1510     313.340759      17.99420
  37     2.292      300.8343        0.2348      613.0059      613.2407     312.406398      15.47546
  36     2.964      300.8801        0.3009      611.9577      612.2586     311.378484      12.90342
  35     3.853      300.9602        0.3875      610.8024      611.1899     310.229712      10.90206
  34     5.035      301.0859        0.5017      609.5327      610.0344     308.948469       9.15267
  33     6.613      301.2643        0.6532      608.1464      608.7996     307.535314       7.55473
  32     8.786      301.4960        0.8564      606.6250      607.4814     305.985380       6.01938
  31     11.80      301.7929        1.1455      604.8486      605.9942     304.201326       4.99479
  30     15.07      302.0712        1.4539      603.2440      604.6979     302.626722       4.06532
  29     18.79      302.3495        1.8008      601.6511      603.4519     301.102445       3.45600
  28     23.16      302.6329        2.2036      599.9927      602.1963     299.563323       2.97617
  27     28.12      302.9084        2.6618      598.2881      600.9498     298.041440       2.58710
  26     33.73      303.1452        3.1724      596.5951      599.7675     296.622211       2.13385
  25     40.54      303.3481        3.7868      594.7727      598.5595     295.211343       1.75034
  24     48.69      303.5121        4.5236      592.7865      597.3101     293.797958       1.46263
  23     57.69      303.6141        5.3285      590.7959      596.1244     292.510334       1.20695
  22     68.43      303.6506        6.2814      588.6191      594.9005     291.249883       0.99088
  21     81.20      303.5762        7.4103      586.2690      593.6793     290.103155       0.75774
  20     96.49      303.3781        8.7459      583.6961      592.4420     289.063859       0.57362
  19     114.6      303.0979       10.3152      580.7708      591.0860     287.988129       0.50229
  18     136.5      302.7305       12.1504      577.4359      589.5863     286.855793       0.43541
  17     162.9      302.2633       14.3008      573.5624      587.8633     285.599972       0.40141
  16     196.4      301.5884       17.0382      568.5907      585.6289     284.040482       0.39254
  15     218.7      301.1226       18.8049      565.0572      583.8621     282.739500       0.49393
  14     243.0      300.6095       20.6970      560.7495      581.4466     280.837118       0.65981
  13     269.0      300.0479       22.7153      555.3947      578.1099     278.062022       0.90023
  12     297.5      299.4394       24.8593      548.9964      573.8557     274.416320       1.08128
  11     328.5      298.7888       27.1344      542.0895      569.2240     270.435175       1.08246
  10     361.9      298.0992       29.5361      534.6242      564.1603     266.061076       1.10669
   9     398.1      297.3733       32.0673      526.4204      558.4877     261.114395       1.15247
   8     437.6      296.6202       34.7258      517.3907      552.1164     255.496189       1.20121
   7     480.5      295.8485       37.5082      507.7216      545.2298     249.381271       1.20095
   6     533.0      294.9638       40.8424      495.9006      536.7430     241.779243       1.22292
   5     589.8      294.1260       44.3273      483.0788      527.4061     233.280106       1.26155
   4     651.6      293.4577       47.9482      468.6907      516.6388     223.181159       1.38106
   3     718.7      293.1172       51.6951      453.2257      504.9208     211.803649       1.42984
   2     792.3      293.5139       55.5448      436.4928      492.0377     198.523728       1.52306
   1     891.5      219.1610      187.4594      213.7684      401.2278     182.066765       1.40041
   0    1013.0      220.5295      185.5518      200.5882      386.1399     165.610442       1.14265



 Wavenumbers:  2600. -  3250. cm-1, ATM      1
 LEVEL PRESSURE   UPWARD FLUX   DIFDOWN FLUX  DIRDOWN FLUX  DOWNWARD FLUX   NET FLUX    HEATING RATE
          mb          W/m2          W/m2          W/m2        W/m2          W/m2       degree/day
  51    .06700        0.8377        0.0000        5.4450        5.4450       4.607305       0.00000
  50    .07753        0.8377        0.0000        5.4450        5.4450       4.607297       0.00640
  49    .09103        0.8377        0.0000        5.4450        5.4450       4.607287       0.00627
  48    0.1069        0.8377        0.0000        5.4450        5.4450       4.607275       0.00613
  47    0.1255        0.8377        0.0000        5.4450        5.4450       4.607262       0.00599
  46    0.1487        0.8377        0.0000        5.4450        5.4450       4.607245       0.00608
  45    0.1794        0.8377        0.0000        5.4450        5.4450       4.607223       0.00625
  44    0.2165        0.8377        0.0000        5.4449        5.4449       4.607196       0.00612
  43    0.2613        0.8377        0.0000        5.4449        5.4449       4.607164       0.00600
  42    0.3336        0.8377        0.0000        5.4448        5.4448       4.607111       0.00617
  41    0.4307        0.8377        0.0000        5.4448        5.4448       4.607040       0.00620
  40    0.5894        0.8377        0.0000        5.4446        5.4446       4.606920       0.00637
  39     1.339        0.8377        0.0000        5.4439        5.4439       4.606213       0.00797
  38     1.782        0.8377        0.0000        5.4434        5.4434       4.605670       0.01034
  37     2.292        0.8377        0.0000        5.4427        5.4427       4.604954       0.01186
  36     2.964        0.8377        0.0000        5.4416        5.4416       4.603915       0.01304
  35     3.853        0.8377        0.0000        5.4402        5.4402       4.602438       0.01402
  34     5.035        0.8377        0.0000        5.4381        5.4381       4.600382       0.01468
  33     6.613        0.8377        0.0000        5.4353        5.4353       4.597601       0.01487
  32     8.786        0.8377        0.0000        5.4317        5.4317       4.593969       0.01411
  31     11.80        0.8377        0.0000        5.4269        5.4269       4.589188       0.01338
  30     15.07        0.8377        0.0000        5.4224        5.4224       4.584661       0.01169
  29     18.79        0.8377        0.0000        5.4180        5.4180       4.580248       0.01001
  28     23.16        0.8377        0.0000        5.4135        5.4135       4.575760       0.00868
  27     28.12        0.8377        0.0000        5.4088        5.4088       4.571110       0.00790
  26     33.73        0.8377        0.0000        5.4036        5.4036       4.565867       0.00788
  25     40.54        0.8377        0.0000        5.3966        5.3967       4.558920       0.00862
  24     48.69        0.8377        0.0000        5.3872        5.3872       4.549435       0.00981
  23     57.69        0.8378        0.0000        5.3754        5.3754       4.537641       0.01106
  22     68.43        0.8378        0.0000        5.3599        5.3599       4.522137       0.01219
  21     81.20        0.8378        0.0000        5.3401        5.3401       4.502281       0.01312
  20     96.49        0.8379        0.0000        5.3155        5.3155       4.477682       0.01358
  19     114.6        0.8379        0.0000        5.2853        5.2854       4.447440       0.01412
  18     136.5        0.8380        0.0001        5.2504        5.2505       4.412469       0.01345
  17     162.9        0.8381        0.0001        5.2111        5.2112       4.373032       0.01261
  16     196.4        0.8383        0.0001        5.1640        5.1641       4.325783       0.01189
  15     218.7        0.8385        0.0001        5.1331        5.1332       4.294648       0.01182
  14     243.0        0.8389        0.0001        5.0962        5.0963       4.257401       0.01292
  13     269.0        0.8395        0.0001        5.0511        5.0512       4.211723       0.01482
  12     297.5        0.8403        0.0001        4.9956        4.9957       4.155391       0.01671
  11     328.5        0.8415        0.0001        4.9304        4.9305       4.088975       0.01806
  10     361.9        0.8432        0.0001        4.8511        4.8512       4.008076       0.02047
   9     398.1        0.8454        0.0001        4.7507        4.7508       3.905417       0.02392
   8     437.6        0.8485        0.0002        4.6220        4.6222       3.773664       0.02817
   7     480.5        0.8528        0.0002        4.4625        4.4626       3.609817       0.03218
   6     533.0        0.8598        0.0002        4.2460        4.2462       3.386416       0.03594
   5     589.8        0.8704        0.0002        3.9954        3.9956       3.125208       0.03877
   4     651.6        0.8877        0.0002        3.7089        3.7090       2.821334       0.04156
   3     718.7        0.9160        0.0002        3.4018        3.4020       2.485983       0.04214
   2     792.3        0.9666        0.0002        3.0564        3.0566       2.090069       0.04541
   1     891.5        0.4071        0.6827        1.3336        2.0163       1.609253       0.04092
   0    1013.0        0.4700        0.5652        1.0764        1.6415       1.171562       0.03039



 Wavenumbers:  3250. -  4000. cm-1, ATM      1
 LEVEL PRESSURE   UPWARD FLUX   DIFDOWN FLUX  DIRDOWN FLUX  DOWNWARD FLUX   NET FLUX    HEATING RATE
          mb          W/m2          W/m2          W/m2        W/m2          W/m2       degree/day
  51    .06700        0.0139        0.0000        9.1795        9.1795       9.165621       0.00000
  50    .07753        0.0139        0.0000        9.1747        9.1747       9.160779       3.88148
  49    .09103        0.0139        0.0000        9.1713        9.1713       9.157391       2.11747
  48    0.1069        0.0139        0.0000        9.1688        9.1688       9.154866       1.34402
  47    0.1255        0.0139        0.0000        9.1665        9.1665       9.152607       1.02422
  46    0.1487        0.0139        0.0000        9.1641        9.1641       9.150165       0.88991
  45    0.1794        0.0139        0.0000        9.1612        9.1612       9.147287       0.79008
  44    0.2165        0.0139        0.0000        9.1583        9.1583       9.144367       0.66430
  43    0.2613        0.0139        0.0000        9.1553        9.1553       9.141394       0.56041
  42    0.3336        0.0139        0.0000        9.1511        9.1511       9.137215       0.48723
  41    0.4307        0.0139        0.0000        9.1464        9.1464       9.132447       0.41459
  40    0.5894        0.0139        0.0000        9.1393        9.1394       9.125441       0.37255
  39     1.339        0.0139        0.0000        9.1127        9.1127       9.098828       0.29962
  38     1.782        0.0139        0.0000        9.1011        9.1011       9.087239       0.22062
  37     2.292        0.0139        0.0000        9.0901        9.0901       9.076173       0.18329
  36     2.964        0.0139        0.0000        9.0776        9.0776       9.063743       0.15603
  35     3.853        0.0139        0.0000        9.0629        9.0629       9.048953       0.14036
  34     5.035        0.0139        0.0000        9.0441        9.0441       9.030214       0.13386
  33     6.613        0.0139        0.0000        9.0191        9.0191       9.005212       0.13366
  32     8.786        0.0139        0.0000        8.9843        8.9843       8.970429       0.13509
  31     11.80        0.0139        0.0000        8.9327        8.9327       8.918812       0.14451
  30     15.07        0.0139        0.0000        8.8758        8.8759       8.861967       0.14676
  29     18.79        0.0139        0.0000        8.8110        8.8110       8.797140       0.14698
  28     23.16        0.0139        0.0000        8.7365        8.7366       8.722695       0.14395
  27     28.12        0.0139        0.0000        8.6554        8.6555       8.641582       0.13789
  26     33.73        0.0139        0.0000        8.5719        8.5719       8.558083       0.12554
  25     40.54        0.0139        0.0001        8.4812        8.4812       8.467359       0.11255
  24     48.69        0.0138        0.0001        8.3838        8.3839       8.370058       0.10069
  23     57.69        0.0138        0.0001        8.2861        8.2862       8.272322       0.09161
  22     68.43        0.0138        0.0001        8.1751        8.1751       8.161326       0.08726
  21     81.20        0.0138        0.0001        8.0457        8.0458       8.031968       0.08548
  20     96.49        0.0138        0.0001        7.8949        7.8950       7.881264       0.08318
  19     114.6        0.0138        0.0001        7.7162        7.7163       7.702555       0.08344
  18     136.5        0.0137        0.0002        7.5193        7.5194       7.505711       0.07569
  17     162.9        0.0137        0.0002        7.2913        7.2915       7.277819       0.07284
  16     196.4        0.0137        0.0002        6.9660        6.9662       6.952546       0.08188
  15     218.7        0.0137        0.0002        6.6648        6.6650       6.651355       0.11435
  14     243.0        0.0136        0.0002        6.2619        6.2622       6.248555       0.13970
  13     269.0        0.0136        0.0003        5.7576        5.7579       5.744242       0.16360
  12     297.5        0.0136        0.0003        5.1719        5.1722       5.158521       0.17372
  11     328.5        0.0137        0.0002        4.5757        4.5760       4.562311       0.16211
  10     361.9        0.0137        0.0002        3.9995        3.9998       3.986051       0.14580
   9     398.1        0.0139        0.0002        3.4655        3.4657       3.451856       0.12446
   8     437.6        0.0141        0.0002        2.9740        2.9743       2.960177       0.10512
   7     480.5        0.0144        0.0002        2.5307        2.5309       2.516431       0.08715
   6     533.0        0.0151        0.0002        2.0614        2.0616       2.046414       0.07561
   5     589.8        0.0165        0.0002        1.6150        1.6151       1.598668       0.06646
   4     651.6        0.0192        0.0001        1.1565        1.1566       1.137371       0.06308
   3     718.7        0.0253        0.0001        0.7390        0.7391       0.713810       0.05323
   2     792.3        0.0415        0.0001        0.3985        0.3985       0.357060       0.04092
   1     891.5        0.0002        0.0275        0.0589        0.0863       0.086093       0.02306
   0    1013.0        0.0022        0.0028        0.0048        0.0077       0.005502       0.00560



 Wavenumbers:  4000. -  4650. cm-1, ATM      1
 LEVEL PRESSURE   UPWARD FLUX   DIFDOWN FLUX  DIRDOWN FLUX  DOWNWARD FLUX   NET FLUX    HEATING RATE
          mb          W/m2          W/m2          W/m2        W/m2          W/m2       degree/day
  51    .06700        2.9623        0.0000       10.7795       10.7795       7.817228       0.00000
  50    .07753        2.9623        0.0000       10.7795       10.7795       7.817227       0.00080
  49    .09103        2.9623        0.0000       10.7795       10.7795       7.817226       0.00078
  48    0.1069        2.9623        0.0000       10.7795       10.7795       7.817225       0.00076
  47    0.1255        2.9623        0.0000       10.7795       10.7795       7.817223       0.00075
  46    0.1487        2.9623        0.0000       10.7795       10.7795       7.817221       0.00076
  45    0.1794        2.9623        0.0000       10.7795       10.7795       7.817218       0.00078
  44    0.2165        2.9623        0.0000       10.7795       10.7795       7.817215       0.00076
  43    0.2613        2.9623        0.0000       10.7795       10.7795       7.817211       0.00075
  42    0.3336        2.9623        0.0000       10.7795       10.7795       7.817204       0.00077
  41    0.4307        2.9623        0.0000       10.7795       10.7795       7.817195       0.00077
  40    0.5894        2.9623        0.0000       10.7795       10.7795       7.817180       0.00080
  39     1.339        2.9623        0.0000       10.7794       10.7794       7.817091       0.00101
  38     1.782        2.9623        0.0000       10.7793       10.7793       7.817021       0.00133
  37     2.292        2.9623        0.0000       10.7792       10.7792       7.816927       0.00156
  36     2.964        2.9623        0.0000       10.7791       10.7791       7.816787       0.00176
  35     3.853        2.9623        0.0000       10.7789       10.7789       7.816579       0.00197
  34     5.035        2.9623        0.0000       10.7786       10.7786       7.816272       0.00219
  33     6.613        2.9623        0.0000       10.7781       10.7781       7.815820       0.00242
  32     8.786        2.9623        0.0000       10.7774       10.7774       7.815153       0.00259
  31     11.80        2.9623        0.0000       10.7763       10.7764       7.814106       0.00293
  30     15.07        2.9623        0.0001       10.7751       10.7752       7.812877       0.00317
  29     18.79        2.9623        0.0001       10.7736       10.7737       7.811391       0.00337
  28     23.16        2.9623        0.0001       10.7717       10.7718       7.809546       0.00357
  27     28.12        2.9623        0.0001       10.7695       10.7696       7.807313       0.00380
  26     33.73        2.9623        0.0001       10.7667       10.7668       7.804560       0.00414
  25     40.54        2.9623        0.0002       10.7629       10.7631       7.800827       0.00463
  24     48.69        2.9623        0.0002       10.7579       10.7581       7.795853       0.00515
  23     57.69        2.9623        0.0002       10.7520       10.7522       7.789958       0.00553
  22     68.43        2.9623        0.0003       10.7446       10.7449       7.782573       0.00581
  21     81.20        2.9624        0.0003       10.7355       10.7358       7.773482       0.00601
  20     96.49        2.9625        0.0004       10.7245       10.7249       7.762425       0.00610
  19     114.6        2.9626        0.0005       10.7107       10.7112       7.748606       0.00645
  18     136.5        2.9628        0.0006       10.6942       10.6948       7.731967       0.00640
  17     162.9        2.9631        0.0007       10.6740       10.6747       7.711585       0.00651
  16     196.4        2.9637        0.0008       10.6464       10.6472       7.683505       0.00707
  15     218.7        2.9642        0.0009       10.6255       10.6264       7.662168       0.00810
  14     243.0        2.9650        0.0010       10.5980       10.5990       7.634071       0.00974
  13     269.0        2.9662        0.0011       10.5611       10.5622       7.596019       0.01234
  12     297.5        2.9680        0.0012       10.5119       10.5132       7.545204       0.01507
  11     328.5        2.9704        0.0013       10.4499       10.4512       7.480791       0.01751
  10     361.9        2.9737        0.0015       10.3702       10.3716       7.397974       0.02095
   9     398.1        2.9777        0.0016       10.2678       10.2694       7.291632       0.02478
   8     437.6        2.9829        0.0017       10.1390       10.1407       7.157798       0.02861
   7     480.5        2.9895        0.0019        9.9877        9.9896       7.000055       0.03098
   6     533.0        2.9996        0.0021        9.7937        9.7957       6.796130       0.03281
   5     589.8        3.0140        0.0022        9.5752        9.5774       6.563346       0.03455
   4     651.6        3.0370        0.0024        9.2958        9.2982       6.261209       0.04132
   3     718.7        3.0748        0.0026        8.9267        8.9293       5.854474       0.05112
   2     792.3        3.1437        0.0027        8.4542        8.4569       5.313274       0.06207
   1     891.5        1.5045        2.1182        4.0252        6.1435       4.638938       0.05738
   0    1013.0        1.6028        1.9474        3.6543        5.6018       3.998965       0.04444



 Wavenumbers:  4650. -  5150. cm-1, ATM      1
 LEVEL PRESSURE   UPWARD FLUX   DIFDOWN FLUX  DIRDOWN FLUX  DOWNWARD FLUX   NET FLUX    HEATING RATE
          mb          W/m2          W/m2          W/m2        W/m2          W/m2       degree/day
  51    .06700        2.1179        0.0000       10.2033       10.2033       8.085440       0.00000
  50    .07753        2.1179        0.0000       10.2031       10.2031       8.085204       0.18901
  49    .09103        2.1179        0.0000       10.2028       10.2028       8.084909       0.18428
  48    0.1069        2.1179        0.0000       10.2025       10.2025       8.084573       0.17931
  47    0.1255        2.1179        0.0000       10.2021       10.2021       8.084188       0.17426
  46    0.1487        2.1179        0.0000       10.2016       10.2016       8.083707       0.17536
  45    0.1794        2.1179        0.0000       10.2010       10.2010       8.083057       0.17850
  44    0.2165        2.1179        0.0000       10.2002       10.2002       8.082297       0.17277
  43    0.2613        2.1179        0.0000       10.1993       10.1993       8.081412       0.16690
  42    0.3336        2.1179        0.0000       10.1979       10.1979       8.079979       0.16702
  41    0.4307        2.1179        0.0000       10.1960       10.1960       8.078139       0.16002
  40    0.5894        2.1179        0.0000       10.1932       10.1932       8.075265       0.15283
  39     1.339        2.1179        0.0000       10.1816       10.1816       8.063674       0.13050
  38     1.782        2.1179        0.0000       10.1760       10.1760       8.058145       0.10526
  37     2.292        2.1179        0.0000       10.1706       10.1706       8.052689       0.09037
  36     2.964        2.1179        0.0000       10.1646       10.1647       8.046765       0.07435
  35     3.853        2.1179        0.0000       10.1584       10.1584       8.040551       0.05897
  34     5.035        2.1179        0.0000       10.1521       10.1521       8.034216       0.04526
  33     6.613        2.1179        0.0000       10.1456       10.1456       8.027758       0.03452
  32     8.786        2.1179        0.0001       10.1386       10.1386       8.020747       0.02723
  31     11.80        2.1179        0.0001       10.1295       10.1296       8.011706       0.02531
  30     15.07        2.1179        0.0001       10.1196       10.1197       8.001826       0.02551
  29     18.79        2.1179        0.0001       10.1076       10.1077       7.989817       0.02723
  28     23.16        2.1179        0.0001       10.0923       10.0924       7.974508       0.02960
  27     28.12        2.1179        0.0002       10.0731       10.0733       7.955409       0.03247
  26     33.73        2.1179        0.0002       10.0500       10.0502       7.932306       0.03474
  25     40.54        2.1180        0.0003       10.0201       10.0204       7.902390       0.03711
  24     48.69        2.1181        0.0003        9.9820        9.9823       7.864199       0.03952
  23     57.69        2.1182        0.0004        9.9384        9.9388       7.820634       0.04084
  22     68.43        2.1183        0.0004        9.8858        9.8862       7.767862       0.04149
  21     81.20        2.1185        0.0005        9.8234        9.8239       7.705416       0.04126
  20     96.49        2.1188        0.0006        9.7518        9.7523       7.633518       0.03968
  19     114.6        2.1193        0.0007        9.6719        9.6726       7.553351       0.03743
  18     136.5        2.1199        0.0008        9.5858        9.5866       7.466748       0.03330
  17     162.9        2.1207        0.0010        9.4940        9.4950       7.374283       0.02956
  16     196.4        2.1221        0.0011        9.3883        9.3894       7.267366       0.02691
  15     218.7        2.1231        0.0013        9.3229        9.3242       7.201060       0.02517
  14     243.0        2.1245        0.0014        9.2520        9.2534       7.128845       0.02505
  13     269.0        2.1264        0.0015        9.1717        9.1732       7.046758       0.02663
  12     297.5        2.1291        0.0017        9.0763        9.0780       6.948820       0.02905
  11     328.5        2.1327        0.0018        8.9650        8.9668       6.834117       0.03119
  10     361.9        2.1373        0.0020        8.8349        8.8369       6.699631       0.03403
   9     398.1        2.1433        0.0022        8.6820        8.6842       6.540910       0.03698
   8     437.6        2.1511        0.0024        8.5028        8.5052       6.354061       0.03995
   7     480.5        2.1613        0.0025        8.2948        8.2973       6.136083       0.04281
   6     533.0        2.1768        0.0027        8.0209        8.0236       5.846840       0.04653
   5     589.8        2.1983        0.0029        7.7063        7.7093       5.510904       0.04986
   4     651.6        2.2302        0.0031        7.3412        7.3443       5.114112       0.05426
   3     718.7        2.2782        0.0033        6.9387        6.9419       4.663739       0.05660
   2     792.3        2.3539        0.0034        6.5066        6.5100       4.156091       0.05822
   1     891.5        1.1077        1.6045        3.0659        4.6704       3.562696       0.05050
   0    1013.0        1.1999        1.4544        2.7387        4.1931       2.993149       0.03955



 Wavenumbers:  5150. -  6150. cm-1, ATM      1
 LEVEL PRESSURE   UPWARD FLUX   DIFDOWN FLUX  DIRDOWN FLUX  DOWNWARD FLUX   NET FLUX    HEATING RATE
          mb          W/m2          W/m2          W/m2        W/m2          W/m2       degree/day
  51    .06700        5.1747        0.0000       25.5798       25.5798      20.405160       0.00000
  50    .07753        5.1747        0.0000       25.5798       25.5798      20.405121       0.03158
  49    .09103        5.1747        0.0000       25.5797       25.5797      20.405070       0.03207
  48    0.1069        5.1747        0.0000       25.5797       25.5797      20.405008       0.03258
  47    0.1255        5.1747        0.0000       25.5796       25.5796      20.404935       0.03308
  46    0.1487        5.1747        0.0000       25.5795       25.5795      20.404840       0.03485
  45    0.1794        5.1747        0.0000       25.5794       25.5794      20.404705       0.03709
  44    0.2165        5.1747        0.0000       25.5792       25.5792      20.404539       0.03765
  43    0.2613        5.1747        0.0000       25.5790       25.5790      20.404336       0.03823
  42    0.3336        5.1747        0.0000       25.5786       25.5786      20.403990       0.04040
  41    0.4307        5.1747        0.0000       25.5782       25.5782      20.403519       0.04094
  40    0.5894        5.1747        0.0000       25.5774       25.5774      20.402730       0.04195
  39     1.339        5.1746        0.0000       25.5735       25.5736      20.398931       0.04278
  38     1.782        5.1746        0.0000       25.5713       25.5714      20.396719       0.04211
  37     2.292        5.1746        0.0001       25.5688       25.5688      20.394216       0.04146
  36     2.964        5.1746        0.0001       25.5656       25.5657      20.391036       0.03992
  35     3.853        5.1746        0.0001       25.5615       25.5616      20.386995       0.03835
  34     5.035        5.1746        0.0001       25.5562       25.5564      20.381791       0.03717
  33     6.613        5.1746        0.0002       25.5494       25.5496      20.375042       0.03608
  32     8.786        5.1746        0.0002       25.5406       25.5408      20.366296       0.03396
  31     11.80        5.1745        0.0003       25.5287       25.5290      20.354470       0.03311
  30     15.07        5.1745        0.0004       25.5167       25.5171      20.342613       0.03061
  29     18.79        5.1745        0.0005       25.5042       25.5047      20.330219       0.02810
  28     23.16        5.1745        0.0007       25.4907       25.4913      20.316872       0.02581
  27     28.12        5.1744        0.0008       25.4764       25.4772      20.302801       0.02392
  26     33.73        5.1744        0.0009       25.4620       25.4630      20.288547       0.02143
  25     40.54        5.1744        0.0011       25.4463       25.4474      20.272967       0.01933
  24     48.69        5.1744        0.0014       25.4294       25.4307      20.256293       0.01725
  23     57.69        5.1745        0.0016       25.4126       25.4142      20.239748       0.01551
  22     68.43        5.1745        0.0019       25.3944       25.3963      20.221795       0.01411
  21     81.20        5.1746        0.0023       25.3744       25.3767      20.202048       0.01305
  20     96.49        5.1748        0.0027       25.3519       25.3546      20.179865       0.01224
  19     114.6        5.1749        0.0032       25.3262       25.3294      20.154432       0.01188
  18     136.5        5.1752        0.0038       25.2962       25.3000      20.124835       0.01138
  17     162.9        5.1755        0.0045       25.2521       25.2566      20.081163       0.01396
  16     196.4        5.1759        0.0054       25.1593       25.1647      19.988848       0.02324
  15     218.7        5.1762        0.0060       25.0159       25.0220      19.845732       0.05434
  14     243.0        5.1767        0.0066       24.7089       24.7155      19.538864       0.10643
  13     269.0        5.1773        0.0072       24.1619       24.1691      18.991745       0.17748
  12     297.5        5.1783        0.0078       23.4544       23.4622      18.283895       0.20994
  11     328.5        5.1796        0.0084       22.7355       22.7438      17.564254       0.19567
  10     361.9        5.1814        0.0090       21.9224       21.9314      16.750002       0.20601
   9     398.1        5.1838        0.0095       20.9939       21.0034      15.819573       0.21677
   8     437.6        5.1873        0.0100       19.9833       19.9933      14.806015       0.21671
   7     480.5        5.1922        0.0105       18.9483       18.9588      13.766597       0.20414
   6     533.0        5.2005        0.0110       17.7796       17.7906      12.590125       0.18926
   5     589.8        5.2140        0.0116       16.6726       16.6842      11.470153       0.16624
   4     651.6        5.2386        0.0121       15.6343       15.6464      10.407792       0.14528
   3     718.7        5.2835        0.0128       14.7738       14.7865       9.503055       0.11370
   2     792.3        5.3716        0.0135       14.0291       14.0426       8.670989       0.09543
   1     891.5        2.6193        3.5862        6.7559       10.3421       7.722766       0.08069
   0    1013.0        2.7343        3.3431        6.2170        9.5601       6.825771       0.06228



 Wavenumbers:  6150. -  7700. cm-1, ATM      1
 LEVEL PRESSURE   UPWARD FLUX   DIFDOWN FLUX  DIRDOWN FLUX  DOWNWARD FLUX   NET FLUX    HEATING RATE
          mb          W/m2          W/m2          W/m2        W/m2          W/m2       degree/day
  51    .06700        8.0217        0.0000       47.3109       47.3109      39.289130       0.00000
  50    .07753        8.0217        0.0000       47.3108       47.3108      39.289073       0.04553
  49    .09103        8.0217        0.0000       47.3107       47.3107      39.289000       0.04583
  48    0.1069        8.0217        0.0000       47.3106       47.3106      39.288913       0.04614
  47    0.1255        8.0217        0.0000       47.3105       47.3105      39.288810       0.04645
  46    0.1487        8.0217        0.0000       47.3104       47.3104      39.288677       0.04852
  45    0.1794        8.0217        0.0000       47.3102       47.3102      39.288491       0.05127
  44    0.2165        8.0217        0.0000       47.3100       47.3100      39.288263       0.05167
  43    0.2613        8.0217        0.0000       47.3097       47.3097      39.287987       0.05210
  42    0.3336        8.0217        0.0000       47.3092       47.3092      39.287518       0.05471
  41    0.4307        8.0217        0.0000       47.3085       47.3086      39.286883       0.05521
  40    0.5894        8.0217        0.0001       47.3074       47.3075      39.285823       0.05633
  39     1.339        8.0216        0.0002       47.3022       47.3023      39.280731       0.05733
  38     1.782        8.0216        0.0002       47.2991       47.2993      39.277761       0.05655
  37     2.292        8.0215        0.0003       47.2956       47.2959      39.274385       0.05591
  36     2.964        8.0215        0.0003       47.2912       47.2915      39.270067       0.05421
  35     3.853        8.0214        0.0004       47.2855       47.2859      39.264533       0.05252
  34     5.035        8.0213        0.0006       47.2780       47.2786      39.257352       0.05129
  33     6.613        8.0211        0.0008       47.2683       47.2691      39.247964       0.05019
  32     8.786        8.0209        0.0010       47.2556       47.2566      39.235665       0.04777
  31     11.80        8.0206        0.0014       47.2380       47.2394      39.218762       0.04732
  30     15.07        8.0203        0.0018       47.2201       47.2218      39.201475       0.04463
  29     18.79        8.0200        0.0022       47.2008       47.2030      39.182996       0.04190
  28     23.16        8.0196        0.0027       47.1795       47.1822      39.162606       0.03943
  27     28.12        8.0192        0.0033       47.1565       47.1598      39.140614       0.03739
  26     33.73        8.0186        0.0039       47.1324       47.1363      39.117693       0.03446
  25     40.54        8.0180        0.0047       47.1054       47.1101      39.092059       0.03180
  24     48.69        8.0173        0.0057       47.0754       47.0811      39.063808       0.02924
  23     57.69        8.0165        0.0067       47.0449       47.0517      39.035189       0.02683
  22     68.43        8.0155        0.0079       47.0110       47.0189      39.003456       0.02495
  21     81.20        8.0143        0.0094       46.9729       46.9823      38.967968       0.02345
  20     96.49        8.0129        0.0112       46.9294       46.9406      38.927635       0.02226
  19     114.6        8.0113        0.0133       46.8790       46.8923      38.881014       0.02177
  18     136.5        8.0093        0.0158       46.8200       46.8358      38.826409       0.02100
  17     162.9        8.0070        0.0187       46.7361       46.7549      38.747821       0.02512
  16     196.4        8.0041        0.0226       46.5703       46.5928      38.588710       0.04005
  15     218.7        8.0023        0.0250       46.3473       46.3723      38.370058       0.08301
  14     243.0        8.0004        0.0276       45.9299       45.9575      37.957043       0.14325
  13     269.0        7.9987        0.0302       45.1708       45.2009      37.202199       0.24487
  12     297.5        7.9975        0.0326       44.0115       44.0441      36.046589       0.34274
  11     328.5        7.9969        0.0351       42.7242       42.7593      34.762445       0.34916
  10     361.9        7.9973        0.0376       41.3539       41.3916      33.394298       0.34615
   9     398.1        7.9992        0.0401       39.7953       39.8353      31.836113       0.36302
   8     437.6        8.0037        0.0423       37.9948       38.0371      30.033331       0.38545
   7     480.5        8.0120        0.0444       36.0647       36.1091      28.097067       0.38027
   6     533.0        8.0289        0.0465       33.7773       33.8238      25.794888       0.37035
   5     589.8        8.0599        0.0484       31.4082       31.4566      23.396661       0.35598
   4     651.6        8.1213        0.0498       28.8834       28.9332      20.811854       0.35348
   3     718.7        8.2387        0.0509       26.4104       26.4613      18.222662       0.32539
   2     792.3        8.4808        0.0518       24.0056       24.0574      15.576621       0.30347
   1     891.5        3.9279        5.7759       10.9651       16.7410      12.813100       0.23516
   0    1013.0        4.2257        5.1615        9.6121       14.7737      10.547960       0.15728



 Wavenumbers:  7700. -  8050. cm-1, ATM      1
 LEVEL PRESSURE   UPWARD FLUX   DIFDOWN FLUX  DIRDOWN FLUX  DOWNWARD FLUX   NET FLUX    HEATING RATE
          mb          W/m2          W/m2          W/m2        W/m2          W/m2       degree/day
  51    .06700        3.9329        0.0000       11.1810       11.1810       7.248061       0.00000
  50    .07753        3.9329        0.0000       11.1809       11.1809       7.248041       0.01638
  49    .09103        3.9329        0.0000       11.1809       11.1809       7.248015       0.01605
  48    0.1069        3.9329        0.0000       11.1809       11.1809       7.247986       0.01571
  47    0.1255        3.9329        0.0000       11.1809       11.1809       7.247952       0.01538
  46    0.1487        3.9329        0.0000       11.1808       11.1808       7.247909       0.01560
  45    0.1794        3.9329        0.0000       11.1808       11.1808       7.247851       0.01606
  44    0.2165        3.9329        0.0000       11.1807       11.1807       7.247781       0.01575
  43    0.2613        3.9329        0.0000       11.1806       11.1806       7.247699       0.01545
  42    0.3336        3.9330        0.0000       11.1805       11.1805       7.247564       0.01581
  41    0.4307        3.9330        0.0000       11.1803       11.1804       7.247384       0.01564
  40    0.5894        3.9330        0.0000       11.1801       11.1801       7.247090       0.01562
  39     1.339        3.9332        0.0001       11.1788       11.1789       7.245700       0.01565
  38     1.782        3.9333        0.0001       11.1781       11.1782       7.244884       0.01554
  37     2.292        3.9334        0.0001       11.1772       11.1773       7.243939       0.01565
  36     2.964        3.9335        0.0001       11.1761       11.1762       7.242698       0.01557
  35     3.853        3.9337        0.0002       11.1746       11.1748       7.241059       0.01555
  34     5.035        3.9340        0.0003       11.1726       11.1729       7.238882       0.01555
  33     6.613        3.9343        0.0003       11.1700       11.1703       7.235975       0.01554
  32     8.786        3.9348        0.0004       11.1664       11.1668       7.232060       0.01521
  31     11.80        3.9354        0.0006       11.1613       11.1619       7.226463       0.01567
  30     15.07        3.9361        0.0008       11.1558       11.1566       7.220460       0.01550
  29     18.79        3.9369        0.0009       11.1497       11.1506       7.213687       0.01536
  28     23.16        3.9379        0.0012       11.1425       11.1437       7.205789       0.01527
  27     28.12        3.9390        0.0014       11.1343       11.1357       7.196774       0.01532
  26     33.73        3.9402        0.0017       11.1252       11.1269       7.186708       0.01513
  25     40.54        3.9416        0.0020       11.1142       11.1162       7.174581       0.01505
  24     48.69        3.9434        0.0024       11.1010       11.1034       7.160011       0.01508
  23     57.69        3.9454        0.0029       11.0866       11.0895       7.144071       0.01494
  22     68.43        3.9478        0.0034       11.0695       11.0729       7.125175       0.01485
  21     81.20        3.9506        0.0040       11.0494       11.0534       7.102791       0.01479
  20     96.49        3.9540        0.0048       11.0255       11.0303       7.076298       0.01462
  19     114.6        3.9581        0.0057       10.9975       11.0032       7.045091       0.01457
  18     136.5        3.9631        0.0067       10.9648       10.9715       7.008446       0.01409
  17     162.9        3.9690        0.0080       10.9263       10.9343       6.965270       0.01380
  16     196.4        3.9769        0.0096       10.8773       10.8869       6.909985       0.01392
  15     218.7        3.9822        0.0107       10.8455       10.8562       6.874061       0.01364
  14     243.0        3.9880        0.0118       10.8114       10.8233       6.835297       0.01344
  13     269.0        3.9944        0.0131       10.7749       10.7880       6.793545       0.01354
  12     297.5        4.0016        0.0145       10.7357       10.7502       6.748604       0.01333
  11     328.5        4.0095        0.0159       10.6937       10.7096       6.700191       0.01316
  10     361.9        4.0182        0.0175       10.6489       10.6663       6.648106       0.01318
   9     398.1        4.0280        0.0192       10.6008       10.6199       6.591898       0.01310
   8     437.6        4.0390        0.0210       10.5491       10.5700       6.531013       0.01302
   7     480.5        4.0514        0.0229       10.4934       10.5163       6.464926       0.01298
   6     533.0        4.0676        0.0253       10.4243       10.4495       6.381951       0.01335
   5     589.8        4.0866        0.0278       10.3479       10.3757       6.289148       0.01377
   4     651.6        4.1094        0.0305       10.2613       10.2919       6.182457       0.01459
   3     718.7        4.1376        0.0334       10.1618       10.1952       6.057586       0.01569
   2     792.3        4.1736        0.0365       10.0439       10.0804       5.906765       0.01730
   1     891.5        2.1463        2.7619        5.0926        7.8545       5.708212       0.01690
   0    1013.0        2.1910        2.7026        4.9623        7.6649       5.473851       0.01627



 Wavenumbers:  8050. - 12850. cm-1, ATM      1
 LEVEL PRESSURE   UPWARD FLUX   DIFDOWN FLUX  DIRDOWN FLUX  DOWNWARD FLUX   NET FLUX    HEATING RATE
          mb          W/m2          W/m2          W/m2        W/m2          W/m2       degree/day
  51    .06700       50.1489        0.0000      156.5418      156.5418     106.392873       0.00000
  50    .07753       50.1489        0.0000      156.5417      156.5417     106.392873       0.00000
  49    .09103       50.1488        0.0001      156.5417      156.5417     106.392873       0.00000
  48    0.1069       50.1488        0.0001      156.5416      156.5417     106.392873      -0.00000
  47    0.1255       50.1488        0.0001      156.5415      156.5417     106.392873      -0.00000
  46    0.1487       50.1488        0.0002      156.5414      156.5416     106.392873       0.00000
  45    0.1794       50.1487        0.0003      156.5413      156.5416     106.392873       0.00000
  44    0.2165       50.1486        0.0004      156.5412      156.5415     106.392873      -0.00000
  43    0.2613       50.1486        0.0005      156.5410      156.5415     106.392873      -0.00000
  42    0.3336       50.1485        0.0007      156.5407      156.5413     106.392873       0.00000
  41    0.4307       50.1483        0.0009      156.5403      156.5412     106.392873      -0.00000
  40    0.5894       50.1481        0.0013      156.5397      156.5410     106.392873       0.00000
  39     1.339       50.1470        0.0031      156.5367      156.5398     106.392873       0.00000
  38     1.782       50.1463        0.0042      156.5350      156.5392     106.392873      -0.00000
  37     2.292       50.1455        0.0054      156.5330      156.5384     106.392873       0.00000
  36     2.964       50.1445        0.0070      156.5303      156.5374     106.392873       0.00000
  35     3.853       50.1432        0.0092      156.5268      156.5360     106.392873      -0.00000
  34     5.035       50.1414        0.0120      156.5222      156.5343     106.392873       0.00000
  33     6.613       50.1390        0.0159      156.5160      156.5319     106.392873      -0.00000
  32     8.786       50.1358        0.0210      156.5076      156.5287     106.392873       0.00000
  31     11.80       50.1312        0.0284      156.4957      156.5241     106.392873      -0.00000
  30     15.07       50.1262        0.0363      156.4828      156.5191     106.392873       0.00000
  29     18.79       50.1207        0.0453      156.4682      156.5135     106.392873      -0.00000
  28     23.16       50.1141        0.0558      156.4512      156.5070     106.392873       0.00000
  27     28.12       50.1066        0.0678      156.4317      156.4995     106.392873      -0.00000
  26     33.73       50.0983        0.0813      156.4099      156.4911     106.392873       0.00000
  25     40.54       50.0881        0.0976      156.3834      156.4810     106.392873       0.00000
  24     48.69       50.0759        0.1172      156.3515      156.4687     106.392873      -0.00000
  23     57.69       50.0624        0.1388      156.3164      156.4553     106.392873       0.00000
  22     68.43       50.0463        0.1646      156.2746      156.4392     106.392873      -0.00000
  21     81.20       50.0271        0.1954      156.2246      156.4200     106.392873       0.00000
  20     96.49       50.0042        0.2321      156.1649      156.3971     106.392873       0.00000
  19     114.6       49.9770        0.2758      156.0879      156.3638     106.386734       0.00287
  18     136.5       49.9448        0.3277      155.9962      156.3239     106.379111       0.00293
  17     162.9       49.9062        0.3896      155.8831      156.2727     106.366433       0.00405
  16     196.4       49.8562        0.4701      155.7199      156.1901     106.333832       0.00821
  15     218.7       49.8235        0.5230      155.5733      156.0963     106.272871       0.02314
  14     243.0       49.7883        0.5805      155.3367      155.9172     106.128952       0.04992
  13     269.0       49.7511        0.6426      154.9514      155.5941     105.842966       0.09277
  12     297.5       49.7129        0.7094      154.3896      155.0991     105.386110       0.13550
  11     328.5       49.6743        0.7814      153.7151      154.4965     104.822217       0.15332
  10     361.9       49.6364        0.8585      152.9087      153.7672     104.130878       0.17492
   9     398.1       49.6013        0.9408      151.8986      152.8394     103.238076       0.20800
   8     437.6       49.5731        1.0281      150.6031      151.6313     102.058244       0.25226
   7     480.5       49.5561        1.1202      149.0014      150.1216     100.565472       0.29317
   6     533.0       49.5605        1.2310      146.7375      147.9686      98.408056       0.34706
   5     589.8       49.6121        1.3464      143.8730      145.2194      95.607320       0.41572
   4     651.6       49.7673        1.4637      140.0955      141.5592      91.791889       0.52177
   3     718.7       50.1068        1.5814      135.5278      137.1092      87.002407       0.60191
   2     792.3       50.8271        1.6963      130.0690      131.7653      80.938230       0.69549
   1     891.5       24.9351       34.9204       63.0713       97.9916      73.056567       0.67069
   0    1013.0       26.0252       32.8432       58.3323       91.1755      65.150389       0.54897



 Wavenumbers: 12850. - 16000. cm-1, ATM      1
 LEVEL PRESSURE   UPWARD FLUX   DIFDOWN FLUX  DIRDOWN FLUX  DOWNWARD FLUX   NET FLUX    HEATING RATE
          mb          W/m2          W/m2          W/m2        W/m2          W/m2       degree/day
  51    .06700       52.9122        0.0000       98.0872       98.0872      45.175010       0.00000
  50    .07753       52.9122        0.0001       98.0864       98.0864      45.174225       0.62993
  49    .09103       52.9122        0.0001       98.0853       98.0854      45.173239       0.61624
  48    0.1069       52.9122        0.0002       98.0841       98.0843      45.172107       0.60219
  47    0.1255       52.9122        0.0003       98.0826       98.0830      45.170810       0.58833
  46    0.1487       52.9121        0.0005       98.0809       98.0813      45.169175       0.59588
  45    0.1794       52.9121        0.0006       98.0784       98.0791      45.166955       0.60930
  44    0.2165       52.9121        0.0009       98.0756       98.0765      45.164351       0.59254
  43    0.2613       52.9122        0.0011       98.0723       98.0734      45.161296       0.57586
  42    0.3336       52.9122        0.0015       98.0670       98.0685      45.156326       0.57941
  41    0.4307       52.9123        0.0021       98.0602       98.0623      45.149925       0.55658
  40    0.5894       52.9127        0.0030       98.0496       98.0526      45.139897       0.53328
  39     1.339       52.9161        0.0072       98.0043       98.0116      45.095431       0.50061
  38     1.782       52.9196        0.0097       97.9793       97.9890      45.069370       0.49616
  37     2.292       52.9250        0.0126       97.9498       97.9624      45.037345       0.53042
  36     2.964       52.9342        0.0164       97.9088       97.9252      44.990994       0.58185
  35     3.853       52.9493        0.0214       97.8503       97.8718      44.922465       0.65035
  34     5.035       52.9722        0.0281       97.7680       97.7961      44.823877       0.70427
  33     6.613       53.0042        0.0370       97.6562       97.6931      44.688906       0.72155
  32     8.786       53.0459        0.0489       97.5107       97.5596      44.513710       0.68040
  31     11.80       53.0997        0.0660       97.3179       97.3838      44.284123       0.64277
  30     15.07       53.1509        0.0843       97.1283       97.2126      44.061744       0.57414
  29     18.79       53.2027        0.1049       96.9300       97.0350      43.832295       0.52023
  28     23.16       53.2563        0.1291       96.7166       96.8456      43.589346       0.46978
  27     28.12       53.3095        0.1566       96.4935       96.6501      43.340573       0.42290
  26     33.73       53.3575        0.1874       96.2731       96.4605      43.102949       0.35727
  25     40.54       53.4022        0.2246       96.0408       96.2654      42.863163       0.29748
  24     48.69       53.4431        0.2694       95.7946       96.0640      42.620907       0.25070
  23     57.69       53.4755        0.3187       95.5573       95.8760      42.400499       0.20660
  22     68.43       53.5004        0.3774       95.3106       95.6880      42.187559       0.16740
  21     81.20       53.5115        0.4473       95.0643       95.5117      42.000171       0.12382
  20     96.49       53.5075        0.5307       94.8153       95.3460      41.838558       0.08920
  19     114.6       53.5025        0.6306       94.5411       95.1716      41.669169       0.07909
  18     136.5       53.4889        0.7489       94.2320       94.9809      41.491991       0.06813
  17     162.9       53.4658        0.8896       93.8753       94.7650      41.299188       0.06163
  16     196.4       53.4209        1.0721       93.4347       94.5067      41.085837       0.05370
  15     218.7       53.3861        1.1918       93.1513       94.3431      40.956968       0.04893
  14     243.0       53.3461        1.3219       92.8439       94.1659      40.819756       0.04759
  13     269.0       53.3006        1.4628       92.5111       93.9739      40.673277       0.04752
  12     297.5       53.2500        1.6149       92.1495       93.7644      40.514385       0.04713
  11     328.5       53.1954        1.7792       91.7554       93.5346      40.339214       0.04763
  10     361.9       53.1372        1.9559       91.3262       93.2821      40.144890       0.04917
   9     398.1       53.0763        2.1459       90.8575       93.0034      39.927087       0.05074
   8     437.6       53.0146        2.3496       90.3418       92.6914      39.676841       0.05350
   7     480.5       52.9537        2.5675       89.7728       92.3403      39.386666       0.05699
   6     533.0       52.8892        2.8351       89.0428       91.8779      38.988726       0.06402
   5     589.8       52.8395        3.1221       88.2038       91.3259      38.486484       0.07455
   4     651.6       52.8265        3.4280       87.1979       90.6259      37.799365       0.09397
   3     718.7       52.8665        3.7512       86.0161       89.7674      36.900859       0.11292
   2     792.3       53.0092        4.0883       84.5970       88.6853      35.676108       0.14047
   1     891.5       39.0619       30.3301       42.5754       72.9055      33.843621       0.15594
   0    1013.0       39.5947       29.9643       41.1196       71.0839      31.489193       0.16348



 Wavenumbers: 16000. - 22650. cm-1, ATM      1
 LEVEL PRESSURE   UPWARD FLUX   DIFDOWN FLUX  DIRDOWN FLUX  DOWNWARD FLUX   NET FLUX    HEATING RATE
          mb          W/m2          W/m2          W/m2        W/m2          W/m2       degree/day
  51    .06700      117.2916        0.0000      156.3892      156.3892      39.097661       0.00000
  50    .07753      117.2915        0.0004      156.3887      156.3890      39.097524       0.10954
  49    .09103      117.2915        0.0008      156.3879      156.3888      39.097326       0.12424
  48    0.1069      117.2914        0.0014      156.3871      156.3885      39.097059       0.14168
  47    0.1255      117.2913        0.0020      156.3861      156.3880      39.096703       0.16149
  46    0.1487      117.2913        0.0028      156.3847      156.3875      39.096178       0.19136
  45    0.1794      117.2913        0.0038      156.3828      156.3866      39.095357       0.22532
  44    0.2165      117.2913        0.0051      156.3805      156.3856      39.094244       0.25323
  43    0.2613      117.2915        0.0066      156.3776      156.3842      39.092734       0.28469
  42    0.3336      117.2918        0.0090      156.3726      156.3817      39.089862       0.33479
  41    0.4307      117.2925        0.0123      156.3657      156.3780      39.085534       0.37634
  40    0.5894      117.2940        0.0176      156.3537      156.3713      39.077279       0.43898
  39     1.339      117.3100        0.0429      156.2834      156.3263      39.016292       0.68660
  38     1.782      117.3257        0.0577      156.2324      156.2901      38.964341       0.98907
  37     2.292      117.3498        0.0749      156.1641      156.2390      38.889144       1.24546
  36     2.964      117.3905        0.0974      156.0605      156.1579      38.767331       1.52912
  35     3.853      117.4571        0.1271      155.9041      156.0312      38.574062       1.83416
  34     5.035      117.5581        0.1665      155.6774      155.8439      38.285760       2.05951
  33     6.613      117.6996        0.2192      155.3656      155.5848      37.885182       2.14149
  32     8.786      117.8835        0.2900      154.9577      155.2476      37.364078       2.02378
  31     11.80      118.1219        0.3911      154.4153      154.8064      36.684410       1.90286
  30     15.07      118.3490        0.4995      153.8804      154.3799      36.030847       1.68737
  29     18.79      118.5795        0.6217      153.3191      153.9408      35.361272       1.51813
  28     23.16      118.8188        0.7642      152.7126      153.4768      34.658016       1.35987
  27     28.12      119.0573        0.9269      152.0755      153.0024      33.945113       1.21189
  26     33.73      119.2739        1.1088      151.4409      152.5497      33.275782       1.00636
  25     40.54      119.4773        1.3282      150.7637      152.0919      32.614538       0.82035
  24     48.69      119.6660        1.5923      150.0338      151.6262      31.960203       0.67713
  23     57.69      119.8185        1.8821      149.3151      151.1972      31.378705       0.54507
  22     68.43      119.9411        2.2266      148.5476      150.7742      30.833083       0.42893
  21     81.20      120.0064        2.6367      147.7517      150.3884      30.381934       0.29811
  20     96.49      120.0092        3.1246      146.9127      150.0373      30.028056       0.19532
  19     114.6      119.9741        3.7021      145.9763      149.6783      29.704287       0.15118
  18     136.5      119.9063        4.3835      144.9088      149.2922      29.385941       0.12241
  17     162.9      119.8019        5.1906      143.6785      148.8692      29.067232       0.10187
  16     196.4      119.6155        6.2312      142.1651      148.3962      28.780774       0.07210
  15     218.7      119.4743        6.9107      141.2033      148.1141      28.639733       0.05355
  14     243.0      119.3123        7.6457      140.1753      147.8211      28.508790       0.04542
  13     269.0      119.1277        8.4382      139.0797      147.5178      28.390147       0.03849
  12     297.5      118.9197        9.2898      137.9141      147.2038      28.284131       0.03144
  11     328.5      118.6910       10.2044      136.6676      146.8720      28.180984       0.02805
  10     361.9      118.4411       11.1828      135.3392      146.5220      28.080822       0.02534
   9     398.1      118.1691       12.2284      133.9235      146.1519      27.982814       0.02283
   8     437.6      117.8751       13.3429      132.4163      145.7592      27.884058       0.02111
   7     480.5      117.5585       14.5280      130.8147      145.3427      27.784267       0.01960
   6     533.0      117.1684       15.9737      128.8599      144.8336      27.665259       0.01914
   5     589.8      116.7505       17.5160      126.7679      144.2839      27.533405       0.01957
   4     651.6      116.3093       19.1557      124.5274      143.6832      27.373840       0.02182
   3     718.7      115.8491       20.8940      122.1285      143.0224      27.173326       0.02520
   2     792.3      115.3830       22.7279      119.5548      142.2827      26.899696       0.03138
   1     891.5       99.8376       66.3414       59.9347      126.2761      26.438594       0.03924
   0    1013.0       99.4982       67.5094       57.7573      125.2668      25.768583       0.04652



 Wavenumbers: 22650. - 29000. cm-1, ATM      1
 LEVEL PRESSURE   UPWARD FLUX   DIFDOWN FLUX  DIRDOWN FLUX  DOWNWARD FLUX   NET FLUX    HEATING RATE
          mb          W/m2          W/m2          W/m2        W/m2          W/m2       degree/day
  51    .06700       49.2348        0.0000       59.0156       59.0156       9.780759       0.00000
  50    .07753       49.2347        0.0004       59.0151       59.0155       9.780759       0.00000
  49    .09103       49.2346        0.0010       59.0144       59.0153       9.780759      -0.00000
  48    0.1069       49.2344        0.0016       59.0136       59.0152       9.780759      -0.00000
  47    0.1255       49.2342        0.0023       59.0127       59.0150       9.780759       0.00000
  46    0.1487       49.2340        0.0032       59.0115       59.0147       9.780759      -0.00000
  45    0.1794       49.2336        0.0045       59.0099       59.0144       9.780759       0.00000
  44    0.2165       49.2332        0.0059       59.0080       59.0140       9.780759       0.00000
  43    0.2613       49.2327        0.0077       59.0058       59.0135       9.780759       0.00000
  42    0.3336       49.2320        0.0105       59.0022       59.0127       9.780759       0.00000
  41    0.4307       49.2309        0.0144       58.9973       59.0117       9.780759       0.00000
  40    0.5894       49.2292        0.0206       58.9894       59.0099       9.780759       0.00000
  39     1.339       49.2211        0.0501       58.9518       59.0018       9.780759      -0.00000
  38     1.782       49.2163        0.0674       58.9297       58.9971       9.780759       0.00000
  37     2.292       49.2108        0.0874       58.9042       58.9916       9.780759      -0.00000
  36     2.964       49.2036        0.1137       58.8706       58.9843       9.780759      -0.00000
  35     3.853       49.1940        0.1484       58.8264       58.9748       9.780759       0.00000
  34     5.035       49.1813        0.1945       58.7676       58.9621       9.780759      -0.00000
  33     6.613       49.1644        0.2561       58.6891       58.9452       9.780759       0.00000
  32     8.786       49.1416        0.3389       58.5834       58.9223       9.780759       0.00000
  31     11.80       49.1089        0.4573       58.4324       58.8897       9.780759      -0.00000
  30     15.07       49.0739        0.5841       58.2706       58.8547       9.780759       0.00000
  29     18.79       49.0345        0.7270       58.0882       58.8152       9.780759      -0.00000
  28     23.16       48.9884        0.8935       57.8757       58.7692       9.780759       0.00000
  27     28.12       48.9358        1.0832       57.6333       58.7166       9.780759       0.00000
  26     33.73       48.8771        1.2948       57.3631       58.6579       9.780759       0.00000
  25     40.54       48.8064        1.5493       57.0379       58.5871       9.780759      -0.00000
  24     48.69       48.7214        1.8543       56.6479       58.5021       9.780759       0.00000
  23     57.69       48.6284        2.1871       56.2221       58.4092       9.780759       0.00000
  22     68.43       48.5182        2.5804       55.7186       58.2989       9.780759      -0.00000
  21     81.20       48.3876        3.0444       55.1239       58.1684       9.780759       0.00000
  20     96.49       48.2331        3.5911       54.4228       58.0139       9.780759      -0.00000
  19     114.6       48.0513        4.2310       53.6010       57.8320       9.780759       0.00000
  18     136.5       47.8379        4.9769       52.6418       57.6187       9.780759       0.00000
  17     162.9       47.5870        5.8474       51.5203       57.3677       9.780759       0.00000
  16     196.4       47.2665        6.9478       50.0994       57.0473       9.780759      -0.00000
  15     218.7       47.0590        7.6535       49.1863       56.8398       9.780759       0.00000
  14     243.0       46.8361        8.4056       48.2113       56.6169       9.780759       0.00000
  13     269.0       46.5975        9.2033       47.1749       56.3783       9.780759       0.00000
  12     297.5       46.3431       10.0456       46.0783       56.1238       9.780759      -0.00000
  11     328.5       46.0720       10.9332       44.9195       55.8528       9.780759       0.00000
  10     361.9       45.7845       11.8634       43.7018       55.5652       9.780759       0.00000
   9     398.1       45.4799       12.8357       42.4250       55.2607       9.780759       0.00000
   8     437.6       45.1583       13.8474       41.0916       54.9390       9.780759      -0.00000
   7     480.5       44.8195       14.8958       39.7045       54.6003       9.780759       0.00000
   6     533.0       44.4106       16.1371       38.0543       54.1913       9.780759       0.00000
   5     589.8       43.9791       17.4168       36.3431       53.7599       9.780759       0.00000
   4     651.6       43.5258       18.7270       34.5795       53.3065       9.780759      -0.00000
   3     718.7       43.0504       20.0609       32.7702       52.8311       9.780759      -0.00000
   2     792.3       42.5538       21.4090       30.9256       52.3346       9.780759       0.00000
   1     891.5       37.4972       32.5201       14.7578       47.2779       9.780704       0.00000
   0    1013.0       36.9430       33.3144       13.4093       46.7237       9.780704       0.00000



 Wavenumbers: 29000. - 38000. cm-1, ATM      1
 LEVEL PRESSURE   UPWARD FLUX   DIFDOWN FLUX  DIRDOWN FLUX  DOWNWARD FLUX   NET FLUX    HEATING RATE
          mb          W/m2          W/m2          W/m2        W/m2          W/m2       degree/day
  51    .06700        7.5236        0.0000       20.8114       20.8114      13.287749       0.00000
  50    .07753        7.5234        0.0003       20.8070       20.8074      13.283944       3.05025
  49    .09103        7.5232        0.0007       20.8009       20.8016      13.278409       3.45936
  48    0.1069        7.5229        0.0012       20.7928       20.7939      13.271002       3.94256
  47    0.1255        7.5226        0.0017       20.7820       20.7837      13.261102       4.48834
  46    0.1487        7.5222        0.0023       20.7665       20.7688      13.246545       5.30603
  45    0.1794        7.5217        0.0032       20.7424       20.7456      13.223891       6.21916
  44    0.2165        7.5212        0.0042       20.7103       20.7146      13.193383       6.94011
  43    0.2613        7.5206        0.0055       20.6675       20.6730      13.152408       7.72355
  42    0.3336        7.5196        0.0075       20.5880       20.5955      13.075886       8.92172
  41    0.4307        7.5184        0.0101       20.4722       20.4823      12.963993       9.72883
  40    0.5894        7.5166        0.0143       20.2637       20.2780      12.761426      10.77226
  39     1.339        7.5117        0.0322       19.0984       19.1306      11.618834      12.86351
  38     1.782        7.5112        0.0415       18.4394       18.4808      10.969658      12.35927
  37     2.292        7.5124        0.0514       17.7714       17.8228      10.310375      10.91944
  36     2.964        7.5168        0.0636       17.0421       17.1057       9.588942       9.05617
  35     3.853        7.5263        0.0789       16.2678       16.3467       8.820408       7.29352
  34     5.035        7.5427        0.0982       15.4803       15.5785       8.035821       5.60476
  33     6.613        7.5669        0.1228       14.7157       14.8385       7.271641       4.08531
  32     8.786        7.5989        0.1551       13.9936       14.1486       6.549732       2.80363
  31     11.80        7.6404        0.1999       13.2835       13.4835       5.843030       1.97854
  30     15.07        7.6801        0.2464       12.7394       12.9857       5.305609       1.38752
  29     18.79        7.7207        0.2977       12.2666       12.5643       4.843622       1.04747
  28     23.16        7.7634        0.3561       11.8300       12.1861       4.422668       0.81399
  27     28.12        7.8066        0.4213       11.4279       11.8492       4.042612       0.64607
  26     33.73        7.8452        0.4931       11.0695       11.5626       3.717415       0.48894
  25     40.54        7.8799        0.5788       10.7209       11.2997       3.419777       0.36925
  24     48.69        7.9104        0.6803       10.3742       11.0545       3.144021       0.28536
  23     57.69        7.9326        0.7899       10.0549       10.8448       2.912217       0.21728
  22     68.43        7.9462        0.9184        9.7327       10.6511       2.704871       0.16300
  21     81.20        7.9431        1.0698        9.4134       10.4832       2.540118       0.10887
  20     96.49        7.9210        1.2474        9.0887       10.3361       2.415133       0.06898
  19     114.6        7.8867        1.4521        8.7388       10.1909       2.304269       0.05177
  18     136.5        7.8421        1.6855        8.3549       10.0404       2.198305       0.04075
  17     162.9        7.7865        1.9504        7.9311        9.8815       2.095009       0.03302
  16     196.4        7.7058        2.2770        7.4333        9.7103       2.004559       0.02277
  15     218.7        7.6504        2.4815        7.1295        9.6111       1.960649       0.01667
  14     243.0        7.5903        2.6944        6.8161        9.5105       1.920254       0.01401
  13     269.0        7.5250        2.9148        6.4943        9.4092       1.884128       0.01172
  12     297.5        7.4548        3.1414        6.1657        9.3072       1.852417       0.00941
  11     328.5        7.3805        3.3732        5.8295        9.2027       1.822195       0.00822
  10     361.9        7.3026        3.6075        5.4886        9.0962       1.793596       0.00724
   9     398.1        7.2210        3.8436        5.1440        8.9876       1.766640       0.00628
   8     437.6        7.1361        4.0799        4.7969        8.8769       1.740806       0.00552
   7     480.5        7.0480        4.3141        4.4504        8.7645       1.716438       0.00479
   6     533.0        6.9436        4.5774        4.0563        8.6337       1.690070       0.00424
   5     589.8        6.8360        4.8326        3.6682        8.5008       1.664759       0.00376
   4     651.6        6.7258        5.0755        3.2905        8.3660       1.640227       0.00335
   3     718.7        6.6130        5.3043        2.9252        8.2295       1.616447       0.00299
   2     792.3        6.4983        5.5153        2.5764        8.0917       1.593430       0.00264
   1     891.5        5.8288        6.2768        1.1185        7.3953       1.566551       0.00229
   0    1013.0        5.6948        6.3283        0.9051        7.2333       1.538507       0.00195



 Wavenumbers: 38000. - 50000. cm-1, ATM      1
 LEVEL PRESSURE   UPWARD FLUX   DIFDOWN FLUX  DIRDOWN FLUX  DOWNWARD FLUX   NET FLUX    HEATING RATE
          mb          W/m2          W/m2          W/m2        W/m2          W/m2       degree/day
  51    .06700        0.0061        0.0000        1.2836        1.2836       1.277518       0.00000
  50    .07753        0.0061        0.0001        1.2812        1.2812       1.275183       1.87150
  49    .09103        0.0060        0.0002        1.2777        1.2778       1.271851       2.08247
  48    0.1069        0.0059        0.0002        1.2731        1.2734       1.267473       2.33059
  47    0.1255        0.0058        0.0004        1.2672        1.2675       1.261717       2.60908
  46    0.1487        0.0057        0.0005        1.2586        1.2591       1.253391       3.03499
  45    0.1794        0.0055        0.0007        1.2455        1.2462       1.240623       3.50520
  44    0.2165        0.0054        0.0009        1.2282        1.2291       1.223697       3.85037
  43    0.2613        0.0052        0.0011        1.2054        1.2065       1.201348       4.21261
  42    0.3336        0.0049        0.0015        1.1639        1.1654       1.160524       4.75970
  41    0.4307        0.0045        0.0020        1.1051        1.1070       1.102565       5.03943
  40    0.5894        0.0039        0.0026        1.0039        1.0064       1.002524       5.32007
  39     1.339        0.0022        0.0035        0.5438        0.5473       0.545104       5.14971
  38     1.782        0.0016        0.0032        0.3635        0.3666       0.365006       3.42879
  37     2.292        0.0012        0.0027        0.2356        0.2383       0.237058       2.11916
  36     2.964        0.0009        0.0022        0.1455        0.1477       0.146786       1.13318
  35     3.853        0.0006        0.0017        0.0858        0.0875       0.086906       0.56828
  34     5.035        0.0004        0.0013        0.0488        0.0501       0.049701       0.26578
  33     6.613        0.0003        0.0010        0.0273        0.0282       0.027974       0.11615
  32     8.786        0.0002        0.0007        0.0144        0.0151       0.014928       0.05067
  31     11.80        0.0001        0.0004        0.0065        0.0070       0.006903       0.02247
  30     15.07        0.0000        0.0003        0.0031        0.0034       0.003329       0.00923
  29     18.79        0.0000        0.0002        0.0014        0.0016       0.001583       0.00396
  28     23.16        0.0000        0.0001        0.0006        0.0007       0.000720       0.00167
  27     28.12        0.0000        0.0001        0.0003        0.0003       0.000317       0.00069
  26     33.73        0.0000        0.0000        0.0001        0.0001       0.000140       0.00027
  25     40.54        0.0000        0.0000        0.0000        0.0001       0.000057       0.00010
  24     48.69        0.0000        0.0000        0.0000        0.0000       0.000021       0.00004
  23     57.69        0.0000        0.0000        0.0000        0.0000       0.000008       0.00001
  22     68.43        0.0000        0.0000        0.0000        0.0000       0.000003       0.00000
  21     81.20        0.0000        0.0000        0.0000        0.0000       0.000001       0.00000
  20     96.49        0.0000        0.0000        0.0000        0.0000       0.000000       0.00000
  19     114.6        0.0000        0.0000        0.0000        0.0000       0.000000       0.00000
  18     136.5        0.0000        0.0000        0.0000        0.0000       0.000000       0.00000
  17     162.9        0.0000        0.0000        0.0000        0.0000       0.000000       0.00000
  16     196.4        0.0000        0.0000        0.0000        0.0000       0.000000       0.00000
  15     218.7        0.0000        0.0000        0.0000        0.0000       0.000000       0.00000
  14     243.0        0.0000        0.0000        0.0000        0.0000       0.000000       0.00000
  13     269.0        0.0000        0.0000        0.0000        0.0000       0.000000       0.00000
  12     297.5        0.0000        0.0000        0.0000        0.0000       0.000000       0.00000
  11     328.5        0.0000        0.0000        0.0000        0.0000       0.000000       0.00000
  10     361.9        0.0000        0.0000        0.0000        0.0000       0.000000       0.00000
   9     398.1        0.0000        0.0000        0.0000        0.0000       0.000000       0.00000
   8     437.6        0.0000        0.0000        0.0000        0.0000       0.000000       0.00000
   7     480.5        0.0000        0.0000        0.0000        0.0000       0.000000       0.00000
   6     533.0        0.0000        0.0000        0.0000        0.0000       0.000000       0.00000
   5     589.8        0.0000        0.0000        0.0000        0.0000       0.000000       0.00000
   4     651.6        0.0000        0.0000        0.0000        0.0000       0.000000       0.00000
   3     718.7        0.0000        0.0000        0.0000        0.0000       0.000000       0.00000
   2     792.3        0.0000        0.0000        0.0000        0.0000       0.000000       0.00000
   1     891.5        0.0000        0.0000        0.0000        0.0000       0.000000       0.00000
   0    1013.0        0.0000        0.0000        0.0000        0.0000       0.000000       0.00000



 Wavenumbers:   820. -  2600. cm-1, ATM      1
 LEVEL PRESSURE   UPWARD FLUX   DIFDOWN FLUX  DIRDOWN FLUX  DOWNWARD FLUX   NET FLUX    HEATING RATE
          mb          W/m2          W/m2          W/m2        W/m2          W/m2       degree/day
  51    .06700        0.6281        0.0000        6.0047        6.0047       5.376514       0.00000
  50    .07753        0.6281        0.0000        6.0008        6.0008       5.372662       3.08821
  49    .09103        0.6281        0.0000        5.9999        5.9999       5.371776       0.55358
  48    0.1069        0.6281        0.0000        5.9989        5.9989       5.370787       0.52652
  47    0.1255        0.6281        0.0000        5.9978        5.9978       5.369669       0.50649
  46    0.1487        0.6281        0.0000        5.9964        5.9964       5.368313       0.49457
  45    0.1794        0.6281        0.0000        5.9947        5.9947       5.366593       0.47200
  44    0.2165        0.6281        0.0000        5.9929        5.9929       5.364751       0.41910
  43    0.2613        0.6281        0.0000        5.9909        5.9909       5.362792       0.36933
  42    0.3336        0.6281        0.0000        5.9880        5.9880       5.359914       0.33556
  41    0.4307        0.6281        0.0000        5.9846        5.9846       5.356444       0.30165
  40    0.5894        0.6281        0.0000        5.9791        5.9791       5.350939       0.29276
  39     1.339        0.6281        0.0000        5.9536        5.9536       5.325452       0.28694
  38     1.782        0.6281        0.0000        5.9395        5.9395       5.311314       0.26917
  37     2.292        0.6281        0.0000        5.9237        5.9237       5.295563       0.26088
  36     2.964        0.6281        0.0000        5.9039        5.9039       5.275789       0.24822
  35     3.853        0.6281        0.0000        5.8793        5.8793       5.251132       0.23399
  34     5.035        0.6282        0.0000        5.8487        5.8487       5.220569       0.21833
  33     6.613        0.6282        0.0000        5.8108        5.8108       5.182604       0.20296
  32     8.786        0.6282        0.0000        5.7631        5.7631       5.134980       0.18495
  31     11.80        0.6282        0.0000        5.7039        5.7039       5.075722       0.16590
  30     15.07        0.6282        0.0000        5.6539        5.6539       5.025682       0.12920
  29     18.79        0.6282        0.0000        5.6127        5.6127       4.984543       0.09327
  28     23.16        0.6282        0.0000        5.5794        5.5794       4.951163       0.06455
  27     28.12        0.6282        0.0000        5.5518        5.5518       4.923590       0.04687
  26     33.73        0.6282        0.0000        5.5268        5.5268       4.898529       0.03768
  25     40.54        0.6283        0.0000        5.4993        5.4993       4.871074       0.03406
  24     48.69        0.6283        0.0000        5.4678        5.4678       4.839517       0.03266
  23     57.69        0.6283        0.0000        5.4340        5.4340       4.805709       0.03169
  22     68.43        0.6283        0.0000        5.3947        5.3948       4.766411       0.03089
  21     81.20        0.6284        0.0000        5.3497        5.3497       4.721347       0.02978
  20     96.49        0.6284        0.0000        5.2982        5.2982       4.669794       0.02845
  19     114.6        0.6285        0.0000        5.2389        5.2389       4.610422       0.02772
  18     136.5        0.6286        0.0000        5.1716        5.1717       4.543102       0.02589
  17     162.9        0.6287        0.0000        5.0890        5.0890       4.460378       0.02644
  16     196.4        0.6289        0.0000        4.9668        4.9668       4.337979       0.03081
  15     218.7        0.6290        0.0000        4.8585        4.8585       4.229438       0.04121
  14     243.0        0.6293        0.0000        4.7078        4.7079       4.078531       0.05234
  13     269.0        0.6298        0.0000        4.5343        4.5343       3.904515       0.05645
  12     297.5        0.6305        0.0000        4.3419        4.3420       3.711494       0.05725
  11     328.5        0.6314        0.0000        4.1281        4.1281       3.496723       0.05840
  10     361.9        0.6327        0.0000        3.8786        3.8787       3.245992       0.06344
   9     398.1        0.6343        0.0000        3.6159        3.6159       2.981620       0.06159
   8     437.6        0.6365        0.0000        3.3759        3.3759       2.739422       0.05178
   7     480.5        0.6391        0.0000        3.1957        3.1958       2.556692       0.03589
   6     533.0        0.6431        0.0000        3.0467        3.0467       2.403607       0.02463
   5     589.8        0.6490        0.0000        2.9023        2.9023       2.253291       0.02231
   4     651.6        0.6594        0.0000        2.7183        2.7184       2.058949       0.02658
   3     718.7        0.6773        0.0000        2.5058        2.5059       1.828542       0.02896
   2     792.3        0.7110        0.0000        2.2756        2.2757       1.564636       0.03027
   1     891.5        0.2874        0.5136        1.0135        1.5271       1.239670       0.02765
   0    1013.0        0.3477        0.4151        0.7990        1.2141       0.866307       0.02592

  Modules and versions used in this calculation:

       rrtmg_sw.1col.f90:  $Revision$                    rrtmg_sw_init.f90:  $Revision$        
     rrtmgsw_cldprop.f90:  $Revision$                  rrtmgsw_cldprmc.f90:  NOT USED          
     rrtmg_sw_reftra.f90:  $Revision$                  rrtmg_sw_spcvrt.f90:  NOT USED          
     rrtmg_sw_spcvmc.f90:  NOT USED                    rrtmgsw_setcoef.f90:  NOT USED          
     rrtmg_sw_taumol.f90:  $Revision$                  rrtmg_sw_vrtqdr.f90:  NOT USED          
                rrtatm.f:  NOT USED                             util_xxx.f:  NOT USED          
                 extra.f:  NOT USED                       rrtmg_sw_k_g.f90:  $Revision$        

