

 Wavenumbers:   820. - 50000. cm-1, ATM      1
 LEVEL PRESSURE   UPWARD FLUX   DIFDOWN FLUX  DIRDOWN FLUX  DOWNWARD FLUX   NET FLUX    HEATING RATE
          mb          W/m2          W/m2          W/m2        W/m2          W/m2       degree/day
  51    .06700      393.1221        0.0000      617.8126      617.8126     224.690459       0.00000
  50    .07753      393.1217        0.0013      617.7947      617.7960     224.674327      12.92962
  49    .09103      393.1212        0.0029      617.7778      617.7807     224.659530       9.24855
  48    0.1069      393.1206        0.0048      617.7581      617.7629     224.642286       9.17921
  47    0.1255      393.1200        0.0070      617.7340      617.7410     224.620965       9.66612
  46    0.1487      393.1193        0.0097      617.7009      617.7106     224.591314      10.80813
  45    0.1794      393.1184        0.0134      617.6521      617.6655     224.547137      12.12748
  44    0.2165      393.1174        0.0178      617.5895      617.6073     224.489890      13.02266
  43    0.2613      393.1164        0.0230      617.5089      617.5319     224.415479      14.02617
  42    0.3336      393.1151        0.0315      617.3641      617.3956     224.280589      15.72690
  41    0.4307      393.1136        0.0428      617.1591      617.2019     224.088260      16.72252
  40    0.5894      393.1122        0.0609      616.8005      616.8614     223.749135      18.03424
  39     1.339      393.1222        0.1427      614.9443      615.0869     221.964755      20.08888
  38     1.782      393.1395        0.1886      613.9670      614.1556     221.016114      18.06059
  37     2.292      393.1700        0.2408      613.0059      613.2467     220.076739      15.55850
  36     2.964      393.2256        0.3087      611.9577      612.2664     219.040743      13.00489
  35     3.853      393.3209        0.3977      610.8024      611.2001     217.879184      11.02340
  34     5.035      393.4689        0.5151      609.5327      610.0478     216.578881       9.28883
  33     6.613      393.6781        0.6708      608.1464      608.8173     215.139198       7.69655
  32     8.786      393.9502        0.8798      606.6250      607.5048     213.554615       6.15395
  31     11.80      394.3007        1.1772      604.8486      606.0258     211.725072       5.12214
  30     15.07      394.6320        1.4944      603.2440      604.7383     210.106366       4.17918
  29     18.79      394.9658        1.8512      601.6511      603.5024     208.536522       3.55932
  28     23.16      395.3094        2.2657      599.9927      602.2584     206.949075       3.06961
  27     28.12      395.6478        2.7374      598.2881      601.0254     205.377659       2.67130
  26     33.73      395.9468        3.2630      596.5951      599.8581     203.911276       2.20475
  25     40.54      396.2154        3.8957      594.7727      598.6684     202.453047       1.80910
  24     48.69      396.4492        4.6546      592.7865      597.4411     200.991883       1.51208
  23     57.69      396.6190        5.4839      590.7959      596.2798     199.660796       1.24769
  22     68.43      396.7267        6.4659      588.6191      595.0850     198.358356       1.02389
  21     81.20      396.7235        7.6297      586.2690      593.8987     197.175140       0.78185
  20     96.49      396.5981        9.0070      583.6961      592.7031     196.104913       0.59069
  19     114.6      396.3989       10.6261      580.7708      591.3969     194.997971       0.51686
  18     136.5      396.1237       12.5205      577.4359      589.9564     193.832757       0.44805
  17     162.9      395.7630       14.7418      573.5624      588.3043     192.541236       0.41282
  16     196.4      395.2190       17.5715      568.5907      586.1622     190.943192       0.40225
  15     218.7      394.8375       19.3991      565.0572      584.4563     189.618791       0.50283
  14     243.0      394.4172       21.3577      560.7495      582.1073     187.690122       0.66893
  13     269.0      393.9591       23.4483      555.3947      578.8429     184.883897       0.91033
  12     297.5      393.4686       25.6708      548.9964      574.6672     181.198615       1.09301
  11     328.5      392.9541       28.0310      542.0895      570.1206     177.166524       1.09631
  10     361.9      392.4232       30.5248      534.6242      565.1490     172.725759       1.12356
   9     398.1      391.8863       33.1556      526.4204      559.5760     167.689713       1.17329
   8     437.6      391.3647       35.9216      517.3907      553.3122     161.947482       1.22772
   7     480.5      390.8816       38.8199      507.7216      546.5415     155.659843       1.23487
   6     533.0      390.4290       42.2976      495.9006      538.1982     147.769246       1.26935
   5     589.8      390.2004       45.9382      483.0788      529.0170     138.816621       1.32886
   4     651.6      390.4950       49.7273      468.6907      518.4180     127.923035       1.48973
   3     718.7      391.7394       53.6557      453.2257      506.8814     115.141967       1.60623
   2     792.3      395.0725       57.6998      436.4928      494.1926      99.120154       1.83752
   1     891.5      125.1951      211.1872        0.5586      211.7458      86.550634       1.06961
   0    1013.0      125.6679      206.0905        0.5242      206.6147      80.946786       0.38910



 Wavenumbers:  2600. -  3250. cm-1, ATM      1
 LEVEL PRESSURE   UPWARD FLUX   DIFDOWN FLUX  DIRDOWN FLUX  DOWNWARD FLUX   NET FLUX    HEATING RATE
          mb          W/m2          W/m2          W/m2        W/m2          W/m2       degree/day
  51    .06700        1.7541        0.0000        5.4450        5.4450       3.690900       0.00000
  50    .07753        1.7541        0.0000        5.4450        5.4450       3.690892       0.00640
  49    .09103        1.7541        0.0000        5.4450        5.4450       3.690882       0.00627
  48    0.1069        1.7541        0.0000        5.4450        5.4450       3.690870       0.00613
  47    0.1255        1.7541        0.0000        5.4450        5.4450       3.690857       0.00599
  46    0.1487        1.7541        0.0000        5.4450        5.4450       3.690840       0.00608
  45    0.1794        1.7541        0.0000        5.4450        5.4450       3.690817       0.00625
  44    0.2165        1.7541        0.0000        5.4449        5.4449       3.690790       0.00612
  43    0.2613        1.7541        0.0000        5.4449        5.4449       3.690759       0.00600
  42    0.3336        1.7541        0.0000        5.4448        5.4448       3.690706       0.00617
  41    0.4307        1.7541        0.0000        5.4448        5.4448       3.690634       0.00620
  40    0.5894        1.7541        0.0000        5.4446        5.4446       3.690515       0.00637
  39     1.339        1.7541        0.0000        5.4439        5.4439       3.689807       0.00797
  38     1.782        1.7541        0.0000        5.4434        5.4434       3.689264       0.01034
  37     2.292        1.7541        0.0000        5.4427        5.4427       3.688548       0.01186
  36     2.964        1.7541        0.0000        5.4416        5.4416       3.687509       0.01304
  35     3.853        1.7541        0.0000        5.4402        5.4402       3.686032       0.01402
  34     5.035        1.7541        0.0000        5.4381        5.4381       3.683976       0.01469
  33     6.613        1.7541        0.0000        5.4353        5.4353       3.681195       0.01487
  32     8.786        1.7541        0.0000        5.4317        5.4317       3.677562       0.01411
  31     11.80        1.7541        0.0000        5.4269        5.4269       3.672780       0.01339
  30     15.07        1.7541        0.0000        5.4224        5.4224       3.668251       0.01169
  29     18.79        1.7541        0.0000        5.4180        5.4180       3.663835       0.01001
  28     23.16        1.7541        0.0000        5.4135        5.4135       3.659344       0.00868
  27     28.12        1.7542        0.0000        5.4088        5.4088       3.654689       0.00791
  26     33.73        1.7542        0.0000        5.4036        5.4036       3.649437       0.00790
  25     40.54        1.7542        0.0000        5.3966        5.3967       3.642479       0.00863
  24     48.69        1.7542        0.0000        5.3872        5.3872       3.632976       0.00983
  23     57.69        1.7542        0.0000        5.3754        5.3754       3.621156       0.01108
  22     68.43        1.7543        0.0000        5.3599        5.3599       3.605617       0.01222
  21     81.20        1.7544        0.0000        5.3401        5.3401       3.585709       0.01315
  20     96.49        1.7545        0.0000        5.3155        5.3155       3.561038       0.01362
  19     114.6        1.7547        0.0001        5.2853        5.2854       3.530697       0.01417
  18     136.5        1.7549        0.0001        5.2504        5.2505       3.495586       0.01350
  17     162.9        1.7552        0.0001        5.2111        5.2112       3.455950       0.01267
  16     196.4        1.7557        0.0001        5.1640        5.1641       3.408370       0.01198
  15     218.7        1.7563        0.0001        5.1331        5.1332       3.376915       0.01194
  14     243.0        1.7572        0.0001        5.0962        5.0963       3.339138       0.01310
  13     269.0        1.7586        0.0001        5.0511        5.0512       3.292643       0.01508
  12     297.5        1.7607        0.0001        4.9956        4.9957       3.235070       0.01708
  11     328.5        1.7636        0.0001        4.9304        4.9305       3.166913       0.01853
  10     361.9        1.7676        0.0001        4.8511        4.8512       3.083606       0.02108
   9     398.1        1.7732        0.0002        4.7507        4.7508       2.977602       0.02470
   8     437.6        1.7811        0.0002        4.6220        4.6222       2.841162       0.02917
   7     480.5        1.7919        0.0002        4.4625        4.4627       2.670754       0.03347
   6     533.0        1.8097        0.0002        4.2460        4.2462       2.436552       0.03768
   5     589.8        1.8370        0.0002        3.9954        3.9956       2.158654       0.04125
   4     651.6        1.8823        0.0002        3.7089        3.7091       1.826749       0.04539
   3     718.7        1.9581        0.0002        3.4018        3.4020       1.443936       0.04811
   2     792.3        2.0980        0.0002        3.0564        3.0567       0.958686       0.05565
   1     891.5        0.1331        0.7215        0.0035        0.7250       0.591826       0.03122
   0    1013.0        0.1525        0.6049        0.0028        0.6078       0.455244       0.00948



 Wavenumbers:  3250. -  4000. cm-1, ATM      1
 LEVEL PRESSURE   UPWARD FLUX   DIFDOWN FLUX  DIRDOWN FLUX  DOWNWARD FLUX   NET FLUX    HEATING RATE
          mb          W/m2          W/m2          W/m2        W/m2          W/m2       degree/day
  51    .06700        0.0566        0.0000        9.1795        9.1795       9.122937       0.00000
  50    .07753        0.0566        0.0000        9.1747        9.1747       9.118095       3.88148
  49    .09103        0.0566        0.0000        9.1713        9.1713       9.114707       2.11747
  48    0.1069        0.0566        0.0000        9.1688        9.1688       9.112182       1.34402
  47    0.1255        0.0566        0.0000        9.1665        9.1665       9.109923       1.02422
  46    0.1487        0.0566        0.0000        9.1641        9.1641       9.107481       0.88991
  45    0.1794        0.0566        0.0000        9.1612        9.1612       9.104603       0.79008
  44    0.2165        0.0566        0.0000        9.1583        9.1583       9.101683       0.66430
  43    0.2613        0.0566        0.0000        9.1553        9.1553       9.098710       0.56041
  42    0.3336        0.0566        0.0000        9.1511        9.1511       9.094531       0.48723
  41    0.4307        0.0566        0.0000        9.1464        9.1464       9.089763       0.41459
  40    0.5894        0.0566        0.0000        9.1393        9.1394       9.082757       0.37255
  39     1.339        0.0566        0.0000        9.1127        9.1127       9.056144       0.29962
  38     1.782        0.0566        0.0000        9.1011        9.1011       9.044555       0.22062
  37     2.292        0.0566        0.0000        9.0901        9.0901       9.033489       0.18329
  36     2.964        0.0566        0.0000        9.0776        9.0776       9.021059       0.15603
  35     3.853        0.0566        0.0000        9.0629        9.0629       9.006269       0.14036
  34     5.035        0.0566        0.0000        9.0441        9.0441       8.987530       0.13386
  33     6.613        0.0566        0.0000        9.0191        9.0191       8.962528       0.13366
  32     8.786        0.0566        0.0000        8.9843        8.9843       8.927745       0.13509
  31     11.80        0.0566        0.0000        8.9327        8.9327       8.876128       0.14451
  30     15.07        0.0566        0.0000        8.8758        8.8759       8.819283       0.14676
  29     18.79        0.0566        0.0000        8.8110        8.8110       8.754456       0.14698
  28     23.16        0.0566        0.0000        8.7365        8.7366       8.680011       0.14395
  27     28.12        0.0566        0.0000        8.6554        8.6555       8.598898       0.13789
  26     33.73        0.0565        0.0000        8.5719        8.5719       8.515398       0.12554
  25     40.54        0.0565        0.0001        8.4812        8.4812       8.424675       0.11255
  24     48.69        0.0565        0.0001        8.3838        8.3839       8.327373       0.10069
  23     57.69        0.0565        0.0001        8.2861        8.2862       8.229638       0.09161
  22     68.43        0.0565        0.0001        8.1751        8.1751       8.118641       0.08726
  21     81.20        0.0565        0.0001        8.0457        8.0458       7.989283       0.08548
  20     96.49        0.0565        0.0001        7.8949        7.8951       7.838579       0.08318
  19     114.6        0.0564        0.0001        7.7162        7.7163       7.659869       0.08344
  18     136.5        0.0564        0.0002        7.5193        7.5195       7.463025       0.07569
  17     162.9        0.0564        0.0002        7.2913        7.2915       7.235132       0.07284
  16     196.4        0.0564        0.0002        6.9660        6.9662       6.909855       0.08188
  15     218.7        0.0564        0.0002        6.6648        6.6650       6.608657       0.11435
  14     243.0        0.0564        0.0002        6.2619        6.2622       6.205839       0.13971
  13     269.0        0.0564        0.0003        5.7576        5.7579       5.701482       0.16361
  12     297.5        0.0565        0.0003        5.1719        5.1722       5.115668       0.17375
  11     328.5        0.0567        0.0002        4.5757        4.5760       4.519294       0.16215
  10     361.9        0.0570        0.0002        3.9995        3.9998       3.942764       0.14587
   9     398.1        0.0576        0.0002        3.4655        3.4657       3.408125       0.12456
   8     437.6        0.0585        0.0002        2.9740        2.9743       2.915710       0.10528
   7     480.5        0.0601        0.0002        2.5307        2.5309       2.470771       0.08738
   6     533.0        0.0631        0.0002        2.0614        2.0616       1.998453       0.07598
   5     589.8        0.0686        0.0002        1.6150        1.6151       1.546502       0.06708
   4     651.6        0.0802        0.0001        1.1565        1.1566       1.076420       0.06428
   3     718.7        0.1056        0.0001        0.7390        0.7391       0.633487       0.05566
   2     792.3        0.1736        0.0001        0.3985        0.3985       0.224951       0.04685
   1     891.5        0.0001        0.0218        0.0002        0.0219       0.021881       0.01728
   0    1013.0        0.0006        0.0023        0.0000        0.0023       0.001701       0.00140



 Wavenumbers:  4000. -  4650. cm-1, ATM      1
 LEVEL PRESSURE   UPWARD FLUX   DIFDOWN FLUX  DIRDOWN FLUX  DOWNWARD FLUX   NET FLUX    HEATING RATE
          mb          W/m2          W/m2          W/m2        W/m2          W/m2       degree/day
  51    .06700        5.6688        0.0000       10.7795       10.7795       5.110749       0.00000
  50    .07753        5.6688        0.0000       10.7795       10.7795       5.110748       0.00080
  49    .09103        5.6688        0.0000       10.7795       10.7795       5.110747       0.00078
  48    0.1069        5.6688        0.0000       10.7795       10.7795       5.110745       0.00077
  47    0.1255        5.6688        0.0000       10.7795       10.7795       5.110743       0.00075
  46    0.1487        5.6688        0.0000       10.7795       10.7795       5.110741       0.00076
  45    0.1794        5.6688        0.0000       10.7795       10.7795       5.110738       0.00078
  44    0.2165        5.6688        0.0000       10.7795       10.7795       5.110735       0.00076
  43    0.2613        5.6688        0.0000       10.7795       10.7795       5.110731       0.00075
  42    0.3336        5.6688        0.0000       10.7795       10.7795       5.110725       0.00077
  41    0.4307        5.6688        0.0000       10.7795       10.7795       5.110716       0.00077
  40    0.5894        5.6688        0.0000       10.7795       10.7795       5.110701       0.00080
  39     1.339        5.6688        0.0000       10.7794       10.7794       5.110611       0.00101
  38     1.782        5.6688        0.0000       10.7793       10.7793       5.110541       0.00133
  37     2.292        5.6688        0.0000       10.7792       10.7792       5.110447       0.00156
  36     2.964        5.6688        0.0000       10.7791       10.7791       5.110306       0.00177
  35     3.853        5.6688        0.0000       10.7789       10.7789       5.110098       0.00198
  34     5.035        5.6688        0.0000       10.7786       10.7786       5.109790       0.00220
  33     6.613        5.6688        0.0000       10.7781       10.7781       5.109338       0.00242
  32     8.786        5.6688        0.0000       10.7774       10.7775       5.108669       0.00260
  31     11.80        5.6688        0.0001       10.7763       10.7764       5.107618       0.00294
  30     15.07        5.6688        0.0001       10.7751       10.7752       5.106384       0.00318
  29     18.79        5.6688        0.0001       10.7736       10.7737       5.104891       0.00338
  28     23.16        5.6688        0.0001       10.7717       10.7718       5.103037       0.00359
  27     28.12        5.6688        0.0001       10.7695       10.7696       5.100790       0.00382
  26     33.73        5.6688        0.0002       10.7667       10.7668       5.098018       0.00417
  25     40.54        5.6689        0.0002       10.7629       10.7631       5.094254       0.00467
  24     48.69        5.6689        0.0002       10.7579       10.7581       5.089233       0.00520
  23     57.69        5.6690        0.0003       10.7520       10.7523       5.083274       0.00559
  22     68.43        5.6691        0.0003       10.7446       10.7449       5.075795       0.00588
  21     81.20        5.6693        0.0004       10.7355       10.7359       5.066570       0.00610
  20     96.49        5.6696        0.0005       10.7245       10.7249       5.055325       0.00621
  19     114.6        5.6700        0.0005       10.7107       10.7113       5.041233       0.00658
  18     136.5        5.6706        0.0006       10.6942       10.6948       5.024215       0.00654
  17     162.9        5.6715        0.0008       10.6740       10.6748       5.003290       0.00669
  16     196.4        5.6730        0.0009       10.6464       10.6473       4.974315       0.00729
  15     218.7        5.6743        0.0010       10.6255       10.6265       4.952200       0.00840
  14     243.0        5.6762        0.0011       10.5980       10.5992       4.922992       0.01013
  13     269.0        5.6790        0.0013       10.5611       10.5624       4.883321       0.01287
  12     297.5        5.6832        0.0014       10.5119       10.5133       4.830164       0.01577
  11     328.5        5.6889        0.0015       10.4499       10.4514       4.762551       0.01838
  10     361.9        5.6963        0.0017       10.3702       10.3719       4.675541       0.02201
   9     398.1        5.7057        0.0018       10.2678       10.2696       4.563899       0.02601
   8     437.6        5.7178        0.0020       10.1390       10.1410       4.423226       0.03008
   7     480.5        5.7333        0.0022        9.9877        9.9899       4.256598       0.03273
   6     533.0        5.7573        0.0024        9.7937        9.7961       4.038771       0.03504
   5     589.8        5.7923        0.0026        9.5752        9.5777       3.785474       0.03760
   4     651.6        5.8492        0.0028        9.2958        9.2986       3.449357       0.04596
   3     718.7        5.9462        0.0030        8.9267        8.9297       2.983482       0.05855
   2     792.3        6.1320        0.0032        8.4542        8.4574       2.325369       0.07548
   1     891.5        0.5076        2.3088        0.0105        2.3194       1.811720       0.04371
   0    1013.0        0.5385        2.1363        0.0096        2.1458       1.607345       0.01419



 Wavenumbers:  4650. -  5150. cm-1, ATM      1
 LEVEL PRESSURE   UPWARD FLUX   DIFDOWN FLUX  DIRDOWN FLUX  DOWNWARD FLUX   NET FLUX    HEATING RATE
          mb          W/m2          W/m2          W/m2        W/m2          W/m2       degree/day
  51    .06700        4.0986        0.0000       10.2033       10.2033       6.104762       0.00000
  50    .07753        4.0986        0.0000       10.2031       10.2031       6.104526       0.18901
  49    .09103        4.0986        0.0000       10.2028       10.2028       6.104231       0.18428
  48    0.1069        4.0986        0.0000       10.2025       10.2025       6.103894       0.17931
  47    0.1255        4.0986        0.0000       10.2021       10.2021       6.103510       0.17426
  46    0.1487        4.0986        0.0000       10.2016       10.2016       6.103029       0.17536
  45    0.1794        4.0986        0.0000       10.2010       10.2010       6.102379       0.17850
  44    0.2165        4.0986        0.0000       10.2002       10.2002       6.101619       0.17277
  43    0.2613        4.0986        0.0000       10.1993       10.1993       6.100734       0.16690
  42    0.3336        4.0986        0.0000       10.1979       10.1979       6.099301       0.16702
  41    0.4307        4.0986        0.0000       10.1960       10.1960       6.097461       0.16002
  40    0.5894        4.0986        0.0000       10.1932       10.1932       6.094587       0.15283
  39     1.339        4.0986        0.0000       10.1816       10.1816       6.082995       0.13051
  38     1.782        4.0986        0.0000       10.1760       10.1760       6.077466       0.10527
  37     2.292        4.0986        0.0000       10.1706       10.1706       6.072009       0.09038
  36     2.964        4.0986        0.0000       10.1646       10.1647       6.066084       0.07437
  35     3.853        4.0986        0.0000       10.1584       10.1584       6.059868       0.05899
  34     5.035        4.0986        0.0000       10.1521       10.1521       6.053530       0.04528
  33     6.613        4.0986        0.0000       10.1456       10.1456       6.047067       0.03455
  32     8.786        4.0986        0.0001       10.1386       10.1386       6.040047       0.02726
  31     11.80        4.0986        0.0001       10.1295       10.1296       6.030989       0.02536
  30     15.07        4.0986        0.0001       10.1196       10.1197       6.021086       0.02557
  29     18.79        4.0987        0.0001       10.1076       10.1077       6.009045       0.02730
  28     23.16        4.0987        0.0002       10.0923       10.0924       5.993693       0.02969
  27     28.12        4.0988        0.0002       10.0731       10.0733       5.974532       0.03257
  26     33.73        4.0989        0.0002       10.0500       10.0503       5.951349       0.03486
  25     40.54        4.0991        0.0003       10.0201       10.0204       5.921319       0.03726
  24     48.69        4.0993        0.0003        9.9820        9.9823       5.882968       0.03969
  23     57.69        4.0996        0.0004        9.9384        9.9388       5.839197       0.04103
  22     68.43        4.1001        0.0005        9.8858        9.8862       5.786144       0.04171
  21     81.20        4.1007        0.0006        9.8234        9.8240       5.723308       0.04152
  20     96.49        4.1015        0.0007        9.7518        9.7524       5.650875       0.03998
  19     114.6        4.1027        0.0008        9.6719        9.6727       5.569976       0.03777
  18     136.5        4.1043        0.0009        9.5858        9.5867       5.482367       0.03369
  17     162.9        4.1066        0.0011        9.4940        9.4951       5.388510       0.03000
  16     196.4        4.1101        0.0013        9.3883        9.3896       5.279469       0.02745
  15     218.7        4.1128        0.0014        9.3229        9.3243       5.211504       0.02580
  14     243.0        4.1164        0.0016        9.2520        9.2535       5.137161       0.02578
  13     269.0        4.1211        0.0017        9.1717        9.1734       5.052243       0.02755
  12     297.5        4.1278        0.0019        9.0763        9.0782       4.950392       0.03021
  11     328.5        4.1364        0.0021        8.9650        8.9670       4.830611       0.03257
  10     361.9        4.1476        0.0023        8.8349        8.8372       4.689584       0.03568
   9     398.1        4.1621        0.0025        8.6820        8.6845       4.522367       0.03896
   8     437.6        4.1810        0.0027        8.5028        8.5055       4.324460       0.04231
   7     480.5        4.2056        0.0029        8.2948        8.2977       4.092061       0.04564
   6     533.0        4.2433        0.0031        8.0209        8.0240       3.780730       0.05008
   5     589.8        4.2958        0.0033        7.7063        7.7097       3.413913       0.05445
   4     651.6        4.3738        0.0036        7.3412        7.3448       2.971018       0.06057
   3     718.7        4.4925        0.0038        6.9387        6.9424       2.449875       0.06549
   2     792.3        4.6844        0.0039        6.5066        6.5105       1.826181       0.07153
   1     891.5        0.3702        1.7348        0.0080        1.7428       1.372548       0.03860
   0    1013.0        0.3988        1.5821        0.0072        1.5892       1.190431       0.01265



 Wavenumbers:  5150. -  6150. cm-1, ATM      1
 LEVEL PRESSURE   UPWARD FLUX   DIFDOWN FLUX  DIRDOWN FLUX  DOWNWARD FLUX   NET FLUX    HEATING RATE
          mb          W/m2          W/m2          W/m2        W/m2          W/m2       degree/day
  51    .06700        9.7004        0.0000       25.5798       25.5798      15.879406       0.00000
  50    .07753        9.7004        0.0000       25.5798       25.5798      15.879367       0.03162
  49    .09103        9.7004        0.0000       25.5797       25.5797      15.879315       0.03210
  48    0.1069        9.7004        0.0000       25.5797       25.5797      15.879254       0.03261
  47    0.1255        9.7004        0.0000       25.5796       25.5796      15.879181       0.03311
  46    0.1487        9.7004        0.0000       25.5795       25.5795      15.879085       0.03488
  45    0.1794        9.7004        0.0000       25.5794       25.5794      15.878950       0.03713
  44    0.2165        9.7004        0.0000       25.5792       25.5792      15.878785       0.03769
  43    0.2613        9.7004        0.0000       25.5790       25.5790      15.878582       0.03826
  42    0.3336        9.7004        0.0000       25.5786       25.5786      15.878235       0.04043
  41    0.4307        9.7004        0.0000       25.5782       25.5782      15.877764       0.04097
  40    0.5894        9.7004        0.0000       25.5774       25.5774      15.876974       0.04198
  39     1.339        9.7004        0.0000       25.5735       25.5736      15.873171       0.04282
  38     1.782        9.7004        0.0001       25.5713       25.5714      15.870956       0.04217
  37     2.292        9.7004        0.0001       25.5688       25.5688      15.868449       0.04153
  36     2.964        9.7004        0.0001       25.5656       25.5657      15.865263       0.03999
  35     3.853        9.7004        0.0001       25.5615       25.5616      15.861213       0.03843
  34     5.035        9.7004        0.0002       25.5562       25.5564      15.855996       0.03727
  33     6.613        9.7004        0.0002       25.5494       25.5496      15.849227       0.03619
  32     8.786        9.7004        0.0003       25.5406       25.5409      15.840453       0.03408
  31     11.80        9.7004        0.0004       25.5287       25.5290      15.828582       0.03323
  30     15.07        9.7005        0.0005       25.5167       25.5172      15.816672       0.03075
  29     18.79        9.7005        0.0006       25.5042       25.5048      15.804214       0.02825
  28     23.16        9.7006        0.0007       25.4907       25.4914      15.790786       0.02596
  27     28.12        9.7007        0.0009       25.4764       25.4773      15.776618       0.02409
  26     33.73        9.7008        0.0010       25.4620       25.4631      15.762242       0.02161
  25     40.54        9.7010        0.0013       25.4463       25.4475      15.746496       0.01953
  24     48.69        9.7013        0.0015       25.4294       25.4309      15.729598       0.01749
  23     57.69        9.7016        0.0018       25.4126       25.4144      15.712785       0.01576
  22     68.43        9.7021        0.0021       25.3944       25.3965      15.694491       0.01438
  21     81.20        9.7026        0.0025       25.3744       25.3769      15.674318       0.01333
  20     96.49        9.7033        0.0030       25.3519       25.3549      15.651609       0.01253
  19     114.6        9.7042        0.0036       25.3262       25.3297      15.625531       0.01218
  18     136.5        9.7053        0.0042       25.2962       25.3004      15.595144       0.01168
  17     162.9        9.7066        0.0050       25.2521       25.2571      15.550499       0.01427
  16     196.4        9.7085        0.0060       25.1593       25.1653      15.456857       0.02357
  15     218.7        9.7098        0.0067       25.0159       25.0226      15.312800       0.05469
  14     243.0        9.7115        0.0074       24.7089       24.7163      15.004788       0.10683
  13     269.0        9.7136        0.0080       24.1619       24.1699      14.456233       0.17795
  12     297.5        9.7166        0.0087       23.4544       23.4631      13.746463       0.21051
  11     328.5        9.7205        0.0094       22.7355       22.7448      13.024333       0.19635
  10     361.9        9.7257        0.0100       21.9224       21.9325      12.206806       0.20684
   9     398.1        9.7326        0.0107       20.9939       21.0046      11.271976       0.21779
   8     437.6        9.7424        0.0113       19.9833       19.9946      10.252290       0.21802
   7     480.5        9.7559        0.0119       18.9483       18.9602       9.204343       0.20581
   6     533.0        9.7789        0.0126       17.7796       17.7922       8.013292       0.19160
   5     589.8        9.8164        0.0133       16.6726       16.6859       6.869486       0.16978
   4     651.6        9.8853        0.0140       15.6343       15.6483       5.763037       0.15131
   3     718.7       10.0122        0.0148       14.7738       14.7886       4.776387       0.12399
   2     792.3       10.2680        0.0157       14.0291       14.0448       3.776854       0.11464
   1     891.5        0.8938        3.9231        0.0177        3.9407       3.046941       0.06211
   0    1013.0        0.9288        3.6849        0.0162        3.7011       2.772387       0.01906



 Wavenumbers:  6150. -  7700. cm-1, ATM      1
 LEVEL PRESSURE   UPWARD FLUX   DIFDOWN FLUX  DIRDOWN FLUX  DOWNWARD FLUX   NET FLUX    HEATING RATE
          mb          W/m2          W/m2          W/m2        W/m2          W/m2       degree/day
  51    .06700       15.5665        0.0000       47.3109       47.3109      31.744320       0.00000
  50    .07753       15.5665        0.0000       47.3108       47.3108      31.744263       0.04553
  49    .09103       15.5665        0.0000       47.3107       47.3107      31.744190       0.04583
  48    0.1069       15.5665        0.0000       47.3106       47.3106      31.744103       0.04614
  47    0.1255       15.5665        0.0000       47.3105       47.3105      31.744001       0.04645
  46    0.1487       15.5665        0.0000       47.3104       47.3104      31.743868       0.04852
  45    0.1794       15.5665        0.0000       47.3102       47.3102      31.743681       0.05127
  44    0.2165       15.5665        0.0000       47.3100       47.3100      31.743454       0.05167
  43    0.2613       15.5665        0.0000       47.3097       47.3097      31.743178       0.05210
  42    0.3336       15.5665        0.0000       47.3092       47.3092      31.742708       0.05471
  41    0.4307       15.5665        0.0000       47.3085       47.3086      31.742073       0.05521
  40    0.5894       15.5665        0.0001       47.3074       47.3075      31.741014       0.05633
  39     1.339       15.5664        0.0002       47.3022       47.3024      31.735922       0.05733
  38     1.782       15.5664        0.0002       47.2991       47.2994      31.732952       0.05655
  37     2.292       15.5664        0.0003       47.2956       47.2959      31.729576       0.05591
  36     2.964       15.5663        0.0004       47.2912       47.2916      31.725257       0.05421
  35     3.853       15.5662        0.0005       47.2855       47.2860      31.719723       0.05252
  34     5.035       15.5661        0.0006       47.2780       47.2787      31.712542       0.05129
  33     6.613       15.5660        0.0008       47.2683       47.2692      31.703154       0.05019
  32     8.786       15.5658        0.0011       47.2556       47.2567      31.690855       0.04777
  31     11.80       15.5656        0.0015       47.2380       47.2395      31.673951       0.04733
  30     15.07       15.5653        0.0019       47.2201       47.2220      31.656663       0.04463
  29     18.79       15.5650        0.0024       47.2008       47.2032      31.638183       0.04190
  28     23.16       15.5647        0.0030       47.1795       47.1825      31.617791       0.03943
  27     28.12       15.5643        0.0036       47.1565       47.1601      31.595796       0.03739
  26     33.73       15.5638        0.0043       47.1324       47.1367      31.572873       0.03447
  25     40.54       15.5633        0.0052       47.1054       47.1105      31.547235       0.03181
  24     48.69       15.5627        0.0062       47.0754       47.0816      31.518978       0.02924
  23     57.69       15.5620        0.0074       47.0449       47.0523      31.490353       0.02683
  22     68.43       15.5611        0.0087       47.0110       47.0197      31.458611       0.02495
  21     81.20       15.5601        0.0104       46.9729       46.9832      31.423111       0.02346
  20     96.49       15.5589        0.0123       46.9294       46.9417      31.382761       0.02227
  19     114.6       15.5575        0.0146       46.8790       46.8936      31.336115       0.02178
  18     136.5       15.5558        0.0173       46.8200       46.8373      31.281473       0.02101
  17     162.9       15.5539        0.0206       46.7361       46.7567      31.202818       0.02514
  16     196.4       15.5515        0.0248       46.5703       46.5950      31.043536       0.04009
  15     218.7       15.5501        0.0275       46.3473       46.3748      30.824670       0.08310
  14     243.0       15.5490        0.0303       45.9299       45.9602      30.411220       0.14340
  13     269.0       15.5485        0.0332       45.1708       45.2040      29.655460       0.24517
  12     297.5       15.5495        0.0360       44.0115       44.0475      28.498010       0.34329
  11     328.5       15.5523        0.0388       42.7242       42.7631      27.210791       0.34999
  10     361.9       15.5580        0.0417       41.3539       41.3957      25.837712       0.34740
   9     398.1       15.5681        0.0446       39.7953       39.8398      24.271713       0.36484
   8     437.6       15.5856        0.0473       37.9948       38.0420      22.456454       0.38811
   7     480.5       15.6137        0.0498       36.0647       36.1145      20.500848       0.38407
   6     533.0       15.6668        0.0525       33.7773       33.8298      18.163014       0.37608
   5     589.8       15.7599        0.0550       31.4082       31.4632      15.703350       0.36509
   4     651.6       15.9401        0.0570       28.8834       28.9404      13.000318       0.36965
   3     718.7       16.2862        0.0588       26.4104       26.4692      10.182998       0.35406
   2     792.3       17.0263        0.0603       24.0056       24.0659       7.039595       0.36051
   1     891.5        1.3269        6.2268        0.0286        6.2554       4.928514       0.17964
   0    1013.0        1.4180        5.6258        0.0251        5.6509       4.232857       0.04830



 Wavenumbers:  7700. -  8050. cm-1, ATM      1
 LEVEL PRESSURE   UPWARD FLUX   DIFDOWN FLUX  DIRDOWN FLUX  DOWNWARD FLUX   NET FLUX    HEATING RATE
          mb          W/m2          W/m2          W/m2        W/m2          W/m2       degree/day
  51    .06700        7.1350        0.0000       11.1810       11.1810       4.045940       0.00000
  50    .07753        7.1350        0.0000       11.1809       11.1809       4.045918       0.01828
  49    .09103        7.1350        0.0000       11.1809       11.1809       4.045889       0.01791
  48    0.1069        7.1350        0.0000       11.1809       11.1809       4.045856       0.01754
  47    0.1255        7.1350        0.0000       11.1809       11.1809       4.045818       0.01716
  46    0.1487        7.1351        0.0000       11.1808       11.1808       4.045770       0.01742
  45    0.1794        7.1351        0.0000       11.1808       11.1808       4.045705       0.01792
  44    0.2165        7.1351        0.0000       11.1807       11.1807       4.045628       0.01758
  43    0.2613        7.1351        0.0000       11.1806       11.1806       4.045536       0.01725
  42    0.3336        7.1351        0.0000       11.1805       11.1805       4.045385       0.01765
  41    0.4307        7.1352        0.0000       11.1803       11.1804       4.045184       0.01746
  40    0.5894        7.1353        0.0000       11.1801       11.1801       4.044856       0.01744
  39     1.339        7.1356        0.0001       11.1788       11.1789       4.043305       0.01747
  38     1.782        7.1358        0.0001       11.1781       11.1782       4.042393       0.01735
  37     2.292        7.1360        0.0001       11.1772       11.1773       4.041338       0.01747
  36     2.964        7.1363        0.0002       11.1761       11.1762       4.039953       0.01739
  35     3.853        7.1367        0.0002       11.1746       11.1748       4.038123       0.01737
  34     5.035        7.1372        0.0003       11.1726       11.1729       4.035692       0.01737
  33     6.613        7.1379        0.0004       11.1700       11.1703       4.032445       0.01736
  32     8.786        7.1388        0.0005       11.1664       11.1669       4.028070       0.01699
  31     11.80        7.1402        0.0007       11.1613       11.1620       4.021815       0.01751
  30     15.07        7.1416        0.0009       11.1558       11.1567       4.015103       0.01733
  29     18.79        7.1432        0.0011       11.1497       11.1508       4.007528       0.01718
  28     23.16        7.1452        0.0013       11.1425       11.1438       3.998689       0.01709
  27     28.12        7.1474        0.0016       11.1343       11.1360       3.988594       0.01716
  26     33.73        7.1498        0.0020       11.1252       11.1271       3.977315       0.01696
  25     40.54        7.1528        0.0023       11.1142       11.1165       3.963715       0.01687
  24     48.69        7.1565        0.0028       11.1010       11.1038       3.947359       0.01693
  23     57.69        7.1605        0.0033       11.0866       11.0899       3.929446       0.01679
  22     68.43        7.1653        0.0039       11.0695       11.0735       3.908185       0.01671
  21     81.20        7.1711        0.0047       11.0494       11.0540       3.882959       0.01667
  20     96.49        7.1780        0.0056       11.0255       11.0311       3.853049       0.01651
  19     114.6        7.1864        0.0066       10.9975       11.0041       3.817741       0.01649
  18     136.5        7.1964        0.0078       10.9648       10.9726       3.776172       0.01598
  17     162.9        7.2085        0.0093       10.9263       10.9356       3.727044       0.01570
  16     196.4        7.2245        0.0112       10.8773       10.8884       3.663897       0.01589
  15     218.7        7.2352        0.0124       10.8455       10.8580       3.622715       0.01564
  14     243.0        7.2471        0.0138       10.8114       10.8252       3.578143       0.01546
  13     269.0        7.2601        0.0152       10.7749       10.7901       3.529979       0.01562
  12     297.5        7.2746        0.0168       10.7357       10.7525       3.477947       0.01543
  11     328.5        7.2906        0.0185       10.6937       10.7122       3.421677       0.01530
  10     361.9        7.3083        0.0203       10.6489       10.6692       3.360880       0.01538
   9     398.1        7.3281        0.0223       10.6008       10.6231       3.294970       0.01536
   8     437.6        7.3503        0.0244       10.5491       10.5735       3.223218       0.01534
   7     480.5        7.3752        0.0267       10.4934       10.5201       3.144928       0.01538
   6     533.0        7.4077        0.0295       10.4243       10.4537       3.046040       0.01591
   5     589.8        7.4457        0.0324       10.3479       10.3803       2.934687       0.01653
   4     651.6        7.4913        0.0357       10.2613       10.2970       2.805718       0.01764
   3     718.7        7.5473        0.0391       10.1618       10.2008       2.653502       0.01913
   2     792.3        7.6188        0.0427       10.0439       10.0866       2.467775       0.02130
   1     891.5        0.7330        3.0358        0.0133        3.0491       2.316067       0.01291
   0    1013.0        0.7482        2.9685        0.0130        2.9815       2.233330       0.00574



 Wavenumbers:  8050. - 12850. cm-1, ATM      1
 LEVEL PRESSURE   UPWARD FLUX   DIFDOWN FLUX  DIRDOWN FLUX  DOWNWARD FLUX   NET FLUX    HEATING RATE
          mb          W/m2          W/m2          W/m2        W/m2          W/m2       degree/day
  51    .06700       93.1010        0.0000      156.5418      156.5418      63.440761       0.00000
  50    .07753       93.1010        0.0000      156.5417      156.5417      63.440761      -0.00000
  49    .09103       93.1010        0.0001      156.5417      156.5417      63.440761       0.00000
  48    0.1069       93.1009        0.0001      156.5416      156.5417      63.440761       0.00000
  47    0.1255       93.1009        0.0002      156.5415      156.5417      63.440761       0.00000
  46    0.1487       93.1009        0.0002      156.5414      156.5417      63.440761      -0.00000
  45    0.1794       93.1009        0.0003      156.5413      156.5416      63.440761       0.00000
  44    0.2165       93.1008        0.0004      156.5412      156.5416      63.440761      -0.00000
  43    0.2613       93.1008        0.0005      156.5410      156.5415      63.440761      -0.00000
  42    0.3336       93.1007        0.0008      156.5407      156.5414      63.440761       0.00000
  41    0.4307       93.1006        0.0010      156.5403      156.5413      63.440761      -0.00000
  40    0.5894       93.1004        0.0015      156.5397      156.5412      63.440761       0.00000
  39     1.339       93.0996        0.0036      156.5367      156.5403      63.440761      -0.00000
  38     1.782       93.0991        0.0048      156.5350      156.5398      63.440761       0.00000
  37     2.292       93.0985        0.0063      156.5330      156.5392      63.440761       0.00000
  36     2.964       93.0977        0.0082      156.5303      156.5385      63.440761      -0.00000
  35     3.853       93.0967        0.0106      156.5268      156.5375      63.440761       0.00000
  34     5.035       93.0954        0.0140      156.5222      156.5362      63.440761       0.00000
  33     6.613       93.0936        0.0184      156.5160      156.5344      63.440761      -0.00000
  32     8.786       93.0912        0.0244      156.5076      156.5320      63.440761      -0.00000
  31     11.80       93.0878        0.0329      156.4957      156.5286      63.440761       0.00000
  30     15.07       93.0841        0.0421      156.4828      156.5249      63.440761       0.00000
  29     18.79       93.0800        0.0525      156.4682      156.5207      63.440761      -0.00000
  28     23.16       93.0751        0.0647      156.4512      156.5159      63.440761       0.00000
  27     28.12       93.0695        0.0786      156.4317      156.5103      63.440761       0.00000
  26     33.73       93.0633        0.0942      156.4099      156.5040      63.440761      -0.00000
  25     40.54       93.0557        0.1131      156.3834      156.4965      63.440761       0.00000
  24     48.69       93.0466        0.1358      156.3515      156.4874      63.440761       0.00000
  23     57.69       93.0366        0.1609      156.3164      156.4773      63.440761      -0.00000
  22     68.43       93.0246        0.1908      156.2746      156.4653      63.440761      -0.00000
  21     81.20       93.0103        0.2265      156.2246      156.4510      63.440761      -0.00000
  20     96.49       92.9932        0.2690      156.1649      156.4340      63.440761       0.00000
  19     114.6       92.9731        0.3197      156.0879      156.4076      63.434514       0.00292
  18     136.5       92.9493        0.3799      155.9962      156.3760      63.426765       0.00298
  17     162.9       92.9208        0.4517      155.8831      156.3347      63.413910       0.00411
  16     196.4       92.8840        0.5450      155.7199      156.2650      63.380986       0.00829
  15     218.7       92.8601        0.6064      155.5733      156.1797      63.319562       0.02332
  14     243.0       92.8353        0.6731      155.3367      156.0098      63.174489       0.05032
  13     269.0       92.8110        0.7453      154.9514      155.6967      62.885726       0.09367
  12     297.5       92.7897        0.8230      154.3896      155.2126      62.422918       0.13726
  11     328.5       92.7730        0.9067      153.7151      154.6218      61.848826       0.15609
  10     361.9       92.7644        0.9966      152.9087      153.9054      61.140925       0.17911
   9     398.1       92.7697        1.0927      151.8986      152.9913      60.221654       0.21417
   8     437.6       92.7987        1.1949      150.6031      151.7980      58.999392       0.26133
   7     480.5       92.8634        1.3029      149.0014      150.3043      57.440828       0.30610
   6     533.0       93.0073        1.4334      146.7375      148.1709      55.163680       0.36632
   5     589.8       93.2818        1.5700      143.8730      145.4429      52.161106       0.44568
   4     651.6       93.8347        1.7097      140.0955      141.8052      47.970474       0.57308
   3     718.7       94.8867        1.8511      135.5278      137.3788      42.492145       0.68847
   2     792.3       96.9997        1.9903      130.0690      132.0594      35.059653       0.85242
   1     891.5        8.5309       37.3795        0.1649       37.5444      29.013453       0.51450
   0    1013.0        8.8754       35.2169        0.1525       35.3694      26.494040       0.17494



 Wavenumbers: 12850. - 16000. cm-1, ATM      1
 LEVEL PRESSURE   UPWARD FLUX   DIFDOWN FLUX  DIRDOWN FLUX  DOWNWARD FLUX   NET FLUX    HEATING RATE
          mb          W/m2          W/m2          W/m2        W/m2          W/m2       degree/day
  51    .06700       69.2823        0.0000       98.0872       98.0872      28.804963       0.00000
  50    .07753       69.2823        0.0001       98.0864       98.0864      28.804172       0.63338
  49    .09103       69.2823        0.0002       98.0853       98.0854      28.803180       0.62016
  48    0.1069       69.2823        0.0003       98.0841       98.0843      28.802040       0.60665
  47    0.1255       69.2823        0.0004       98.0826       98.0830      28.800732       0.59342
  46    0.1487       69.2823        0.0005       98.0809       98.0814      28.799080       0.60191
  45    0.1794       69.2823        0.0007       98.0784       98.0791      28.796835       0.61640
  44    0.2165       69.2824        0.0009       98.0756       98.0766      28.794195       0.60052
  43    0.2613       69.2824        0.0012       98.0723       98.0735      28.791092       0.58483
  42    0.3336       69.2826        0.0016       98.0670       98.0687      28.786032       0.58996
  41    0.4307       69.2829        0.0022       98.0602       98.0624      28.779494       0.56845
  40    0.5894       69.2836        0.0032       98.0496       98.0528      28.769206       0.54713
  39     1.339       69.2894        0.0078       98.0043       98.0122      28.722815       0.52228
  38     1.782       69.2947        0.0105       97.9793       97.9898      28.695113       0.52740
  37     2.292       69.3027        0.0137       97.9498       97.9635      28.660712       0.56976
  36     2.964       69.3161        0.0178       97.9088       97.9266      28.610512       0.63017
  35     3.853       69.3377        0.0232       97.8503       97.8736      28.535870       0.70836
  34     5.035       69.3703        0.0304       97.7680       97.7984      28.428149       0.76951
  33     6.613       69.4158        0.0401       97.6562       97.6962      28.280462       0.78954
  32     8.786       69.4750        0.0530       97.5107       97.5637      28.088670       0.74485
  31     11.80       69.5521        0.0715       97.3179       97.3894      27.837347       0.70363
  30     15.07       69.6258        0.0914       97.1283       97.2197      27.593966       0.62836
  29     18.79       69.7010        0.1138       96.9300       97.0439      27.342893       0.56926
  28     23.16       69.7795        0.1400       96.7166       96.8566      27.077110       0.51394
  27     28.12       69.8583        0.1699       96.4935       96.6634      26.805057       0.46247
  26     33.73       69.9310        0.2034       96.2731       96.4764      26.545438       0.39034
  25     40.54       70.0008        0.2438       96.0408       96.2846      26.283772       0.32463
  24     48.69       70.0674        0.2925       95.7946       96.0871      26.019690       0.27328
  23     57.69       70.1236        0.3460       95.5573       95.9033      25.779690       0.22496
  22     68.43       70.1723        0.4098       95.3106       95.7204      25.548148       0.18202
  21     81.20       70.2052        0.4859       95.0643       95.5503      25.345096       0.13417
  20     96.49       70.2212        0.5767       94.8153       95.3920      25.170804       0.09620
  19     114.6       70.2379        0.6853       94.5411       95.2264      24.988530       0.08511
  18     136.5       70.2480        0.8141       94.2320       95.0462      24.798193       0.07319
  17     162.9       70.2512        0.9674       93.8753       94.8428      24.591566       0.06605
  16     196.4       70.2365        1.1662       93.4347       94.6009      24.364347       0.05719
  15     218.7       70.2203        1.2968       93.1513       94.4480      24.227683       0.05189
  14     243.0       70.2002        1.4386       92.8439       94.2825      24.082355       0.05040
  13     269.0       70.1761        1.5922       92.5111       94.1034      23.927266       0.05031
  12     297.5       70.1489        1.7582       92.1495       93.9077      23.758865       0.04995
  11     328.5       70.1203        1.9375       91.7554       93.6929      23.572610       0.05064
  10     361.9       70.0916        2.1305       91.3262       93.4567      23.365075       0.05251
   9     398.1       70.0645        2.3380       90.8575       93.1956      23.131091       0.05451
   8     437.6       70.0422        2.5607       90.3418       92.9025      22.860265       0.05790
   7     480.5       70.0282        2.7990       89.7728       92.5718      22.543561       0.06220
   6     533.0       70.0298        3.0917       89.0428       92.1346      22.104750       0.07059
   5     589.8       70.0660        3.4059       88.2038       91.6098      21.543812       0.08326
   4     651.6       70.1744        3.7410       87.1979       90.9390      20.764602       0.10656
   3     718.7       70.3852        4.0956       86.0161       90.1118      19.726554       0.13045
   2     792.3       70.7873        4.4659       84.5970       89.0630      18.275712       0.16640
   1     891.5       18.6059       35.4021        0.1112       35.5133      16.907410       0.11644
   0    1013.0       18.8551       34.6882        0.1074       34.7956      15.940508       0.06714



 Wavenumbers: 16000. - 22650. cm-1, ATM      1
 LEVEL PRESSURE   UPWARD FLUX   DIFDOWN FLUX  DIRDOWN FLUX  DOWNWARD FLUX   NET FLUX    HEATING RATE
          mb          W/m2          W/m2          W/m2        W/m2          W/m2       degree/day
  51    .06700      125.3859        0.0000      156.3892      156.3892      31.003360       0.00000
  50    .07753      125.3858        0.0004      156.3887      156.3891      31.003219       0.11272
  49    .09103      125.3858        0.0009      156.3879      156.3888      31.003015       0.12784
  48    0.1069      125.3857        0.0014      156.3871      156.3885      31.002741       0.14578
  47    0.1255      125.3857        0.0020      156.3861      156.3881      31.002374       0.16617
  46    0.1487      125.3857        0.0028      156.3847      156.3875      31.001834       0.19691
  45    0.1794      125.3857        0.0039      156.3828      156.3867      31.000989       0.23185
  44    0.2165      125.3858        0.0052      156.3805      156.3857      30.999844       0.26057
  43    0.2613      125.3861        0.0067      156.3776      156.3843      30.998290       0.29295
  42    0.3336      125.3865        0.0092      156.3726      156.3819      30.995335       0.34450
  41    0.4307      125.3874        0.0126      156.3657      156.3783      30.990881       0.38726
  40    0.5894      125.3893        0.0180      156.3537      156.3717      30.982387       0.45172
  39     1.339      125.4077        0.0439      156.2834      156.3273      30.919631       0.70652
  38     1.782      125.4252        0.0590      156.2324      156.2914      30.866172       1.01778
  37     2.292      125.4519        0.0766      156.1641      156.2407      30.788791       1.28163
  36     2.964      125.4967        0.0996      156.0605      156.1601      30.663437       1.57356
  35     3.853      125.5696        0.1300      155.9041      156.0341      30.464543       1.88754
  34     5.035      125.6799        0.1704      155.6774      155.8478      30.167834       2.11957
  33     6.613      125.8343        0.2242      155.3656      155.5898      29.755545       2.20410
  32     8.786      126.0352        0.2967      154.9577      155.2544      29.219150       2.08316
  31     11.80      126.2960        0.4002      154.4153      154.8154      28.519443       1.95896
  30     15.07      126.5450        0.5111      153.8804      154.3915      27.846509       1.73738
  29     18.79      126.7983        0.6362      153.3191      153.9553      27.156982       1.56337
  28     23.16      127.0620        0.7821      152.7126      153.4947      26.432652       1.40062
  27     28.12      127.3259        0.9487      152.0755      153.0242      25.698260       1.24842
  26     33.73      127.5671        1.1348      151.4409      152.5758      25.008634       1.03687
  25     40.54      127.7960        1.3595      150.7637      152.1232      24.327222       0.84537
  24     48.69      128.0111        1.6300      150.0338      151.6639      23.652808       0.69791
  23     57.69      128.1886        1.9268      149.3151      151.2419      23.053357       0.56189
  22     68.43      128.3366        2.2797      148.5476      150.8273      22.490791       0.44225
  21     81.20      128.4260        2.6999      147.7517      150.4515      22.025549       0.30742
  20     96.49      128.4519        3.1998      146.9127      150.1125      21.660552       0.20145
  19     114.6      128.4412        3.7916      145.9763      149.7679      21.326729       0.15587
  18     136.5      128.4004        4.4901      144.9088      149.3989      20.998436       0.12624
  17     162.9      128.3265        5.3176      143.6785      148.9962      20.669698       0.10508
  16     196.4      128.1757        6.3848      142.1651      148.5499      20.374153       0.07439
  15     218.7      128.0566        7.0819      141.2033      148.2852      20.228600       0.05526
  14     243.0      127.9180        7.8361      140.1753      148.0114      20.093432       0.04688
  13     269.0      127.7581        8.6493      139.0797      147.7290      19.970905       0.03975
  12     297.5      127.5763        9.5236      137.9141      147.4376      19.861338       0.03250
  11     328.5      127.3757       10.4627      136.6676      147.1303      19.754646       0.02901
  10     361.9      127.1559       11.4677      135.3392      146.8069      19.650931       0.02624
   9     398.1      126.9162       12.5420      133.9235      146.4655      19.549296       0.02368
   8     437.6      126.6571       13.6875      132.4163      146.1038      19.446687       0.02194
   7     480.5      126.3781       14.9062      130.8147      145.7209      19.342751       0.02041
   6     533.0      126.0348       16.3933      128.8599      145.2532      19.218402       0.02000
   5     589.8      125.6686       17.9807      126.7679      144.7486      19.080053       0.02054
   4     651.6      125.2852       19.6694      124.5274      144.1969      18.911696       0.02302
   3     718.7      124.8902       21.4607      122.1285      143.5892      18.698937       0.02674
   2     792.3      124.4997       23.3520      119.5548      142.9068      18.407053       0.03348
   1     891.5       64.4785       82.3771        0.1566       82.5336      18.055175       0.02994
   0    1013.0       64.4312       81.9545        0.1509       82.1053      17.674139       0.02646



 Wavenumbers: 22650. - 29000. cm-1, ATM      1
 LEVEL PRESSURE   UPWARD FLUX   DIFDOWN FLUX  DIRDOWN FLUX  DOWNWARD FLUX   NET FLUX    HEATING RATE
          mb          W/m2          W/m2          W/m2        W/m2          W/m2       degree/day
  51    .06700       52.1098        0.0000       59.0156       59.0156       6.905792       0.00000
  50    .07753       52.1097        0.0004       59.0151       59.0155       6.905792       0.00000
  49    .09103       52.1096        0.0010       59.0144       59.0154       6.905792      -0.00000
  48    0.1069       52.1094        0.0016       59.0136       59.0152       6.905792       0.00000
  47    0.1255       52.1092        0.0024       59.0127       59.0150       6.905792       0.00000
  46    0.1487       52.1090        0.0033       59.0115       59.0148       6.905792       0.00000
  45    0.1794       52.1087        0.0046       59.0099       59.0145       6.905792      -0.00000
  44    0.2165       52.1083        0.0061       59.0080       59.0141       6.905792       0.00000
  43    0.2613       52.1079        0.0078       59.0058       59.0137       6.905792      -0.00000
  42    0.3336       52.1071        0.0108       59.0022       59.0129       6.905792       0.00000
  41    0.4307       52.1062        0.0147       58.9973       59.0120       6.905792      -0.00000
  40    0.5894       52.1046        0.0210       58.9894       59.0104       6.905792       0.00000
  39     1.339       52.0971        0.0511       58.9518       59.0029       6.905792       0.00000
  38     1.782       52.0927        0.0688       58.9297       58.9985       6.905792      -0.00000
  37     2.292       52.0876        0.0892       58.9042       58.9934       6.905792      -0.00000
  36     2.964       52.0809        0.1161       58.8706       58.9867       6.905792       0.00000
  35     3.853       52.0721        0.1515       58.8264       58.9779       6.905792       0.00000
  34     5.035       52.0604        0.1986       58.7676       58.9662       6.905792       0.00000
  33     6.613       52.0447        0.2614       58.6891       58.9505       6.905792       0.00000
  32     8.786       52.0237        0.3460       58.5834       58.9294       6.905792       0.00000
  31     11.80       51.9935        0.4669       58.4324       58.8993       6.905792      -0.00000
  30     15.07       51.9612        0.5964       58.2706       58.8670       6.905792       0.00000
  29     18.79       51.9248        0.7423       58.0882       58.8305       6.905792      -0.00000
  28     23.16       51.8823        0.9124       57.8757       58.7880       6.905792       0.00000
  27     28.12       51.8337        1.1062       57.6333       58.7395       6.905792      -0.00000
  26     33.73       51.7796        1.3223       57.3631       58.6854       6.905792       0.00000
  25     40.54       51.7144        1.5823       57.0379       58.6202       6.905792      -0.00000
  24     48.69       51.6360        1.8939       56.6479       58.5418       6.905792       0.00000
  23     57.69       51.5504        2.2341       56.2221       58.4562       6.905792       0.00000
  22     68.43       51.4489        2.6361       55.7186       58.3547       6.905792       0.00000
  21     81.20       51.3287        3.1106       55.1239       58.2345       6.905792      -0.00000
  20     96.49       51.1867        3.6697       54.4228       58.0925       6.905792       0.00000
  19     114.6       51.0197        4.3245       53.6010       57.9255       6.905792       0.00000
  18     136.5       50.8240        5.0880       52.6418       57.7298       6.905792       0.00000
  17     162.9       50.5941        5.9796       51.5203       57.4999       6.905792      -0.00000
  16     196.4       50.3011        7.1074       50.0994       57.2068       6.905792       0.00000
  15     218.7       50.1116        7.8312       49.1863       57.0174       6.905792       0.00000
  14     243.0       49.9084        8.6029       48.2113       56.8142       6.905792      -0.00000
  13     269.0       49.6912        9.4221       47.1749       56.5970       6.905792       0.00000
  12     297.5       49.4600       10.2876       46.0783       56.3658       6.905792       0.00000
  11     328.5       49.2142       11.2004       44.9195       56.1199       6.905792       0.00000
  10     361.9       48.9539       12.1578       43.7018       55.8597       6.905792       0.00000
   9     398.1       48.6788       13.1596       42.4250       55.5846       6.905792      -0.00000
   8     437.6       48.3890       14.2031       41.0916       55.2948       6.905792       0.00000
   7     480.5       48.0846       15.2859       39.7045       54.9903       6.905792      -0.00000
   6     533.0       47.7182       16.5697       38.0543       54.6240       6.905792       0.00000
   5     589.8       47.3331       17.8958       36.3431       54.2389       6.905792      -0.00000
   4     651.6       46.9300       19.2562       34.5795       53.8358       6.905792       0.00000
   3     718.7       46.5092       20.6447       32.7702       53.4150       6.905792       0.00000
   2     792.3       46.0717       22.0520       30.9256       52.9775       6.905792      -0.00000
   1     891.5       25.4117       32.2785        0.0386       32.3171       6.905339       0.00004
   0    1013.0       25.1711       32.0415        0.0350       32.0765       6.905339      -0.00000



 Wavenumbers: 29000. - 38000. cm-1, ATM      1
 LEVEL PRESSURE   UPWARD FLUX   DIFDOWN FLUX  DIRDOWN FLUX  DOWNWARD FLUX   NET FLUX    HEATING RATE
          mb          W/m2          W/m2          W/m2        W/m2          W/m2       degree/day
  51    .06700        7.8958        0.0000       20.8114       20.8114      12.915584       0.00000
  50    .07753        7.8956        0.0003       20.8070       20.8074      12.911778       3.05066
  49    .09103        7.8953        0.0007       20.8009       20.8016      12.906243       3.45983
  48    0.1069        7.8951        0.0012       20.7928       20.7939      12.898835       3.94311
  47    0.1255        7.8948        0.0017       20.7820       20.7837      12.888933       4.48898
  46    0.1487        7.8944        0.0023       20.7665       20.7688      12.874375       5.30680
  45    0.1794        7.8939        0.0032       20.7424       20.7457      12.851717       6.22007
  44    0.2165        7.8934        0.0043       20.7103       20.7146      12.821204       6.94115
  43    0.2613        7.8928        0.0055       20.6675       20.6730      12.780223       7.72475
  42    0.3336        7.8918        0.0075       20.5880       20.5955      12.703689       8.92316
  41    0.4307        7.8907        0.0102       20.4722       20.4824      12.591777       9.73048
  40    0.5894        7.8889        0.0144       20.2637       20.2781      12.389173      10.77423
  39     1.339        7.8846        0.0325       19.0984       19.1309      11.246300      12.86667
  38     1.782        7.8843        0.0418       18.4394       18.4812      10.596887      12.36378
  37     2.292        7.8860        0.0519       17.7714       17.8233       9.937267      10.92502
  36     2.964        7.8911        0.0642       17.0421       17.1064       9.215297       9.06291
  35     3.853        7.9016        0.0797       16.2678       16.3475       8.445922       7.30151
  34     5.035        7.9195        0.0993       15.4803       15.5796       7.660091       5.61365
  33     6.613        7.9458        0.1242       14.7157       14.8399       6.894186       4.09453
  32     8.786        7.9805        0.1570       13.9936       14.1505       6.170025       2.81238
  31     11.80        8.0257        0.2025       13.2835       13.4860       5.460349       1.98687
  30     15.07        8.0690        0.2496       12.7394       12.9890       4.920010       1.39505
  29     18.79        8.1135        0.3018       12.2666       12.5684       4.454960       1.05441
  28     23.16        8.1605        0.3611       11.8300       12.1912       4.030692       0.82040
  27     28.12        8.2082        0.4275       11.4279       11.8553       3.647157       0.65198
  26     33.73        8.2514        0.5005       11.0695       11.5700       3.318571       0.49404
  25     40.54        8.2912        0.5877       10.7209       11.3086       3.017451       0.37357
  24     48.69        8.3272        0.6911       10.3742       11.0653       2.738103       0.28908
  23     57.69        8.3547        0.8028       10.0549       10.8577       2.502969       0.22040
  22     68.43        8.3741        0.9337        9.7327       10.6665       2.292362       0.16557
  21     81.20        8.3768        1.0882        9.4134       10.5016       2.124798       0.11072
  20     96.49        8.3607        1.2695        9.0887       10.3583       1.997517       0.07025
  19     114.6        8.3330        1.4787        8.7388       10.2175       1.884468       0.05279
  18     136.5        8.2959        1.7173        8.3549       10.0722       1.776259       0.04161
  17     162.9        8.2491        1.9885        7.9311        9.9197       1.670600       0.03377
  16     196.4        8.1789        2.3235        7.4333        9.7568       1.577899       0.02333
  15     218.7        8.1302        2.5335        7.1295        9.6631       1.532818       0.01712
  14     243.0        8.0773        2.7525        6.8161        9.5685       1.491288       0.01440
  13     269.0        8.0197        2.9795        6.4943        9.4738       1.454091       0.01207
  12     297.5        7.9576        3.2133        6.1657        9.3790       1.421387       0.00970
  11     328.5        7.8921        3.4529        5.8295        9.2823       1.390166       0.00849
  10     361.9        7.8237        3.6957        5.4886        9.1843       1.360566       0.00749
   9     398.1        7.7523        3.9410        5.1440        9.0849       1.332609       0.00651
   8     437.6        7.6784        4.1872        4.7969        8.9842       1.305756       0.00574
   7     480.5        7.6022        4.4322        4.4504        8.8825       1.280367       0.00499
   6     533.0        7.5124        4.7089        4.0563        8.7652       1.252816       0.00443
   5     589.8        7.4206        4.9787        3.6682        8.6469       1.226281       0.00394
   4     651.6        7.3276        5.2375        3.2905        8.5280       1.200471       0.00353
   3     718.7        7.2335        5.4836        2.9252        8.4088       1.175350       0.00316
   2     792.3        7.1390        5.7135        2.5764        8.2899       1.150928       0.00280
   1     891.5        4.1112        5.2359        0.0029        5.2388       1.127605       0.00198
   0    1013.0        4.0387        5.1444        0.0024        5.1468       1.108057       0.00136



 Wavenumbers: 38000. - 50000. cm-1, ATM      1
 LEVEL PRESSURE   UPWARD FLUX   DIFDOWN FLUX  DIRDOWN FLUX  DOWNWARD FLUX   NET FLUX    HEATING RATE
          mb          W/m2          W/m2          W/m2        W/m2          W/m2       degree/day
  51    .06700        0.0061        0.0000        1.2836        1.2836       1.277518       0.00000
  50    .07753        0.0061        0.0001        1.2812        1.2812       1.275183       1.87150
  49    .09103        0.0060        0.0002        1.2777        1.2778       1.271851       2.08247
  48    0.1069        0.0059        0.0002        1.2731        1.2734       1.267473       2.33059
  47    0.1255        0.0058        0.0004        1.2672        1.2675       1.261717       2.60908
  46    0.1487        0.0057        0.0005        1.2586        1.2591       1.253391       3.03499
  45    0.1794        0.0055        0.0007        1.2455        1.2462       1.240623       3.50520
  44    0.2165        0.0054        0.0009        1.2282        1.2291       1.223697       3.85037
  43    0.2613        0.0052        0.0011        1.2054        1.2065       1.201348       4.21261
  42    0.3336        0.0049        0.0015        1.1639        1.1654       1.160524       4.75970
  41    0.4307        0.0045        0.0020        1.1051        1.1070       1.102565       5.03943
  40    0.5894        0.0039        0.0026        1.0039        1.0064       1.002524       5.32007
  39     1.339        0.0022        0.0035        0.5438        0.5473       0.545104       5.14971
  38     1.782        0.0016        0.0032        0.3635        0.3666       0.365006       3.42879
  37     2.292        0.0012        0.0027        0.2356        0.2383       0.237058       2.11916
  36     2.964        0.0009        0.0022        0.1455        0.1477       0.146786       1.13318
  35     3.853        0.0006        0.0017        0.0858        0.0875       0.086906       0.56828
  34     5.035        0.0004        0.0013        0.0488        0.0501       0.049701       0.26578
  33     6.613        0.0003        0.0010        0.0273        0.0282       0.027974       0.11615
  32     8.786        0.0002        0.0007        0.0144        0.0151       0.014928       0.05067
  31     11.80        0.0001        0.0004        0.0065        0.0070       0.006903       0.02247
  30     15.07        0.0000        0.0003        0.0031        0.0034       0.003329       0.00923
  29     18.79        0.0000        0.0002        0.0014        0.0016       0.001583       0.00396
  28     23.16        0.0000        0.0001        0.0006        0.0007       0.000720       0.00167
  27     28.12        0.0000        0.0001        0.0003        0.0003       0.000317       0.00069
  26     33.73        0.0000        0.0000        0.0001        0.0001       0.000140       0.00027
  25     40.54        0.0000        0.0000        0.0000        0.0001       0.000057       0.00010
  24     48.69        0.0000        0.0000        0.0000        0.0000       0.000021       0.00004
  23     57.69        0.0000        0.0000        0.0000        0.0000       0.000008       0.00001
  22     68.43        0.0000        0.0000        0.0000        0.0000       0.000003       0.00000
  21     81.20        0.0000        0.0000        0.0000        0.0000       0.000001       0.00000
  20     96.49        0.0000        0.0000        0.0000        0.0000       0.000000       0.00000
  19     114.6        0.0000        0.0000        0.0000        0.0000       0.000000       0.00000
  18     136.5        0.0000        0.0000        0.0000        0.0000       0.000000       0.00000
  17     162.9        0.0000        0.0000        0.0000        0.0000       0.000000       0.00000
  16     196.4        0.0000        0.0000        0.0000        0.0000       0.000000       0.00000
  15     218.7        0.0000        0.0000        0.0000        0.0000       0.000000       0.00000
  14     243.0        0.0000        0.0000        0.0000        0.0000       0.000000       0.00000
  13     269.0        0.0000        0.0000        0.0000        0.0000       0.000000       0.00000
  12     297.5        0.0000        0.0000        0.0000        0.0000       0.000000       0.00000
  11     328.5        0.0000        0.0000        0.0000        0.0000       0.000000       0.00000
  10     361.9        0.0000        0.0000        0.0000        0.0000       0.000000       0.00000
   9     398.1        0.0000        0.0000        0.0000        0.0000       0.000000       0.00000
   8     437.6        0.0000        0.0000        0.0000        0.0000       0.000000       0.00000
   7     480.5        0.0000        0.0000        0.0000        0.0000       0.000000       0.00000
   6     533.0        0.0000        0.0000        0.0000        0.0000       0.000000       0.00000
   5     589.8        0.0000        0.0000        0.0000        0.0000       0.000000       0.00000
   4     651.6        0.0000        0.0000        0.0000        0.0000       0.000000       0.00000
   3     718.7        0.0000        0.0000        0.0000        0.0000       0.000000       0.00000
   2     792.3        0.0000        0.0000        0.0000        0.0000       0.000000       0.00000
   1     891.5        0.0000        0.0000        0.0000        0.0000       0.000000       0.00000
   0    1013.0        0.0000        0.0000        0.0000        0.0000       0.000000       0.00000



 Wavenumbers:   820. -  2600. cm-1, ATM      1
 LEVEL PRESSURE   UPWARD FLUX   DIFDOWN FLUX  DIRDOWN FLUX  DOWNWARD FLUX   NET FLUX    HEATING RATE
          mb          W/m2          W/m2          W/m2        W/m2          W/m2       degree/day
  51    .06700        1.3612        0.0000        6.0047        6.0047       4.643467       0.00000
  50    .07753        1.3612        0.0000        6.0008        6.0008       4.639614       3.08824
  49    .09103        1.3612        0.0000        5.9999        5.9999       4.638729       0.55361
  48    0.1069        1.3612        0.0000        5.9989        5.9989       4.637739       0.52655
  47    0.1255        1.3612        0.0000        5.9978        5.9978       4.636622       0.50653
  46    0.1487        1.3612        0.0000        5.9964        5.9964       4.635265       0.49460
  45    0.1794        1.3612        0.0000        5.9947        5.9947       4.633546       0.47203
  44    0.2165        1.3612        0.0000        5.9929        5.9929       4.631703       0.41914
  43    0.2613        1.3612        0.0000        5.9909        5.9909       4.629744       0.36937
  42    0.3336        1.3612        0.0000        5.9880        5.9880       4.626865       0.33560
  41    0.4307        1.3612        0.0000        5.9846        5.9846       4.623395       0.30169
  40    0.5894        1.3612        0.0000        5.9791        5.9791       4.617889       0.29280
  39     1.339        1.3612        0.0000        5.9536        5.9536       4.592398       0.28698
  38     1.782        1.3612        0.0000        5.9395        5.9395       4.578257       0.26922
  37     2.292        1.3612        0.0000        5.9237        5.9237       4.562504       0.26093
  36     2.964        1.3612        0.0000        5.9039        5.9039       4.542726       0.24827
  35     3.853        1.3612        0.0000        5.8793        5.8793       4.518065       0.23404
  34     5.035        1.3612        0.0000        5.8487        5.8487       4.487496       0.21837
  33     6.613        1.3612        0.0000        5.8108        5.8108       4.449523       0.20300
  32     8.786        1.3613        0.0000        5.7631        5.7631       4.401888       0.18500
  31     11.80        1.3613        0.0000        5.7039        5.7039       4.342614       0.16595
  30     15.07        1.3613        0.0000        5.6539        5.6539       4.292556       0.12924
  29     18.79        1.3613        0.0000        5.6127        5.6127       4.251399       0.09332
  28     23.16        1.3614        0.0000        5.5794        5.5794       4.217996       0.06459
  27     28.12        1.3614        0.0000        5.5518        5.5518       4.190398       0.04691
  26     33.73        1.3615        0.0000        5.5268        5.5268       4.165308       0.03772
  25     40.54        1.3615        0.0000        5.4993        5.4993       4.137819       0.03410
  24     48.69        1.3616        0.0000        5.4678        5.4678       4.106221       0.03270
  23     57.69        1.3617        0.0000        5.4340        5.4340       4.072369       0.03173
  22     68.43        1.3617        0.0000        5.3947        5.3948       4.033016       0.03094
  21     81.20        1.3618        0.0000        5.3497        5.3497       3.987886       0.02982
  20     96.49        1.3620        0.0000        5.2982        5.2982       3.936250       0.02850
  19     114.6        1.3621        0.0000        5.2389        5.2389       3.876778       0.02777
  18     136.5        1.3623        0.0000        5.1716        5.1717       3.809331       0.02594
  17     162.9        1.3626        0.0000        5.0890        5.0891       3.726427       0.02650
  16     196.4        1.3631        0.0000        4.9668        4.9668       3.603715       0.03089
  15     218.7        1.3636        0.0000        4.8585        4.8585       3.494874       0.04132
  14     243.0        1.3644        0.0000        4.7078        4.7079       3.343485       0.05251
  13     269.0        1.3655        0.0000        4.5343        4.5343       3.168758       0.05668
  12     297.5        1.3674        0.0000        4.3419        4.3420       2.974601       0.05758
  11     328.5        1.3698        0.0000        4.1281        4.1281       2.758316       0.05881
  10     361.9        1.3731        0.0000        3.8786        3.8787       2.505578       0.06395
   9     398.1        1.3773        0.0000        3.6159        3.6160       2.238617       0.06220
   8     437.6        1.3828        0.0000        3.3759        3.3759       1.993069       0.05250
   7     480.5        1.3895        0.0000        3.1957        3.1958       1.806243       0.03669
   6     533.0        1.3998        0.0000        3.0467        3.0467       1.646955       0.02562
   5     589.8        1.4148        0.0000        2.9023        2.9023       1.487511       0.02367
   4     651.6        1.4410        0.0001        2.7183        2.7184       1.277386       0.02874
   3     718.7        1.4863        0.0001        2.5058        2.5059       1.019525       0.03241
   2     792.3        1.5741        0.0001        2.2756        2.2757       0.701606       0.03646
   1     891.5        0.0922        0.5417        0.0026        0.5443       0.452156       0.02123
   0    1013.0        0.1110        0.4403        0.0021        0.4424       0.331406       0.00838

  Modules and versions used in this calculation:

       rrtmg_sw.1col.f90:  $Revision$                    rrtmg_sw_init.f90:  $Revision$        
     rrtmgsw_cldprop.f90:  $Revision$                  rrtmgsw_cldprmc.f90:  NOT USED          
     rrtmg_sw_reftra.f90:  $Revision$                  rrtmg_sw_spcvrt.f90:  NOT USED          
     rrtmg_sw_spcvmc.f90:  NOT USED                    rrtmgsw_setcoef.f90:  NOT USED          
     rrtmg_sw_taumol.f90:  $Revision$                  rrtmg_sw_vrtqdr.f90:  NOT USED          
                rrtatm.f:  NOT USED                             util_xxx.f:  NOT USED          
                 extra.f:  NOT USED                       rrtmg_sw_k_g.f90:  $Revision$        

