

 Wavenumbers:   820. - 50000. cm-1, ATM      1
 LEVEL PRESSURE   UPWARD FLUX   DIFDOWN FLUX  DIRDOWN FLUX  DOWNWARD FLUX   NET FLUX    HEATING RATE
          mb          W/m2          W/m2          W/m2        W/m2          W/m2       degree/day
  51    .06700      379.2392        0.0000      617.8126      617.8126     238.573424       0.00000
  50    .07753      379.2388        0.0013      617.7947      617.7961     238.557287      12.93440
  49    .09103      379.2383        0.0030      617.7778      617.7808     238.542481       9.25428
  48    0.1069      379.2378        0.0050      617.7581      617.7631     238.525224       9.18605
  47    0.1255      379.2373        0.0072      617.7340      617.7412     238.503884       9.67423
  46    0.1487      379.2367        0.0100      617.7009      617.7109     238.474206      10.81806
  45    0.1794      379.2360        0.0139      617.6521      617.6660     238.429986      12.13947
  44    0.2165      379.2352        0.0184      617.5895      617.6079     238.372679      13.03644
  43    0.2613      379.2345        0.0238      617.5089      617.5327     238.298184      14.04197
  42    0.3336      379.2336        0.0326      617.3641      617.3967     238.163131      15.74582
  41    0.4307      379.2328        0.0442      617.1591      617.2033     237.970554      16.74411
  40    0.5894      379.2324        0.0629      616.8005      616.8634     237.630948      18.05982
  39     1.339      379.2490        0.1476      614.9443      615.0919     235.842907      20.13009
  38     1.782      379.2712        0.1953      613.9670      614.1623     234.891108      18.12072
  37     2.292      379.3082        0.2495      613.0059      613.2554     233.947146      15.63448
  36     2.964      379.3739        0.3200      611.9577      612.2776     232.903701      13.09839
  35     3.853      379.4845        0.4124      610.8024      611.2148     231.730299      11.13580
  34     5.035      379.6548        0.5343      609.5327      610.0671     230.412301       9.41523
  33     6.613      379.8947        0.6962      608.1464      608.8427     228.947993       7.82819
  32     8.786      380.2071        0.9134      606.6250      607.5384     227.331310       6.27861
  31     11.80      380.6114        1.2226      604.8486      606.0712     225.459781       5.23969
  30     15.07      380.9959        1.5525      603.2440      604.7964     223.800547       4.28382
  29     18.79      381.3858        1.9237      601.6511      603.5748     222.189006       3.65386
  28     23.16      381.7902        2.3550      599.9927      602.3477     220.557558       3.15469
  27     28.12      382.1927        2.8460      598.2881      601.1340     218.941328       2.74748
  26     33.73      382.5556        3.3933      596.5951      599.9884     217.432771       2.26816
  25     40.54      382.8920        4.0522      594.7727      598.8249     215.932907       1.86075
  24     48.69      383.1987        4.8429      592.7865      597.6293     214.430687       1.55456
  23     57.69      383.4396        5.7071      590.7959      596.5030     213.063461       1.28157
  22     68.43      383.6223        6.7310      588.6191      595.3501     211.727779       1.05002
  21     81.20      383.6954        7.9449      586.2690      594.2139     210.518538       0.79905
  20     96.49      383.6481        9.3822      583.6961      593.0783     209.430133       0.60072
  19     114.6      383.5400       11.0731      580.7708      591.8439     208.303906       0.52587
  18     136.5      383.3670       13.0530      577.4359      590.4889     207.121904       0.45451
  17     162.9      383.1224       15.3765      573.5624      588.9389     205.816470       0.41727
  16     196.4      382.7168       18.3394      568.5907      586.9301     204.213313       0.40353
  15     218.7      382.4205       20.2550      565.0572      585.3122     202.891723       0.50176
  14     243.0      382.0878       22.3096      560.7495      583.0591     200.971294       0.66607
  13     269.0      381.7175       24.5045      555.3947      579.8992     198.181655       0.90495
  12     297.5      381.3109       26.8404      548.9964      575.8368     194.525870       1.08427
  11     328.5      380.8756       29.3238      542.0895      571.4133     190.537744       1.08436
  10     361.9      380.4145       31.9508      534.6242      566.5750     186.160538       1.10748
   9     398.1      379.9308       34.7260      526.4204      561.1464     181.215583       1.15206
   8     437.6      379.4334       37.6480      517.3907      555.0387     175.605304       1.19951
   7     480.5      378.9299       40.7149      507.7216      548.4365     169.506649       1.19775
   6     533.0      378.3645       44.4021      495.9006      540.3027     161.938200       1.21752
   5     589.8      377.8508       48.2712      483.0788      531.3500     153.499247       1.25262
   4     651.6      377.4839       52.3098      468.6907      521.0005     143.516514       1.36517
   3     718.7      377.3656       56.5097      453.2257      509.7355     132.369873       1.40082
   2     792.3      377.7404       60.8495      436.4928      497.3423     119.601896       1.46434
   1     891.5      379.5119       66.4570      413.9344      480.3915     100.879598       1.59318
   0    1013.0      384.7026       72.8362      388.4125      461.2487      76.546109       1.68960



 Wavenumbers:  2600. -  3250. cm-1, ATM      1
 LEVEL PRESSURE   UPWARD FLUX   DIFDOWN FLUX  DIRDOWN FLUX  DOWNWARD FLUX   NET FLUX    HEATING RATE
          mb          W/m2          W/m2          W/m2        W/m2          W/m2       degree/day
  51    .06700        0.0227        0.0000        5.4450        5.4450       5.422336       0.00000
  50    .07753        0.0227        0.0000        5.4450        5.4450       5.422328       0.00640
  49    .09103        0.0227        0.0000        5.4450        5.4450       5.422318       0.00627
  48    0.1069        0.0227        0.0000        5.4450        5.4450       5.422306       0.00613
  47    0.1255        0.0227        0.0000        5.4450        5.4450       5.422293       0.00599
  46    0.1487        0.0227        0.0000        5.4450        5.4450       5.422276       0.00608
  45    0.1794        0.0227        0.0000        5.4450        5.4450       5.422253       0.00625
  44    0.2165        0.0227        0.0000        5.4449        5.4449       5.422226       0.00612
  43    0.2613        0.0227        0.0000        5.4449        5.4449       5.422195       0.00600
  42    0.3336        0.0227        0.0000        5.4448        5.4448       5.422142       0.00617
  41    0.4307        0.0227        0.0000        5.4448        5.4448       5.422070       0.00620
  40    0.5894        0.0227        0.0000        5.4446        5.4446       5.421951       0.00637
  39     1.339        0.0227        0.0000        5.4439        5.4439       5.421243       0.00797
  38     1.782        0.0227        0.0000        5.4434        5.4434       5.420700       0.01034
  37     2.292        0.0227        0.0000        5.4427        5.4427       5.419984       0.01186
  36     2.964        0.0227        0.0000        5.4416        5.4416       5.418946       0.01304
  35     3.853        0.0227        0.0000        5.4402        5.4402       5.417468       0.01402
  34     5.035        0.0227        0.0000        5.4381        5.4381       5.415413       0.01468
  33     6.613        0.0227        0.0000        5.4353        5.4353       5.412632       0.01487
  32     8.786        0.0227        0.0000        5.4317        5.4317       5.409000       0.01411
  31     11.80        0.0227        0.0000        5.4269        5.4269       5.404220       0.01338
  30     15.07        0.0227        0.0000        5.4224        5.4224       5.399694       0.01169
  29     18.79        0.0227        0.0000        5.4180        5.4180       5.395283       0.01000
  28     23.16        0.0227        0.0000        5.4135        5.4135       5.390797       0.00867
  27     28.12        0.0227        0.0000        5.4088        5.4088       5.386151       0.00790
  26     33.73        0.0227        0.0000        5.4036        5.4036       5.380912       0.00788
  25     40.54        0.0227        0.0000        5.3966        5.3967       5.373973       0.00861
  24     48.69        0.0227        0.0000        5.3872        5.3872       5.364500       0.00980
  23     57.69        0.0227        0.0000        5.3754        5.3754       5.352720       0.01104
  22     68.43        0.0227        0.0000        5.3599        5.3599       5.337240       0.01217
  21     81.20        0.0227        0.0000        5.3401        5.3401       5.317416       0.01310
  20     96.49        0.0227        0.0000        5.3155        5.3155       5.292863       0.01355
  19     114.6        0.0227        0.0000        5.2853        5.2853       5.262685       0.01409
  18     136.5        0.0227        0.0000        5.2504        5.2505       5.227802       0.01341
  17     162.9        0.0226        0.0001        5.2111        5.2111       5.188495       0.01256
  16     196.4        0.0226        0.0001        5.1640        5.1641       5.141462       0.01184
  15     218.7        0.0226        0.0001        5.1331        5.1332       5.110544       0.01174
  14     243.0        0.0226        0.0001        5.0962        5.0963       5.073661       0.01279
  13     269.0        0.0226        0.0001        5.0511        5.0512       5.028543       0.01464
  12     297.5        0.0226        0.0001        4.9956        4.9957       4.973056       0.01646
  11     328.5        0.0227        0.0001        4.9304        4.9305       4.907818       0.01774
  10     361.9        0.0227        0.0001        4.8511        4.8512       4.828533       0.02006
   9     398.1        0.0227        0.0001        4.7507        4.7508       4.728093       0.02340
   8     437.6        0.0228        0.0001        4.6220        4.6222       4.599406       0.02751
   7     480.5        0.0228        0.0001        4.4625        4.4626       4.439786       0.03135
   6     533.0        0.0230        0.0002        4.2460        4.2462       4.223238       0.03484
   5     589.8        0.0231        0.0002        3.9954        3.9956       3.972430       0.03723
   4     651.6        0.0234        0.0002        3.7089        3.7090       3.685595       0.03923
   3     718.7        0.0239        0.0002        3.4018        3.4020       3.378101       0.03864
   2     792.3        0.0246        0.0002        3.0564        3.0566       3.031956       0.03970
   1     891.5        0.0264        0.0002        2.5828        2.5830       2.556611       0.04045
   0    1013.0        0.0304        0.0001        2.0845        2.0847       2.054226       0.03488



 Wavenumbers:  3250. -  4000. cm-1, ATM      1
 LEVEL PRESSURE   UPWARD FLUX   DIFDOWN FLUX  DIRDOWN FLUX  DOWNWARD FLUX   NET FLUX    HEATING RATE
          mb          W/m2          W/m2          W/m2        W/m2          W/m2       degree/day
  51    .06700        0.0005        0.0000        9.1795        9.1795       9.179064       0.00000
  50    .07753        0.0005        0.0000        9.1747        9.1747       9.174222       3.88148
  49    .09103        0.0005        0.0000        9.1713        9.1713       9.170834       2.11747
  48    0.1069        0.0005        0.0000        9.1688        9.1688       9.168309       1.34402
  47    0.1255        0.0005        0.0000        9.1665        9.1665       9.166050       1.02422
  46    0.1487        0.0005        0.0000        9.1641        9.1641       9.163608       0.88991
  45    0.1794        0.0005        0.0000        9.1612        9.1612       9.160730       0.79008
  44    0.2165        0.0005        0.0000        9.1583        9.1583       9.157810       0.66430
  43    0.2613        0.0005        0.0000        9.1553        9.1553       9.154837       0.56041
  42    0.3336        0.0005        0.0000        9.1511        9.1511       9.150658       0.48723
  41    0.4307        0.0005        0.0000        9.1464        9.1464       9.145890       0.41459
  40    0.5894        0.0005        0.0000        9.1393        9.1394       9.138884       0.37255
  39     1.339        0.0005        0.0000        9.1127        9.1127       9.112271       0.29962
  38     1.782        0.0005        0.0000        9.1011        9.1011       9.100682       0.22062
  37     2.292        0.0005        0.0000        9.0901        9.0901       9.089616       0.18329
  36     2.964        0.0005        0.0000        9.0776        9.0776       9.077186       0.15603
  35     3.853        0.0005        0.0000        9.0629        9.0629       9.062396       0.14036
  34     5.035        0.0005        0.0000        9.0441        9.0441       9.043657       0.13386
  33     6.613        0.0005        0.0000        9.0191        9.0191       9.018655       0.13366
  32     8.786        0.0005        0.0000        8.9843        8.9843       8.983872       0.13509
  31     11.80        0.0004        0.0000        8.9327        8.9327       8.932255       0.14451
  30     15.07        0.0004        0.0000        8.8758        8.8759       8.875410       0.14676
  29     18.79        0.0004        0.0000        8.8110        8.8110       8.810583       0.14698
  28     23.16        0.0004        0.0000        8.7365        8.7366       8.736138       0.14395
  27     28.12        0.0004        0.0000        8.6554        8.6555       8.655025       0.13789
  26     33.73        0.0004        0.0000        8.5719        8.5719       8.571526       0.12554
  25     40.54        0.0004        0.0001        8.4812        8.4812       8.480802       0.11255
  24     48.69        0.0004        0.0001        8.3838        8.3839       8.383501       0.10069
  23     57.69        0.0004        0.0001        8.2861        8.2862       8.285765       0.09161
  22     68.43        0.0004        0.0001        8.1751        8.1751       8.174769       0.08726
  21     81.20        0.0004        0.0001        8.0457        8.0458       8.045411       0.08548
  20     96.49        0.0003        0.0001        7.8949        7.8950       7.894707       0.08318
  19     114.6        0.0003        0.0001        7.7162        7.7163       7.715998       0.08344
  18     136.5        0.0003        0.0002        7.5193        7.5194       7.519154       0.07569
  17     162.9        0.0003        0.0002        7.2913        7.2915       7.291263       0.07284
  16     196.4        0.0002        0.0002        6.9660        6.9662       6.965991       0.08187
  15     218.7        0.0002        0.0002        6.6648        6.6650       6.664802       0.11435
  14     243.0        0.0002        0.0002        6.2619        6.2622       6.262008       0.13970
  13     269.0        0.0002        0.0003        5.7576        5.7579       5.757708       0.16359
  12     297.5        0.0001        0.0003        5.1719        5.1722       5.172018       0.17371
  11     328.5        0.0001        0.0002        4.5757        4.5760       4.575858       0.16209
  10     361.9        0.0001        0.0002        3.9995        3.9998       3.999684       0.14578
   9     398.1        0.0001        0.0002        3.4655        3.4657       3.465628       0.12442
   8     437.6        0.0001        0.0002        2.9740        2.9742       2.974182       0.10507
   7     480.5        0.0001        0.0002        2.5307        2.5309       2.530811       0.08708
   6     533.0        0.0000        0.0002        2.0614        2.0616       2.061519       0.07549
   5     589.8        0.0000        0.0002        1.6150        1.6151       1.615096       0.06626
   4     651.6        0.0000        0.0001        1.1565        1.1566       1.156563       0.06271
   3     718.7        0.0000        0.0001        0.7390        0.7391       0.739090       0.05246
   2     792.3        0.0000        0.0001        0.3985        0.3985       0.398509       0.03906
   1     891.5        0.0000        0.0000        0.1139        0.1139       0.113927       0.02422
   0    1013.0        0.0002        0.0000        0.0094        0.0094       0.009173       0.00727



 Wavenumbers:  4000. -  4650. cm-1, ATM      1
 LEVEL PRESSURE   UPWARD FLUX   DIFDOWN FLUX  DIRDOWN FLUX  DOWNWARD FLUX   NET FLUX    HEATING RATE
          mb          W/m2          W/m2          W/m2        W/m2          W/m2       degree/day
  51    .06700        0.5470        0.0000       10.7795       10.7795      10.232541       0.00000
  50    .07753        0.5470        0.0000       10.7795       10.7795      10.232540       0.00080
  49    .09103        0.5470        0.0000       10.7795       10.7795      10.232539       0.00078
  48    0.1069        0.5470        0.0000       10.7795       10.7795      10.232537       0.00076
  47    0.1255        0.5470        0.0000       10.7795       10.7795      10.232536       0.00075
  46    0.1487        0.5470        0.0000       10.7795       10.7795      10.232533       0.00076
  45    0.1794        0.5470        0.0000       10.7795       10.7795      10.232531       0.00078
  44    0.2165        0.5470        0.0000       10.7795       10.7795      10.232527       0.00076
  43    0.2613        0.5470        0.0000       10.7795       10.7795      10.232523       0.00075
  42    0.3336        0.5470        0.0000       10.7795       10.7795      10.232517       0.00077
  41    0.4307        0.5470        0.0000       10.7795       10.7795      10.232508       0.00077
  40    0.5894        0.5470        0.0000       10.7795       10.7795      10.232493       0.00080
  39     1.339        0.5470        0.0000       10.7794       10.7794      10.232404       0.00101
  38     1.782        0.5470        0.0000       10.7793       10.7793      10.232334       0.00133
  37     2.292        0.5470        0.0000       10.7792       10.7792      10.232240       0.00156
  36     2.964        0.5470        0.0000       10.7791       10.7791      10.232100       0.00176
  35     3.853        0.5470        0.0000       10.7789       10.7789      10.231892       0.00197
  34     5.035        0.5470        0.0000       10.7786       10.7786      10.231585       0.00219
  33     6.613        0.5470        0.0000       10.7781       10.7781      10.231134       0.00241
  32     8.786        0.5470        0.0000       10.7774       10.7774      10.230468       0.00259
  31     11.80        0.5470        0.0000       10.7763       10.7764      10.229422       0.00293
  30     15.07        0.5470        0.0001       10.7751       10.7751      10.228196       0.00317
  29     18.79        0.5469        0.0001       10.7736       10.7737      10.226713       0.00336
  28     23.16        0.5469        0.0001       10.7717       10.7718      10.224874       0.00356
  27     28.12        0.5469        0.0001       10.7695       10.7696      10.222648       0.00378
  26     33.73        0.5469        0.0001       10.7667       10.7668      10.219906       0.00412
  25     40.54        0.5469        0.0001       10.7629       10.7631      10.216190       0.00461
  24     48.69        0.5468        0.0002       10.7579       10.7581      10.211243       0.00512
  23     57.69        0.5468        0.0002       10.7520       10.7522      10.205386       0.00549
  22     68.43        0.5468        0.0002       10.7446       10.7448      10.198055       0.00576
  21     81.20        0.5468        0.0003       10.7355       10.7358      10.189042       0.00596
  20     96.49        0.5467        0.0004       10.7245       10.7248      10.178096       0.00604
  19     114.6        0.5467        0.0004       10.7107       10.7111      10.164442       0.00638
  18     136.5        0.5467        0.0005       10.6942       10.6947      10.148034       0.00631
  17     162.9        0.5466        0.0006       10.6740       10.6746      10.127988       0.00641
  16     196.4        0.5466        0.0007       10.6464       10.6471      10.100473       0.00693
  15     218.7        0.5466        0.0008       10.6255       10.6262      10.079641       0.00791
  14     243.0        0.5466        0.0009       10.5980       10.5989      10.052280       0.00949
  13     269.0        0.5467        0.0010       10.5611       10.5620      10.015315       0.01199
  12     297.5        0.5469        0.0011       10.5119       10.5130       9.966092       0.01460
  11     328.5        0.5472        0.0012       10.4499       10.4510       9.903860       0.01692
  10     361.9        0.5475        0.0013       10.3702       10.3714       9.823900       0.02023
   9     398.1        0.5480        0.0014       10.2678       10.2692       9.721134       0.02394
   8     437.6        0.5486        0.0015       10.1390       10.1405       9.591846       0.02764
   7     480.5        0.5494        0.0016        9.9877        9.9893       9.439886       0.02984
   6     533.0        0.5506        0.0018        9.7937        9.7955       9.244805       0.03138
   5     589.8        0.5524        0.0019        9.5752        9.5771       9.024716       0.03267
   4     651.6        0.5550        0.0021        9.2958        9.2979       8.742822       0.03855
   3     718.7        0.5593        0.0022        8.9267        8.9289       8.369660       0.04690
   2     792.3        0.5663        0.0023        8.4542        8.4565       7.890219       0.05499
   1     891.5        0.5826        0.0024        7.7948        7.7972       7.214592       0.05749
   0    1013.0        0.6208        0.0025        7.0767        7.0791       6.458363       0.05251



 Wavenumbers:  4650. -  5150. cm-1, ATM      1
 LEVEL PRESSURE   UPWARD FLUX   DIFDOWN FLUX  DIRDOWN FLUX  DOWNWARD FLUX   NET FLUX    HEATING RATE
          mb          W/m2          W/m2          W/m2        W/m2          W/m2       degree/day
  51    .06700        0.1066        0.0000       10.2033       10.2033      10.096792       0.00000
  50    .07753        0.1066        0.0000       10.2031       10.2031      10.096556       0.18901
  49    .09103        0.1066        0.0000       10.2028       10.2028      10.096261       0.18428
  48    0.1069        0.1066        0.0000       10.2025       10.2025      10.095924       0.17931
  47    0.1255        0.1066        0.0000       10.2021       10.2021      10.095540       0.17426
  46    0.1487        0.1066        0.0000       10.2016       10.2016      10.095059       0.17536
  45    0.1794        0.1066        0.0000       10.2010       10.2010      10.094409       0.17850
  44    0.2165        0.1065        0.0000       10.2002       10.2002      10.093649       0.17277
  43    0.2613        0.1065        0.0000       10.1993       10.1993      10.092764       0.16690
  42    0.3336        0.1065        0.0000       10.1979       10.1979      10.091331       0.16702
  41    0.4307        0.1065        0.0000       10.1960       10.1960      10.089491       0.16002
  40    0.5894        0.1065        0.0000       10.1932       10.1932      10.086617       0.15283
  39     1.339        0.1065        0.0000       10.1816       10.1816      10.075026       0.13050
  38     1.782        0.1065        0.0000       10.1760       10.1760      10.069497       0.10525
  37     2.292        0.1065        0.0000       10.1706       10.1706      10.064041       0.09036
  36     2.964        0.1065        0.0000       10.1646       10.1647      10.058119       0.07434
  35     3.853        0.1065        0.0000       10.1584       10.1584      10.051906       0.05896
  34     5.035        0.1065        0.0000       10.1521       10.1521      10.045573       0.04524
  33     6.613        0.1065        0.0000       10.1456       10.1456      10.039119       0.03450
  32     8.786        0.1065        0.0000       10.1386       10.1386      10.032114       0.02720
  31     11.80        0.1065        0.0001       10.1295       10.1296      10.023084       0.02528
  30     15.07        0.1065        0.0001       10.1196       10.1197      10.013219       0.02547
  29     18.79        0.1065        0.0001       10.1076       10.1077      10.001230       0.02718
  28     23.16        0.1064        0.0001       10.0923       10.0924       9.985951       0.02954
  27     28.12        0.1064        0.0002       10.0731       10.0733       9.966891       0.03240
  26     33.73        0.1064        0.0002       10.0500       10.0502       9.943842       0.03466
  25     40.54        0.1063        0.0002       10.0201       10.0203       9.914001       0.03702
  24     48.69        0.1063        0.0003        9.9820        9.9822       9.875916       0.03941
  23     57.69        0.1063        0.0003        9.9384        9.9388       9.832487       0.04071
  22     68.43        0.1062        0.0004        9.8858        9.8861       9.779904       0.04134
  21     81.20        0.1062        0.0004        9.8234        9.8239       9.717717       0.04109
  20     96.49        0.1061        0.0005        9.7518        9.7523       9.646176       0.03949
  19     114.6        0.1060        0.0006        9.6719        9.6725       9.566500       0.03720
  18     136.5        0.1059        0.0007        9.5858        9.5865       9.480570       0.03304
  17     162.9        0.1058        0.0008        9.4940        9.4949       9.389036       0.02926
  16     196.4        0.1057        0.0010        9.3883        9.3893       9.283544       0.02655
  15     218.7        0.1057        0.0011        9.3229        9.3240       9.218357       0.02475
  14     243.0        0.1056        0.0012        9.2520        9.2532       9.147591       0.02454
  13     269.0        0.1056        0.0013        9.1717        9.1730       9.067449       0.02600
  12     297.5        0.1055        0.0015        9.0763        9.0777       8.972229       0.02824
  11     328.5        0.1055        0.0016        8.9650        8.9666       8.861066       0.03022
  10     361.9        0.1055        0.0017        8.8349        8.8367       8.731138       0.03287
   9     398.1        0.1056        0.0019        8.6820        8.6839       8.578330       0.03560
   8     437.6        0.1057        0.0020        8.5028        8.5048       8.399157       0.03831
   7     480.5        0.1058        0.0022        8.2948        8.2970       8.191141       0.04085
   6     533.0        0.1062        0.0023        8.0209        8.0232       7.917064       0.04409
   5     589.8        0.1067        0.0025        7.7063        7.7088       7.602159       0.04674
   4     651.6        0.1075        0.0026        7.3412        7.3439       7.236381       0.05002
   3     718.7        0.1088        0.0027        6.9387        6.9414       6.832636       0.05074
   2     792.3        0.1108        0.0028        6.5066        6.5094       6.398590       0.04978
   1     891.5        0.1153        0.0029        5.9361        5.9390       5.823670       0.04892
   0    1013.0        0.1247        0.0030        5.3025        5.3055       5.180805       0.04464



 Wavenumbers:  5150. -  6150. cm-1, ATM      1
 LEVEL PRESSURE   UPWARD FLUX   DIFDOWN FLUX  DIRDOWN FLUX  DOWNWARD FLUX   NET FLUX    HEATING RATE
          mb          W/m2          W/m2          W/m2        W/m2          W/m2       degree/day
  51    .06700        1.2447        0.0000       25.5798       25.5798      24.335126       0.00000
  50    .07753        1.2447        0.0000       25.5798       25.5798      24.335087       0.03156
  49    .09103        1.2447        0.0000       25.5797       25.5797      24.335036       0.03204
  48    0.1069        1.2447        0.0000       25.5797       25.5797      24.334975       0.03255
  47    0.1255        1.2447        0.0000       25.5796       25.5796      24.334902       0.03305
  46    0.1487        1.2447        0.0000       25.5795       25.5795      24.334806       0.03483
  45    0.1794        1.2447        0.0000       25.5794       25.5794      24.334671       0.03707
  44    0.2165        1.2447        0.0000       25.5792       25.5792      24.334506       0.03763
  43    0.2613        1.2447        0.0000       25.5790       25.5790      24.334303       0.03821
  42    0.3336        1.2447        0.0000       25.5786       25.5786      24.333957       0.04037
  41    0.4307        1.2447        0.0000       25.5782       25.5782      24.333486       0.04092
  40    0.5894        1.2447        0.0000       25.5774       25.5774      24.332698       0.04192
  39     1.339        1.2447        0.0000       25.5735       25.5736      24.328901       0.04275
  38     1.782        1.2447        0.0000       25.5713       25.5713      24.326691       0.04207
  37     2.292        1.2446        0.0001       25.5688       25.5688      24.324191       0.04141
  36     2.964        1.2446        0.0001       25.5656       25.5656      24.321015       0.03987
  35     3.853        1.2446        0.0001       25.5615       25.5616      24.316980       0.03829
  34     5.035        1.2446        0.0001       25.5562       25.5564      24.311786       0.03711
  33     6.613        1.2445        0.0002       25.5494       25.5496      24.305049       0.03601
  32     8.786        1.2445        0.0002       25.5406       25.5408      24.296324       0.03389
  31     11.80        1.2444        0.0003       25.5287       25.5290      24.284529       0.03302
  30     15.07        1.2444        0.0004       25.5167       25.5171      24.272708       0.03052
  29     18.79        1.2443        0.0005       25.5042       25.5046      24.260359       0.02800
  28     23.16        1.2442        0.0006       25.4907       25.4913      24.247067       0.02570
  27     28.12        1.2441        0.0007       25.4764       25.4772      24.233064       0.02380
  26     33.73        1.2440        0.0009       25.4620       25.4629      24.218893       0.02131
  25     40.54        1.2439        0.0010       25.4463       25.4473      24.203429       0.01919
  24     48.69        1.2437        0.0012       25.4294       25.4306      24.186910       0.01709
  23     57.69        1.2435        0.0015       25.4126       25.4141      24.170551       0.01533
  22     68.43        1.2433        0.0017       25.3944       25.3962      24.152833       0.01393
  21     81.20        1.2431        0.0021       25.3744       25.3765      24.133380       0.01285
  20     96.49        1.2428        0.0025       25.3519       25.3544      24.111561       0.01204
  19     114.6        1.2425        0.0029       25.3262       25.3291      24.086574       0.01167
  18     136.5        1.2421        0.0035       25.2962       25.2997      24.057522       0.01117
  17     162.9        1.2417        0.0041       25.2521       25.2562      24.014521       0.01374
  16     196.4        1.2411        0.0049       25.1593       25.1642      23.923116       0.02301
  15     218.7        1.2408        0.0055       25.0159       25.0214      23.780640       0.05409
  14     243.0        1.2404        0.0060       24.7089       24.7149      23.474536       0.10617
  13     269.0        1.2400        0.0065       24.1619       24.1684      22.928357       0.17718
  12     297.5        1.2397        0.0070       23.4544       23.4614      22.221725       0.20958
  11     328.5        1.2394        0.0075       22.7355       22.7430      21.503626       0.19525
  10     361.9        1.2391        0.0080       21.9224       21.9304      20.691348       0.20551
   9     398.1        1.2389        0.0085       20.9939       21.0024      19.763496       0.21617
   8     437.6        1.2388        0.0089       19.9833       19.9922      18.753423       0.21596
   7     480.5        1.2388        0.0093       18.9483       18.9576      17.718728       0.20321
   6     533.0        1.2392        0.0097       17.7796       17.7893      16.550114       0.18799
   5     589.8        1.2400        0.0101       16.6726       16.6826      15.442656       0.16438
   4     651.6        1.2419        0.0105       15.6343       15.6448      14.402860       0.14219
   3     718.7        1.2456        0.0109       14.7738       14.7847      13.539060       0.10856
   2     792.3        1.2529        0.0114       14.0291       14.0406      12.787611       0.08618
   1     891.5        1.2723        0.0121       13.0822       13.0943      11.821997       0.08217
   0    1013.0        1.3277        0.0127       12.0384       12.0511      10.723423       0.07628



 Wavenumbers:  6150. -  7700. cm-1, ATM      1
 LEVEL PRESSURE   UPWARD FLUX   DIFDOWN FLUX  DIRDOWN FLUX  DOWNWARD FLUX   NET FLUX    HEATING RATE
          mb          W/m2          W/m2          W/m2        W/m2          W/m2       degree/day
  51    .06700        2.4232        0.0000       47.3109       47.3109      44.887645       0.00000
  50    .07753        2.4232        0.0000       47.3108       47.3108      44.887588       0.04553
  49    .09103        2.4232        0.0000       47.3107       47.3107      44.887515       0.04583
  48    0.1069        2.4232        0.0000       47.3106       47.3106      44.887428       0.04614
  47    0.1255        2.4232        0.0000       47.3105       47.3105      44.887326       0.04645
  46    0.1487        2.4232        0.0000       47.3104       47.3104      44.887193       0.04852
  45    0.1794        2.4232        0.0000       47.3102       47.3102      44.887006       0.05127
  44    0.2165        2.4232        0.0000       47.3100       47.3100      44.886779       0.05167
  43    0.2613        2.4232        0.0000       47.3097       47.3097      44.886502       0.05210
  42    0.3336        2.4232        0.0000       47.3092       47.3092      44.886033       0.05471
  41    0.4307        2.4232        0.0000       47.3085       47.3086      44.885398       0.05521
  40    0.5894        2.4232        0.0001       47.3074       47.3075      44.884339       0.05633
  39     1.339        2.4231        0.0001       47.3022       47.3023      44.879247       0.05733
  38     1.782        2.4230        0.0002       47.2991       47.2993      44.876277       0.05655
  37     2.292        2.4230        0.0002       47.2956       47.2959      44.872901       0.05591
  36     2.964        2.4229        0.0003       47.2912       47.2915      44.868583       0.05421
  35     3.853        2.4228        0.0004       47.2855       47.2859      44.863048       0.05252
  34     5.035        2.4227        0.0005       47.2780       47.2786      44.855868       0.05129
  33     6.613        2.4226        0.0007       47.2683       47.2690      44.846480       0.05019
  32     8.786        2.4223        0.0009       47.2556       47.2565      44.834181       0.04776
  31     11.80        2.4220        0.0013       47.2380       47.2393      44.817278       0.04732
  30     15.07        2.4217        0.0016       47.2201       47.2217      44.799991       0.04463
  29     18.79        2.4213        0.0020       47.2008       47.2028      44.781513       0.04190
  28     23.16        2.4209        0.0025       47.1795       47.1820      44.761124       0.03943
  27     28.12        2.4204        0.0030       47.1565       47.1595      44.739133       0.03738
  26     33.73        2.4198        0.0036       47.1324       47.1361      44.716214       0.03446
  25     40.54        2.4192        0.0044       47.1054       47.1097      44.690582       0.03180
  24     48.69        2.4183        0.0053       47.0754       47.0807      44.662334       0.02923
  23     57.69        2.4174        0.0062       47.0449       47.0512      44.633718       0.02682
  22     68.43        2.4164        0.0074       47.0110       47.0184      44.601990       0.02494
  21     81.20        2.4151        0.0087       46.9729       46.9816      44.566508       0.02345
  20     96.49        2.4136        0.0104       46.9294       46.9398      44.526184       0.02226
  19     114.6        2.4118        0.0123       46.8790       46.8913      44.479577       0.02176
  18     136.5        2.4096        0.0146       46.8200       46.8346      44.424991       0.02099
  17     162.9        2.4071        0.0174       46.7361       46.7535      44.346439       0.02511
  16     196.4        2.4037        0.0209       46.5703       46.5912      44.187417       0.04003
  15     218.7        2.4016        0.0232       46.3473       46.3705      43.968876       0.08297
  14     243.0        2.3993        0.0255       45.9299       45.9554      43.556084       0.14317
  13     269.0        2.3970        0.0279       45.1708       45.1987      42.801701       0.24472
  12     297.5        2.3946        0.0301       44.0115       44.0416      41.647009       0.34247
  11     328.5        2.3922        0.0323       42.7242       42.7566      40.364388       0.34874
  10     361.9        2.3899        0.0346       41.3539       41.3885      38.998666       0.34554
   9     398.1        2.3877        0.0367       39.7953       39.8320      37.444299       0.36213
   8     437.6        2.3858        0.0386       37.9948       38.0334      35.647574       0.38415
   7     480.5        2.3844        0.0403       36.0647       36.1051      33.720630       0.37844
   6     533.0        2.3838        0.0421       33.7773       33.8194      31.435527       0.36760
   5     589.8        2.3852        0.0435       31.4082       31.4517      29.066505       0.35164
   4     651.6        2.3906        0.0444       28.8834       28.9278      26.537167       0.34589
   3     718.7        2.4030        0.0450       26.4104       26.4554      24.052373       0.31227
   2     792.3        2.4287        0.0454       24.0056       24.0510      21.622243       0.27871
   1     891.5        2.4975        0.0456       21.2348       21.2804      18.782824       0.24162
   0    1013.0        2.6855        0.0458       18.6150       18.6608      15.975299       0.19494



 Wavenumbers:  7700. -  8050. cm-1, ATM      1
 LEVEL PRESSURE   UPWARD FLUX   DIFDOWN FLUX  DIRDOWN FLUX  DOWNWARD FLUX   NET FLUX    HEATING RATE
          mb          W/m2          W/m2          W/m2        W/m2          W/m2       degree/day
  51    .06700        4.3230        0.0000       11.1810       11.1810       6.858003       0.00000
  50    .07753        4.3230        0.0000       11.1809       11.1809       6.857983       0.01649
  49    .09103        4.3230        0.0000       11.1809       11.1809       6.857957       0.01616
  48    0.1069        4.3230        0.0000       11.1809       11.1809       6.857927       0.01582
  47    0.1255        4.3230        0.0000       11.1809       11.1809       6.857893       0.01549
  46    0.1487        4.3230        0.0000       11.1808       11.1808       6.857850       0.01571
  45    0.1794        4.3230        0.0000       11.1808       11.1808       6.857791       0.01617
  44    0.2165        4.3230        0.0000       11.1807       11.1807       6.857721       0.01586
  43    0.2613        4.3230        0.0000       11.1806       11.1806       6.857639       0.01556
  42    0.3336        4.3230        0.0000       11.1805       11.1805       6.857502       0.01593
  41    0.4307        4.3230        0.0000       11.1803       11.1804       6.857321       0.01575
  40    0.5894        4.3231        0.0000       11.1801       11.1801       6.857025       0.01573
  39     1.339        4.3233        0.0001       11.1788       11.1789       6.855625       0.01576
  38     1.782        4.3234        0.0001       11.1781       11.1782       6.854803       0.01565
  37     2.292        4.3235        0.0001       11.1772       11.1773       6.853852       0.01576
  36     2.964        4.3236        0.0001       11.1761       11.1762       6.852602       0.01568
  35     3.853        4.3238        0.0002       11.1746       11.1748       6.850952       0.01566
  34     5.035        4.3241        0.0003       11.1726       11.1729       6.848760       0.01566
  33     6.613        4.3245        0.0003       11.1700       11.1703       6.845832       0.01565
  32     8.786        4.3249        0.0004       11.1664       11.1668       6.841889       0.01531
  31     11.80        4.3256        0.0006       11.1613       11.1619       6.836252       0.01578
  30     15.07        4.3264        0.0008       11.1558       11.1566       6.830206       0.01561
  29     18.79        4.3273        0.0010       11.1497       11.1506       6.823385       0.01547
  28     23.16        4.3283        0.0012       11.1425       11.1437       6.815431       0.01538
  27     28.12        4.3294        0.0014       11.1343       11.1358       6.806351       0.01543
  26     33.73        4.3307        0.0017       11.1252       11.1269       6.796214       0.01524
  25     40.54        4.3323        0.0021       11.1142       11.1163       6.783999       0.01515
  24     48.69        4.3342        0.0025       11.1010       11.1035       6.769324       0.01519
  23     57.69        4.3363        0.0029       11.0866       11.0895       6.753268       0.01505
  22     68.43        4.3388        0.0035       11.0695       11.0730       6.734235       0.01496
  21     81.20        4.3418        0.0041       11.0494       11.0535       6.711687       0.01490
  20     96.49        4.3454        0.0049       11.0255       11.0304       6.684998       0.01473
  19     114.6        4.3498        0.0058       10.9975       11.0033       6.653560       0.01468
  18     136.5        4.3550        0.0069       10.9648       10.9716       6.616640       0.01420
  17     162.9        4.3613        0.0082       10.9263       10.9345       6.573138       0.01390
  16     196.4        4.3696        0.0098       10.8773       10.8871       6.517432       0.01402
  15     218.7        4.3752        0.0109       10.8455       10.8564       6.481232       0.01374
  14     243.0        4.3814        0.0121       10.8114       10.8235       6.442168       0.01355
  13     269.0        4.3881        0.0134       10.7749       10.7882       6.400092       0.01365
  12     297.5        4.3956        0.0147       10.7357       10.7504       6.354798       0.01343
  11     328.5        4.4040        0.0162       10.6937       10.7100       6.306001       0.01327
  10     361.9        4.4132        0.0178       10.6489       10.6667       6.253499       0.01328
   9     398.1        4.4235        0.0195       10.6008       10.6203       6.196835       0.01320
   8     437.6        4.4350        0.0214       10.5491       10.5705       6.135444       0.01313
   7     480.5        4.4480        0.0234       10.4934       10.5168       6.068802       0.01309
   6     533.0        4.4649        0.0258       10.4243       10.4501       5.985124       0.01346
   5     589.8        4.4847        0.0284       10.3479       10.3763       5.891532       0.01389
   4     651.6        4.5086        0.0312       10.2613       10.2925       5.783947       0.01471
   3     718.7        4.5378        0.0341       10.1618       10.1959       5.658077       0.01582
   2     792.3        4.5749        0.0372       10.0439       10.0811       5.506194       0.01742
   1     891.5        4.6375        0.0413        9.8626        9.9039       5.266427       0.02040
   0    1013.0        4.7366        0.0460        9.6103        9.6563       4.919738       0.02407



 Wavenumbers:  8050. - 12850. cm-1, ATM      1
 LEVEL PRESSURE   UPWARD FLUX   DIFDOWN FLUX  DIRDOWN FLUX  DOWNWARD FLUX   NET FLUX    HEATING RATE
          mb          W/m2          W/m2          W/m2        W/m2          W/m2       degree/day
  51    .06700       85.6769        0.0000      156.5418      156.5418      70.864841       0.00000
  50    .07753       85.6769        0.0000      156.5417      156.5417      70.864841       0.00000
  49    .09103       85.6769        0.0001      156.5417      156.5417      70.864841      -0.00000
  48    0.1069       85.6769        0.0001      156.5416      156.5417      70.864841       0.00000
  47    0.1255       85.6768        0.0002      156.5415      156.5417      70.864841      -0.00000
  46    0.1487       85.6768        0.0002      156.5414      156.5417      70.864841      -0.00000
  45    0.1794       85.6768        0.0003      156.5413      156.5416      70.864841       0.00000
  44    0.2165       85.6767        0.0004      156.5412      156.5416      70.864841      -0.00000
  43    0.2613       85.6767        0.0005      156.5410      156.5415      70.864841       0.00000
  42    0.3336       85.6766        0.0007      156.5407      156.5414      70.864841       0.00000
  41    0.4307       85.6765        0.0010      156.5403      156.5413      70.864841      -0.00000
  40    0.5894       85.6763        0.0014      156.5397      156.5411      70.864841       0.00000
  39     1.339       85.6754        0.0035      156.5367      156.5402      70.864841       0.00000
  38     1.782       85.6749        0.0047      156.5350      156.5397      70.864841      -0.00000
  37     2.292       85.6743        0.0061      156.5330      156.5391      70.864841      -0.00000
  36     2.964       85.6735        0.0080      156.5303      156.5383      70.864841       0.00000
  35     3.853       85.6725        0.0104      156.5268      156.5373      70.864841      -0.00000
  34     5.035       85.6711        0.0137      156.5222      156.5359      70.864841       0.00000
  33     6.613       85.6692        0.0180      156.5160      156.5341      70.864841      -0.00000
  32     8.786       85.6667        0.0239      156.5076      156.5315      70.864841      -0.00000
  31     11.80       85.6631        0.0323      156.4957      156.5280      70.864841       0.00000
  30     15.07       85.6593        0.0413      156.4828      156.5241      70.864841       0.00000
  29     18.79       85.6549        0.0515      156.4682      156.5198      70.864841      -0.00000
  28     23.16       85.6498        0.0635      156.4512      156.5147      70.864841      -0.00000
  27     28.12       85.6440        0.0771      156.4317      156.5088      70.864841       0.00000
  26     33.73       85.6375        0.0924      156.4099      156.5023      70.864841       0.00000
  25     40.54       85.6296        0.1110      156.3834      156.4944      70.864841       0.00000
  24     48.69       85.6200        0.1333      156.3515      156.4849      70.864841       0.00000
  23     57.69       85.6095        0.1579      156.3164      156.4744      70.864841      -0.00000
  22     68.43       85.5970        0.1873      156.2746      156.4618      70.864841      -0.00000
  21     81.20       85.5820        0.2223      156.2246      156.4469      70.864841      -0.00000
  20     96.49       85.5642        0.2641      156.1649      156.4290      70.864841       0.00000
  19     114.6       85.5431        0.3138      156.0879      156.4017      70.858645       0.00289
  18     136.5       85.5180        0.3728      155.9962      156.3690      70.850959       0.00296
  17     162.9       85.4882        0.4433      155.8831      156.3264      70.838195       0.00408
  16     196.4       85.4494        0.5349      155.7199      156.2549      70.805458       0.00824
  15     218.7       85.4241        0.5952      155.5733      156.1685      70.744418       0.02317
  14     243.0       85.3969        0.6607      155.3367      155.9974      70.600420       0.04994
  13     269.0       85.3685        0.7315      154.9514      155.6829      70.314376       0.09279
  12     297.5       85.3399        0.8077      154.3896      155.1973      69.857444       0.13552
  11     328.5       85.3116        0.8899      153.7151      154.6050      69.293435       0.15335
  10     361.9       85.2849        0.9781      152.9087      153.8868      68.601910       0.17496
   9     398.1       85.2622        1.0724      151.8986      152.9710      67.708822       0.20807
   8     437.6       85.2472        1.1726      150.6031      151.7758      66.528575       0.25234
   7     480.5       85.2447        1.2786      149.0014      150.2800      65.035292       0.29328
   6     533.0       85.2671        1.4067      146.7375      148.1443      62.877185       0.34717
   5     589.8       85.3378        1.5409      143.8730      145.4139      60.076100       0.41577
   4     651.6       85.5109        1.6785      140.0955      141.7740      56.263057       0.52144
   3     718.7       85.8564        1.8181      135.5278      137.3459      51.489438       0.59991
   2     792.3       86.5281        1.9565      130.0690      132.0255      45.497400       0.68722
   1     891.5       88.2373        2.1241      122.1273      124.2514      36.014066       0.80699
   0    1013.0       92.4172        2.3040      112.9512      115.2552      22.838032       0.91488



 Wavenumbers: 12850. - 16000. cm-1, ATM      1
 LEVEL PRESSURE   UPWARD FLUX   DIFDOWN FLUX  DIRDOWN FLUX  DOWNWARD FLUX   NET FLUX    HEATING RATE
          mb          W/m2          W/m2          W/m2        W/m2          W/m2       degree/day
  51    .06700       78.0304        0.0000       98.0872       98.0872      20.056879       0.00000
  50    .07753       78.0304        0.0001       98.0864       98.0864      20.056088       0.63425
  49    .09103       78.0304        0.0002       98.0853       98.0854      20.055094       0.62114
  48    0.1069       78.0304        0.0003       98.0841       98.0843      20.053953       0.60777
  47    0.1255       78.0304        0.0004       98.0826       98.0830      20.052641       0.59470
  46    0.1487       78.0304        0.0005       98.0809       98.0814      20.050985       0.60342
  45    0.1794       78.0304        0.0007       98.0784       98.0792      20.048734       0.61818
  44    0.2165       78.0305        0.0010       98.0756       98.0766      20.046085       0.60253
  43    0.2613       78.0306        0.0012       98.0723       98.0736      20.042970       0.58708
  42    0.3336       78.0308        0.0017       98.0670       98.0687      20.037888       0.59261
  41    0.4307       78.0312        0.0023       98.0602       98.0625      20.031315       0.57143
  40    0.5894       78.0320        0.0033       98.0496       98.0529      20.020962       0.55060
  39     1.339       78.0384        0.0081       98.0043       98.0125      19.974086       0.52773
  38     1.782       78.0442        0.0109       97.9793       97.9902      19.945972       0.53526
  37     2.292       78.0530        0.0142       97.9498       97.9639      19.910974       0.57966
  36     2.964       78.0674        0.0184       97.9088       97.9272      19.859805       0.64232
  35     3.853       78.0908        0.0241       97.8503       97.8744      19.783627       0.72294
  34     5.035       78.1259        0.0315       97.7680       97.7995      19.673613       0.78590
  33     6.613       78.1750        0.0415       97.6562       97.6977      19.522733       0.80660
  32     8.786       78.2388        0.0549       97.5107       97.5656      19.326778       0.76102
  31     11.80       78.3220        0.0741       97.3179       97.3920      19.070005       0.71889
  30     15.07       78.4017        0.0947       97.1283       97.2230      18.821360       0.64195
  29     18.79       78.4831        0.1179       96.9300       97.0480      18.564872       0.58154
  28     23.16       78.5683        0.1451       96.7166       96.8616      18.293376       0.52499
  27     28.12       78.6540        0.1761       96.4935       96.6695      18.015505       0.47236
  26     33.73       78.7334        0.2107       96.2731       96.4838      17.750395       0.39860
  25     40.54       78.8101        0.2526       96.0408       96.2934      17.483283       0.33138
  24     48.69       78.8839        0.3032       95.7946       96.0977      17.213822       0.27885
  23     57.69       78.9468        0.3587       95.5573       95.9159      16.969110       0.22938
  22     68.43       79.0021        0.4248       95.3106       95.7354      16.733289       0.18539
  21     81.20       79.0411        0.5037       95.0643       95.5681      16.526956       0.13634
  20     96.49       79.0626        0.5978       94.8153       95.4131      16.350489       0.09740
  19     114.6       79.0897        0.7108       94.5411       95.2519      16.162218       0.08791
  18     136.5       79.1103        0.8448       94.2320       95.0768      15.966511       0.07525
  17     162.9       79.1243        1.0042       93.8753       94.8795      15.755255       0.06753
  16     196.4       79.1202        1.2110       93.4347       94.6457      15.525547       0.05782
  15     218.7       79.1094        1.3469       93.1513       94.4982      15.388745       0.05194
  14     243.0       79.0942        1.4945       92.8439       94.3384      15.244226       0.05012
  13     269.0       79.0745        1.6545       92.5111       94.1656      15.091146       0.04966
  12     297.5       79.0506        1.8274       92.1495       93.9769      14.926294       0.04889
  11     328.5       79.0244        2.0142       91.7554       93.7696      14.745168       0.04925
  10     361.9       78.9968        2.2154       91.3262       93.5416      14.544780       0.05070
   9     398.1       78.9688        2.4318       90.8575       93.2894      14.320537       0.05224
   8     437.6       78.9431        2.6642       90.3418       93.0060      14.062933       0.05508
   7     480.5       78.9219        2.9132       89.7728       92.6860      13.764023       0.05870
   6     533.0       78.9089        3.2193       89.0428       92.2622      13.353270       0.06608
   5     589.8       78.9195        3.5485       88.2038       91.7523      12.832804       0.07725
   4     651.6       78.9821        3.9005       87.1979       91.0984      12.116271       0.09799
   3     718.7       79.1152        4.2735       86.0161       90.2896      11.174474       0.11836
   2     792.3       79.3785        4.6639       84.5970       89.2609       9.882407       0.14819
   1     891.5       80.0204        5.1721       82.4374       87.6095       7.589120       0.19515
   0    1013.0       81.3650        5.7559       79.6182       85.3741       4.009132       0.24858



 Wavenumbers: 16000. - 22650. cm-1, ATM      1
 LEVEL PRESSURE   UPWARD FLUX   DIFDOWN FLUX  DIRDOWN FLUX  DOWNWARD FLUX   NET FLUX    HEATING RATE
          mb          W/m2          W/m2          W/m2        W/m2          W/m2       degree/day
  51    .06700      139.6204        0.0000      156.3892      156.3892      16.768813       0.00000
  50    .07753      139.6204        0.0004      156.3887      156.3891      16.768666       0.11767
  49    .09103      139.6204        0.0009      156.3879      156.3888      16.768453       0.13347
  48    0.1069      139.6204        0.0015      156.3871      156.3885      16.768167       0.15220
  47    0.1255      139.6204        0.0021      156.3861      156.3882      16.767784       0.17349
  46    0.1487      139.6204        0.0029      156.3847      156.3877      16.767220       0.20558
  45    0.1794      139.6206        0.0041      156.3828      156.3869      16.766338       0.24205
  44    0.2165      139.6208        0.0054      156.3805      156.3859      16.765143       0.27204
  43    0.2613      139.6211        0.0070      156.3776      156.3846      16.763520       0.30584
  42    0.3336      139.6218        0.0096      156.3726      156.3823      16.760435       0.35966
  41    0.4307      139.6230        0.0131      156.3657      156.3788      16.755785       0.40430
  40    0.5894      139.6256        0.0188      156.3537      156.3725      16.746917       0.47159
  39     1.339      139.6477        0.0457      156.2834      156.3291      16.681399       0.73762
  38     1.782      139.6682        0.0615      156.2324      156.2938      16.625586       1.06260
  37     2.292      139.6991        0.0798      156.1641      156.2438      16.544795       1.33810
  36     2.964      139.7503        0.1037      156.0605      156.1642      16.413915       1.64295
  35     3.853      139.8332        0.1354      155.9041      156.0395      16.206240       1.97087
  34     5.035      139.9584        0.1774      155.6774      155.8548      15.896410       2.21330
  33     6.613      140.1333        0.2335      155.3656      155.5991      15.465842       2.30181
  32     8.786      140.3611        0.3090      154.9577      155.2666      14.905588       2.17582
  31     11.80      140.6574        0.4168      154.4153      154.8321      14.174621       2.04648
  30     15.07      140.9413        0.5324      153.8804      154.4128      13.471476       1.81538
  29     18.79      141.2310        0.6627      153.3191      153.9818      12.750841       1.63390
  28     23.16      141.5337        0.8148      152.7126      153.5273      11.993663       1.46414
  27     28.12      141.8381        0.9884      152.0755      153.0639      11.225785       1.30534
  26     33.73      142.1188        1.1825      151.4409      152.6234      10.504543       1.08441
  25     40.54      142.3887        1.4167      150.7637      152.1804       9.791720       0.88434
  24     48.69      142.6467        1.6989      150.0338      151.7327       9.086041       0.73027
  23     57.69      142.8649        2.0084      149.3151      151.3236       8.458644       0.58809
  22     68.43      143.0546        2.3767      148.5476      150.9243       7.869705       0.46299
  21     81.20      143.1842        2.8151      147.7517      150.5668       7.382531       0.32192
  20     96.49      143.2494        3.3370      146.9127      150.2497       7.000236       0.21100
  19     114.6      143.2810        3.9549      145.9763      149.9312       6.650138       0.16347
  18     136.5      143.2875        4.6844      144.9088      149.5932       6.305745       0.13243
  17     162.9      143.2669        5.5491      143.6785      149.2277       5.960775       0.11027
  16     196.4      143.1793        6.6648      142.1651      148.8298       5.650523       0.07809
  15     218.7      143.0995        7.3938      141.2033      148.5971       5.497686       0.05803
  14     243.0      143.0024        8.1828      140.1753      148.3582       5.355743       0.04923
  13     269.0      142.8866        9.0340      139.0797      148.1137       5.227107       0.04173
  12     297.5      142.7513        9.9494      137.9141      147.8635       5.112165       0.03409
  11     328.5      142.6006       10.9333      136.6676      147.6009       5.000341       0.03040
  10     361.9      142.4340       11.9866      135.3392      147.3258       4.891781       0.02747
   9     398.1      142.2511       13.1133      133.9235      147.0367       4.785614       0.02473
   8     437.6      142.0528       14.3153      132.4163      146.7315       4.678736       0.02285
   7     480.5      141.8387       15.5949      130.8147      146.4096       4.570881       0.02118
   6     533.0      141.5751       17.1576      128.8599      146.0176       4.442486       0.02065
   5     589.8      141.2947       18.8273      126.7679      145.5952       4.300568       0.02107
   4     651.6      141.0035       20.6054      124.5274      145.1329       4.129366       0.02341
   3     718.7      140.7075       22.4937      122.1285      144.6222       3.914742       0.02697
   2     792.3      140.4228       24.4901      119.5548      144.0449       3.622115       0.03356
   1     891.5      140.1168       27.1398      116.0566      143.1964       3.079638       0.04616
   0    1013.0      139.8774       30.2531      111.8404      142.0935       2.216111       0.05996



 Wavenumbers: 22650. - 29000. cm-1, ATM      1
 LEVEL PRESSURE   UPWARD FLUX   DIFDOWN FLUX  DIRDOWN FLUX  DOWNWARD FLUX   NET FLUX    HEATING RATE
          mb          W/m2          W/m2          W/m2        W/m2          W/m2       degree/day
  51    .06700       58.4917        0.0000       59.0156       59.0156       0.523935       0.00000
  50    .07753       58.4916        0.0005       59.0151       59.0155       0.523935       0.00000
  49    .09103       58.4915        0.0010       59.0144       59.0154       0.523935       0.00000
  48    0.1069       58.4913        0.0017       59.0136       59.0153       0.523935       0.00000
  47    0.1255       58.4912        0.0025       59.0127       59.0151       0.523935      -0.00000
  46    0.1487       58.4910        0.0034       59.0115       59.0149       0.523935       0.00000
  45    0.1794       58.4907        0.0048       59.0099       59.0147       0.523935       0.00000
  44    0.2165       58.4904        0.0063       59.0080       59.0144       0.523935       0.00000
  43    0.2613       58.4901        0.0082       59.0058       59.0140       0.523935       0.00000
  42    0.3336       58.4895        0.0113       59.0022       59.0134       0.523935       0.00000
  41    0.4307       58.4887        0.0153       58.9973       59.0126       0.523935       0.00000
  40    0.5894       58.4874        0.0220       58.9894       59.0113       0.523935       0.00000
  39     1.339       58.4813        0.0535       58.9518       59.0052       0.523935      -0.00000
  38     1.782       58.4777        0.0719       58.9297       59.0016       0.523935       0.00000
  37     2.292       58.4736        0.0933       58.9042       58.9975       0.523935       0.00000
  36     2.964       58.4681        0.1214       58.8706       58.9920       0.523935       0.00000
  35     3.853       58.4609        0.1585       58.8264       58.9849       0.523935      -0.00000
  34     5.035       58.4514        0.2077       58.7676       58.9753       0.523935      -0.00000
  33     6.613       58.4386        0.2734       58.6891       58.9625       0.523935       0.00000
  32     8.786       58.4214        0.3619       58.5834       58.9454       0.523935       0.00000
  31     11.80       58.3969        0.4884       58.4324       58.9208       0.523935      -0.00000
  30     15.07       58.3706        0.6239       58.2706       58.8945       0.523935       0.00000
  29     18.79       58.3409        0.7766       58.0882       58.8649       0.523935      -0.00000
  28     23.16       58.3064        0.9546       57.8757       58.8303       0.523935       0.00000
  27     28.12       58.2670        1.1576       57.6333       58.7909       0.523935       0.00000
  26     33.73       58.2230        1.3839       57.3631       58.7469       0.523935       0.00000
  25     40.54       58.1701        1.6562       57.0379       58.6941       0.523935       0.00000
  24     48.69       58.1067        1.9827       56.6479       58.6306       0.523935       0.00000
  23     57.69       58.0374        2.3393       56.2221       58.5614       0.523935      -0.00000
  22     68.43       57.9555        2.7609       55.7186       58.4794       0.523935       0.00000
  21     81.20       57.8587        3.2587       55.1239       58.3827       0.523935       0.00000
  20     96.49       57.7446        3.8457       54.4228       58.2685       0.523935       0.00000
  19     114.6       57.6108        4.5337       53.6010       58.1347       0.523935       0.00000
  18     136.5       57.4545        5.3367       52.6418       57.9784       0.523935      -0.00000
  17     162.9       57.2718        6.2753       51.5203       57.7957       0.523935      -0.00000
  16     196.4       57.0401        7.4646       50.0994       57.5640       0.523935      -0.00000
  15     218.7       56.8911        8.2287       49.1863       57.4150       0.523935       0.00000
  14     243.0       56.7319        9.0446       48.2113       57.2559       0.523935       0.00000
  13     269.0       56.5627        9.9117       47.1749       57.0866       0.523935      -0.00000
  12     297.5       56.3835       10.8291       46.0783       56.9074       0.523935      -0.00000
  11     328.5       56.1940       11.7984       44.9195       56.7179       0.523935       0.00000
  10     361.9       55.9947       12.8168       43.7018       56.5187       0.523935       0.00000
   9     398.1       55.7856       13.8845       42.4250       56.3096       0.523935      -0.00000
   8     437.6       55.5671       14.9994       41.0916       56.0910       0.523935       0.00000
   7     480.5       55.3395       16.1589       39.7045       55.8634       0.523935      -0.00000
   6     533.0       55.0684       17.5381       38.0543       55.5923       0.523935       0.00000
   5     589.8       54.7869       18.9678       36.3431       55.3109       0.523935       0.00000
   4     651.6       54.4964       20.4407       34.5795       55.0203       0.523935      -0.00000
   3     718.7       54.1977       21.9514       32.7702       54.7216       0.523935       0.00000
   2     792.3       53.8926       23.4909       30.9256       54.4165       0.523935      -0.00000
   1     891.5       53.5031       25.4493       28.5778       54.0271       0.523935      -0.00000
   0    1013.0       53.0683       27.6258       25.9665       53.5923       0.523935      -0.00000



 Wavenumbers: 29000. - 38000. cm-1, ATM      1
 LEVEL PRESSURE   UPWARD FLUX   DIFDOWN FLUX  DIRDOWN FLUX  DOWNWARD FLUX   NET FLUX    HEATING RATE
          mb          W/m2          W/m2          W/m2        W/m2          W/m2       degree/day
  51    .06700        8.7343        0.0000       20.8114       20.8114      12.077106       0.00000
  50    .07753        8.7341        0.0003       20.8070       20.8074      12.073299       3.05151
  49    .09103        8.7338        0.0007       20.8009       20.8016      12.067762       3.46081
  48    0.1069        8.7336        0.0012       20.7928       20.7939      12.060352       3.94424
  47    0.1255        8.7333        0.0017       20.7820       20.7837      12.050447       4.49028
  46    0.1487        8.7330        0.0024       20.7665       20.7688      12.035884       5.30837
  45    0.1794        8.7325        0.0033       20.7424       20.7457      12.013220       6.22196
  44    0.2165        8.7320        0.0044       20.7103       20.7147      11.982697       6.94331
  43    0.2613        8.7314        0.0056       20.6675       20.6731      11.941703       7.72722
  42    0.3336        8.7305        0.0077       20.5880       20.5956      11.865143       8.92613
  41    0.4307        8.7294        0.0104       20.4722       20.4826      11.753192       9.73388
  40    0.5894        8.7279        0.0147       20.2637       20.2784      11.550512      10.77829
  39     1.339        8.7244        0.0331       19.0984       19.1315      10.407059      12.87320
  38     1.782        8.7249        0.0427       18.4394       18.4820       9.757155      12.37312
  37     2.292        8.7275        0.0529       17.7714       17.8244       9.096839      10.93655
  36     2.964        8.7340        0.0656       17.0421       17.1078       8.373761       9.07682
  35     3.853        8.7467        0.0815       16.2678       16.3494       7.602653       7.31795
  34     5.035        8.7677        0.1017       15.4803       15.5820       6.814265       5.63192
  33     6.613        8.7983        0.1274       14.7157       14.8431       6.044830       4.11340
  32     8.786        8.8387        0.1612       13.9936       14.1548       5.316074       2.83022
  31     11.80        8.8914        0.2082       13.2835       13.4918       4.600366       2.00376
  30     15.07        8.9422        0.2570       12.7394       12.9963       4.054142       1.41025
  29     18.79        8.9947        0.3110       12.2666       12.5776       3.582955       1.06832
  28     23.16        9.0504        0.3725       11.8300       12.2025       3.152095       0.83314
  27     28.12        9.1075        0.4413       11.4279       11.8691       2.761692       0.66366
  26     33.73        9.1601        0.5171       11.0695       11.5866       2.426467       0.50402
  25     40.54        9.2100        0.6077       10.7209       11.3286       2.118585       0.38196
  24     48.69        9.2571        0.7152       10.3742       11.0894       1.832320       0.29624
  23     57.69        9.2957        0.8316       10.0549       10.8865       1.590828       0.22636
  22     68.43        9.3268        0.9681        9.7327       10.7008       1.374049       0.17042
  21     81.20        9.3415        1.1293        9.4134       10.5427       1.201205       0.11421
  20     96.49        9.3378        1.3188        9.0887       10.4075       1.069640       0.07261
  19     114.6        9.3239        1.5376        8.7388       10.2764       0.952540       0.05468
  18     136.5        9.3026        1.7879        8.3549       10.1428       0.840190       0.04320
  17     162.9        9.2741        2.0731        7.9311       10.0043       0.730197       0.03516
  16     196.4        9.2263        2.4264        7.4333        9.8597       0.633394       0.02437
  15     218.7        9.1920        2.6486        7.1295        9.7781       0.586185       0.01792
  14     243.0        9.1543        2.8809        6.8161        9.6969       0.542596       0.01512
  13     269.0        9.1132        3.1224        6.4943        9.6167       0.503460       0.01270
  12     297.5        9.0687        3.3719        6.1657        9.5377       0.468964       0.01023
  11     328.5        9.0222        3.6287        5.8295        9.4582       0.435940       0.00898
  10     361.9        8.9742        3.8901        5.4886        9.3787       0.404536       0.00795
   9     398.1        8.9248        4.1556        5.1440        9.2996       0.374778       0.00693
   8     437.6        8.8745        4.4237        4.7969        9.2206       0.346095       0.00613
   7     480.5        8.8237        4.6922        4.4504        9.1426       0.318872       0.00535
   6     533.0        8.7654        4.9983        4.0563        9.0546       0.289200       0.00477
   5     589.8        8.7077        5.3000        3.6682        8.9682       0.260476       0.00426
   4     651.6        8.6518        5.5937        3.2905        8.8842       0.232379       0.00384
   3     718.7        8.5980        5.8777        2.9252        8.8029       0.204865       0.00346
   2     792.3        8.5472        6.1487        2.5764        8.7251       0.177940       0.00309
   1     891.5        8.4885        6.4673        2.1659        8.6332       0.144704       0.00283
   0    1013.0        8.4318        6.7872        1.7526        8.5398       0.108016       0.00255



 Wavenumbers: 38000. - 50000. cm-1, ATM      1
 LEVEL PRESSURE   UPWARD FLUX   DIFDOWN FLUX  DIRDOWN FLUX  DOWNWARD FLUX   NET FLUX    HEATING RATE
          mb          W/m2          W/m2          W/m2        W/m2          W/m2       degree/day
  51    .06700        0.0061        0.0000        1.2836        1.2836       1.277518       0.00000
  50    .07753        0.0061        0.0001        1.2812        1.2812       1.275183       1.87150
  49    .09103        0.0060        0.0002        1.2777        1.2778       1.271851       2.08247
  48    0.1069        0.0059        0.0002        1.2731        1.2734       1.267473       2.33059
  47    0.1255        0.0058        0.0004        1.2672        1.2675       1.261717       2.60908
  46    0.1487        0.0057        0.0005        1.2586        1.2591       1.253391       3.03499
  45    0.1794        0.0055        0.0007        1.2455        1.2462       1.240623       3.50520
  44    0.2165        0.0054        0.0009        1.2282        1.2291       1.223697       3.85037
  43    0.2613        0.0052        0.0011        1.2054        1.2065       1.201348       4.21261
  42    0.3336        0.0049        0.0015        1.1639        1.1654       1.160524       4.75970
  41    0.4307        0.0045        0.0020        1.1051        1.1070       1.102565       5.03943
  40    0.5894        0.0039        0.0026        1.0039        1.0064       1.002524       5.32007
  39     1.339        0.0022        0.0035        0.5438        0.5473       0.545104       5.14971
  38     1.782        0.0016        0.0032        0.3635        0.3666       0.365006       3.42879
  37     2.292        0.0012        0.0027        0.2356        0.2383       0.237058       2.11916
  36     2.964        0.0009        0.0022        0.1455        0.1477       0.146786       1.13318
  35     3.853        0.0006        0.0017        0.0858        0.0875       0.086906       0.56828
  34     5.035        0.0004        0.0013        0.0488        0.0501       0.049701       0.26578
  33     6.613        0.0003        0.0010        0.0273        0.0282       0.027974       0.11615
  32     8.786        0.0002        0.0007        0.0144        0.0151       0.014928       0.05067
  31     11.80        0.0001        0.0004        0.0065        0.0070       0.006903       0.02247
  30     15.07        0.0000        0.0003        0.0031        0.0034       0.003329       0.00923
  29     18.79        0.0000        0.0002        0.0014        0.0016       0.001583       0.00396
  28     23.16        0.0000        0.0001        0.0006        0.0007       0.000720       0.00167
  27     28.12        0.0000        0.0001        0.0003        0.0003       0.000317       0.00069
  26     33.73        0.0000        0.0000        0.0001        0.0001       0.000140       0.00027
  25     40.54        0.0000        0.0000        0.0000        0.0001       0.000057       0.00010
  24     48.69        0.0000        0.0000        0.0000        0.0000       0.000021       0.00004
  23     57.69        0.0000        0.0000        0.0000        0.0000       0.000008       0.00001
  22     68.43        0.0000        0.0000        0.0000        0.0000       0.000003       0.00000
  21     81.20        0.0000        0.0000        0.0000        0.0000       0.000001       0.00000
  20     96.49        0.0000        0.0000        0.0000        0.0000       0.000000       0.00000
  19     114.6        0.0000        0.0000        0.0000        0.0000       0.000000       0.00000
  18     136.5        0.0000        0.0000        0.0000        0.0000       0.000000       0.00000
  17     162.9        0.0000        0.0000        0.0000        0.0000       0.000000       0.00000
  16     196.4        0.0000        0.0000        0.0000        0.0000       0.000000       0.00000
  15     218.7        0.0000        0.0000        0.0000        0.0000       0.000000       0.00000
  14     243.0        0.0000        0.0000        0.0000        0.0000       0.000000       0.00000
  13     269.0        0.0000        0.0000        0.0000        0.0000       0.000000       0.00000
  12     297.5        0.0000        0.0000        0.0000        0.0000       0.000000       0.00000
  11     328.5        0.0000        0.0000        0.0000        0.0000       0.000000       0.00000
  10     361.9        0.0000        0.0000        0.0000        0.0000       0.000000       0.00000
   9     398.1        0.0000        0.0000        0.0000        0.0000       0.000000       0.00000
   8     437.6        0.0000        0.0000        0.0000        0.0000       0.000000       0.00000
   7     480.5        0.0000        0.0000        0.0000        0.0000       0.000000       0.00000
   6     533.0        0.0000        0.0000        0.0000        0.0000       0.000000       0.00000
   5     589.8        0.0000        0.0000        0.0000        0.0000       0.000000       0.00000
   4     651.6        0.0000        0.0000        0.0000        0.0000       0.000000       0.00000
   3     718.7        0.0000        0.0000        0.0000        0.0000       0.000000       0.00000
   2     792.3        0.0000        0.0000        0.0000        0.0000       0.000000       0.00000
   1     891.5        0.0000        0.0000        0.0000        0.0000       0.000000       0.00000
   0    1013.0        0.0000        0.0000        0.0000        0.0000       0.000000       0.00000



 Wavenumbers:   820. -  2600. cm-1, ATM      1
 LEVEL PRESSURE   UPWARD FLUX   DIFDOWN FLUX  DIRDOWN FLUX  DOWNWARD FLUX   NET FLUX    HEATING RATE
          mb          W/m2          W/m2          W/m2        W/m2          W/m2       degree/day
  51    .06700        0.0118        0.0000        6.0047        6.0047       5.992825       0.00000
  50    .07753        0.0118        0.0000        6.0008        6.0008       5.988972       3.08819
  49    .09103        0.0118        0.0000        5.9999        5.9999       5.988086       0.55356
  48    0.1069        0.0118        0.0000        5.9989        5.9989       5.987097       0.52650
  47    0.1255        0.0118        0.0000        5.9978        5.9978       5.985980       0.50647
  46    0.1487        0.0118        0.0000        5.9964        5.9964       5.984623       0.49454
  45    0.1794        0.0118        0.0000        5.9947        5.9947       5.982904       0.47197
  44    0.2165        0.0118        0.0000        5.9929        5.9929       5.981062       0.41908
  43    0.2613        0.0118        0.0000        5.9909        5.9909       5.979103       0.36930
  42    0.3336        0.0118        0.0000        5.9880        5.9880       5.976225       0.33553
  41    0.4307        0.0118        0.0000        5.9846        5.9846       5.972756       0.30162
  40    0.5894        0.0118        0.0000        5.9791        5.9791       5.967251       0.29273
  39     1.339        0.0118        0.0000        5.9536        5.9536       5.941767       0.28691
  38     1.782        0.0118        0.0000        5.9395        5.9395       5.927630       0.26914
  37     2.292        0.0118        0.0000        5.9237        5.9237       5.911880       0.26085
  36     2.964        0.0118        0.0000        5.9039        5.9039       5.892108       0.24820
  35     3.853        0.0118        0.0000        5.8793        5.8793       5.867455       0.23396
  34     5.035        0.0118        0.0000        5.8487        5.8487       5.836896       0.21830
  33     6.613        0.0118        0.0000        5.8108        5.8108       5.798936       0.20293
  32     8.786        0.0118        0.0000        5.7631        5.7631       5.751318       0.18493
  31     11.80        0.0118        0.0000        5.7039        5.7039       5.692070       0.16588
  30     15.07        0.0118        0.0000        5.6539        5.6539       5.642039       0.12917
  29     18.79        0.0118        0.0000        5.6127        5.6127       5.600913       0.09325
  28     23.16        0.0118        0.0000        5.5794        5.5794       5.567546       0.06452
  27     28.12        0.0118        0.0000        5.5518        5.5518       5.539989       0.04685
  26     33.73        0.0118        0.0000        5.5268        5.5268       5.514945       0.03765
  25     40.54        0.0118        0.0000        5.4993        5.4993       5.487510       0.03404
  24     48.69        0.0118        0.0000        5.4678        5.4678       5.455978       0.03263
  23     57.69        0.0118        0.0000        5.4340        5.4340       5.422198       0.03166
  22     68.43        0.0118        0.0000        5.3947        5.3948       5.382933       0.03087
  21     81.20        0.0118        0.0000        5.3497        5.3497       5.337908       0.02975
  20     96.49        0.0118        0.0000        5.2982        5.2982       5.286405       0.02843
  19     114.6        0.0118        0.0000        5.2389        5.2389       5.227094       0.02769
  18     136.5        0.0118        0.0000        5.1716        5.1717       5.159850       0.02586
  17     162.9        0.0118        0.0000        5.0890        5.0890       5.077234       0.02641
  16     196.4        0.0118        0.0000        4.9668        4.9668       4.955023       0.03076
  15     218.7        0.0118        0.0000        4.8585        4.8585       4.846662       0.04114
  14     243.0        0.0118        0.0000        4.7078        4.7079       4.696047       0.05224
  13     269.0        0.0118        0.0000        4.5343        4.5343       4.522464       0.05631
  12     297.5        0.0118        0.0000        4.3419        4.3420       4.330141       0.05704
  11     328.5        0.0118        0.0000        4.1281        4.1281       4.116308       0.05814
  10     361.9        0.0118        0.0000        3.8786        3.8787       3.866828       0.06312
   9     398.1        0.0119        0.0000        3.6159        3.6159       3.604082       0.06121
   8     437.6        0.0119        0.0000        3.3759        3.3759       3.363997       0.05133
   7     480.5        0.0119        0.0000        3.1957        3.1958       3.183861       0.03538
   6     533.0        0.0120        0.0000        3.0467        3.0467       3.034732       0.02399
   5     589.8        0.0120        0.0000        2.9023        2.9023       2.890269       0.02144
   4     651.6        0.0122        0.0000        2.7183        2.7184       2.706171       0.02518
   3     718.7        0.0124        0.0000        2.5058        2.5059       2.493422       0.02674
   2     792.3        0.0129        0.0000        2.2756        2.2757       2.262777       0.02645
   1     891.5        0.0141        0.0000        1.9621        1.9621       1.948087       0.02678
   0    1013.0        0.0170        0.0000        1.5468        1.5469       1.529856       0.02904

  Modules and versions used in this calculation:

       rrtmg_sw.1col.f90:  $Revision$                    rrtmg_sw_init.f90:  $Revision$        
     rrtmgsw_cldprop.f90:  $Revision$                  rrtmgsw_cldprmc.f90:  NOT USED          
     rrtmg_sw_reftra.f90:  $Revision$                  rrtmg_sw_spcvrt.f90:  NOT USED          
     rrtmg_sw_spcvmc.f90:  NOT USED                    rrtmgsw_setcoef.f90:  NOT USED          
     rrtmg_sw_taumol.f90:  $Revision$                  rrtmg_sw_vrtqdr.f90:  NOT USED          
                rrtatm.f:  NOT USED                             util_xxx.f:  NOT USED          
                 extra.f:  NOT USED                       rrtmg_sw_k_g.f90:  $Revision$        

