

 Wavenumbers:   820. - 50000. cm-1, ATM      1
 LEVEL PRESSURE   UPWARD FLUX   DIFDOWN FLUX  DIRDOWN FLUX  DOWNWARD FLUX   NET FLUX    HEATING RATE
          mb          W/m2          W/m2          W/m2        W/m2          W/m2       degree/day
  51    .06700      439.8281        0.0000      617.8126      617.8126     177.984479       0.00000
  50    .07753      439.8277        0.0013      617.7947      617.7960     177.968340      12.93559
  49    .09103      439.8272        0.0030      617.7778      617.7808     177.953532       9.25521
  48    0.1069      439.8267        0.0049      617.7581      617.7630     177.936274       9.18668
  47    0.1255      439.8262        0.0071      617.7340      617.7411     177.914934       9.67452
  46    0.1487      439.8255        0.0099      617.7009      617.7108     177.885256      10.81797
  45    0.1794      439.8247        0.0137      617.6521      617.6658     177.841038      12.13897
  44    0.2165      439.8239        0.0182      617.5895      617.6076     177.783735      13.03547
  43    0.2613      439.8231        0.0234      617.5089      617.5323     177.709248      14.04049
  42    0.3336      439.8220        0.0321      617.3641      617.3962     177.574213      15.74366
  41    0.4307      439.8210        0.0436      617.1591      617.2027     177.381669      16.74129
  40    0.5894      439.8204        0.0621      616.8005      616.8625     177.042134      18.05606
  39     1.339      439.8350        0.1455      614.9443      615.0898     175.254752      20.12268
  38     1.782      439.8559        0.1925      613.9670      614.1595     174.303573      18.10891
  37     2.292      439.8912        0.2458      613.0059      613.2517     173.360541      15.61907
  36     2.964      439.9542        0.3152      611.9577      612.2729     172.318641      13.07899
  35     3.853      440.0608        0.4062      610.8024      611.2086     171.147735      11.11211
  34     5.035      440.2254        0.5262      609.5327      610.0589     169.833491       9.38842
  33     6.613      440.4575        0.6855      608.1464      608.8319     168.374405       7.80027
  32     8.786      440.7597        0.8992      606.6250      607.5242     166.764487       6.25234
  31     11.80      441.1503        1.2034      604.8486      606.0520     164.901700       5.21522
  30     15.07      441.5211        1.5279      603.2440      604.7719     163.250780       4.26235
  29     18.79      441.8965        1.8931      601.6511      603.5442     161.647666       3.63475
  28     23.16      442.2850        2.3173      599.9927      602.3100     160.024952       3.13780
  27     28.12      442.6707        2.8000      598.2881      601.0881     158.417412       2.73271
  26     33.73      443.0166        3.3382      596.5951      599.9333     156.916693       2.25637
  25     40.54      443.3347        3.9860      594.7727      598.7587     155.424068       1.85177
  24     48.69      443.6214        4.7633      592.7865      597.5498     153.928324       1.54786
  23     57.69      443.8427        5.6127      590.7959      596.4086     152.565940       1.27703
  22     68.43      444.0045        6.6189      588.6191      595.2380     151.233491       1.04748
  21     81.20      444.0560        7.8117      586.2690      594.0806     150.024609       0.79881
  20     96.49      443.9865        9.2236      583.6961      592.9197     148.933194       0.60238
  19     114.6      443.8497       10.8840      580.7708      591.6548     147.805157       0.52671
  18     136.5      443.6454       12.8277      577.4359      590.2636     146.618189       0.45642
  17     162.9      443.3666       15.1078      573.5624      588.6703     145.303613       0.42019
  16     196.4      442.9229       18.0142      568.5907      586.6049     143.682021       0.40817
  15     218.7      442.6056       19.8925      565.0572      584.9497     142.344101       0.50796
  14     243.0      442.2550       21.9064      560.7495      582.6559     140.400911       0.67396
  13     269.0      441.8733       24.0570      555.3947      579.4517     137.578379       0.91562
  12     297.5      441.4676       26.3447      548.9964      575.3411     133.873470       1.09884
  11     328.5      441.0484       28.7758      542.0895      570.8653     129.816913       1.10297
  10     361.9      440.6254       31.3461      534.6242      565.9703     125.344955       1.13145
   9     398.1      440.2123       34.0598      526.4204      560.4803     120.267931       1.18283
   8     437.6      439.8363       36.9153      517.3907      554.3060     114.469641       1.23971
   7     480.5      439.5270       39.9102      507.7216      547.6317     108.104701       1.25005
   6     533.0      439.3223       43.5075      495.9006      539.4081     100.085794       1.28999
   5     589.8      439.4248       47.2781      483.0788      530.3569      90.932104       1.35871
   4     651.6      440.2131       51.2082      468.6907      519.8988      79.685709       1.53797
   3     718.7      442.2384       55.2888      453.2257      508.5146      66.276204       1.68520
   2     792.3      446.9953       59.4971      436.4928      495.9900      48.994662       1.98200
   1     891.5       66.8839      105.8194        0.0000      105.8194      38.935457       0.85599
   0    1013.0       66.9502      104.0227        0.0000      104.0227      37.072561       0.12935



 Wavenumbers:  2600. -  3250. cm-1, ATM      1
 LEVEL PRESSURE   UPWARD FLUX   DIFDOWN FLUX  DIRDOWN FLUX  DOWNWARD FLUX   NET FLUX    HEATING RATE
          mb          W/m2          W/m2          W/m2        W/m2          W/m2       degree/day
  51    .06700        2.1246        0.0000        5.4450        5.4450       3.320436       0.00000
  50    .07753        2.1246        0.0000        5.4450        5.4450       3.320428       0.00640
  49    .09103        2.1246        0.0000        5.4450        5.4450       3.320418       0.00627
  48    0.1069        2.1246        0.0000        5.4450        5.4450       3.320407       0.00613
  47    0.1255        2.1246        0.0000        5.4450        5.4450       3.320393       0.00599
  46    0.1487        2.1246        0.0000        5.4450        5.4450       3.320377       0.00608
  45    0.1794        2.1246        0.0000        5.4450        5.4450       3.320354       0.00625
  44    0.2165        2.1246        0.0000        5.4449        5.4449       3.320327       0.00612
  43    0.2613        2.1246        0.0000        5.4449        5.4449       3.320295       0.00600
  42    0.3336        2.1246        0.0000        5.4448        5.4448       3.320242       0.00617
  41    0.4307        2.1246        0.0000        5.4448        5.4448       3.320171       0.00620
  40    0.5894        2.1246        0.0000        5.4446        5.4446       3.320051       0.00637
  39     1.339        2.1246        0.0000        5.4439        5.4439       3.319344       0.00797
  38     1.782        2.1246        0.0000        5.4434        5.4434       3.318801       0.01034
  37     2.292        2.1246        0.0000        5.4427        5.4427       3.318085       0.01186
  36     2.964        2.1246        0.0000        5.4416        5.4416       3.317046       0.01304
  35     3.853        2.1246        0.0000        5.4402        5.4402       3.315568       0.01402
  34     5.035        2.1246        0.0000        5.4381        5.4381       3.313513       0.01469
  33     6.613        2.1246        0.0000        5.4353        5.4353       3.310731       0.01487
  32     8.786        2.1246        0.0000        5.4317        5.4317       3.307098       0.01411
  31     11.80        2.1246        0.0000        5.4269        5.4269       3.302315       0.01339
  30     15.07        2.1246        0.0000        5.4224        5.4224       3.297786       0.01169
  29     18.79        2.1246        0.0000        5.4180        5.4180       3.293369       0.01001
  28     23.16        2.1246        0.0000        5.4135        5.4135       3.288876       0.00869
  27     28.12        2.1246        0.0000        5.4088        5.4088       3.284218       0.00792
  26     33.73        2.1246        0.0000        5.4036        5.4036       3.278964       0.00790
  25     40.54        2.1247        0.0000        5.3966        5.3967       3.272000       0.00864
  24     48.69        2.1247        0.0000        5.3872        5.3872       3.262489       0.00984
  23     57.69        2.1247        0.0000        5.3754        5.3754       3.250659       0.01109
  22     68.43        2.1248        0.0000        5.3599        5.3599       3.235104       0.01223
  21     81.20        2.1249        0.0000        5.3401        5.3401       3.215174       0.01317
  20     96.49        2.1251        0.0000        5.3155        5.3155       3.190472       0.01363
  19     114.6        2.1253        0.0001        5.2853        5.2854       3.160089       0.01419
  18     136.5        2.1256        0.0001        5.2504        5.2505       3.124919       0.01352
  17     162.9        2.1260        0.0001        5.2111        5.2112       3.085197       0.01270
  16     196.4        2.1266        0.0001        5.1640        5.1641       3.037477       0.01201
  15     218.7        2.1273        0.0001        5.1331        5.1332       3.005888       0.01199
  14     243.0        2.1284        0.0001        5.0962        5.0963       2.967887       0.01318
  13     269.0        2.1302        0.0001        5.0511        5.0512       2.921047       0.01519
  12     297.5        2.1328        0.0001        4.9956        4.9957       2.862949       0.01723
  11     328.5        2.1365        0.0001        4.9304        4.9305       2.794054       0.01873
  10     361.9        2.1415        0.0002        4.8511        4.8513       2.709726       0.02134
   9     398.1        2.1486        0.0002        4.7507        4.7509       2.602299       0.02503
   8     437.6        2.1584        0.0002        4.6220        4.6222       2.463859       0.02960
   7     480.5        2.1720        0.0002        4.4625        4.4627       2.290643       0.03402
   6     533.0        2.1944        0.0002        4.2460        4.2462       2.051800       0.03842
   5     589.8        2.2289        0.0002        3.9954        3.9956       1.766693       0.04232
   4     651.6        2.2865        0.0002        3.7089        3.7091       1.422586       0.04706
   3     718.7        2.3832        0.0002        3.4018        3.4020       1.018881       0.05073
   2     792.3        2.5631        0.0002        3.0564        3.0567       0.493563       0.06025
   1     891.5        0.0484        0.2517        0.0000        0.2517       0.203270       0.02470
   0    1013.0        0.0545        0.2175        0.0000        0.2175       0.162999       0.00280



 Wavenumbers:  3250. -  4000. cm-1, ATM      1
 LEVEL PRESSURE   UPWARD FLUX   DIFDOWN FLUX  DIRDOWN FLUX  DOWNWARD FLUX   NET FLUX    HEATING RATE
          mb          W/m2          W/m2          W/m2        W/m2          W/m2       degree/day
  51    .06700        0.0814        0.0000        9.1795        9.1795       9.098147       0.00000
  50    .07753        0.0814        0.0000        9.1747        9.1747       9.093304       3.88148
  49    .09103        0.0814        0.0000        9.1713        9.1713       9.089916       2.11747
  48    0.1069        0.0814        0.0000        9.1688        9.1688       9.087391       1.34402
  47    0.1255        0.0814        0.0000        9.1665        9.1665       9.085132       1.02422
  46    0.1487        0.0814        0.0000        9.1641        9.1641       9.082691       0.88991
  45    0.1794        0.0814        0.0000        9.1612        9.1612       9.079813       0.79008
  44    0.2165        0.0814        0.0000        9.1583        9.1583       9.076893       0.66430
  43    0.2613        0.0814        0.0000        9.1553        9.1553       9.073919       0.56041
  42    0.3336        0.0814        0.0000        9.1511        9.1511       9.069740       0.48723
  41    0.4307        0.0814        0.0000        9.1464        9.1464       9.064972       0.41459
  40    0.5894        0.0814        0.0000        9.1393        9.1394       9.057967       0.37255
  39     1.339        0.0814        0.0000        9.1127        9.1127       9.031353       0.29962
  38     1.782        0.0814        0.0000        9.1011        9.1011       9.019765       0.22062
  37     2.292        0.0814        0.0000        9.0901        9.0901       9.008698       0.18329
  36     2.964        0.0814        0.0000        9.0776        9.0776       8.996268       0.15603
  35     3.853        0.0814        0.0000        9.0629        9.0629       8.981478       0.14036
  34     5.035        0.0814        0.0000        9.0441        9.0441       8.962739       0.13386
  33     6.613        0.0814        0.0000        9.0191        9.0191       8.937738       0.13366
  32     8.786        0.0814        0.0000        8.9843        8.9843       8.902954       0.13509
  31     11.80        0.0814        0.0000        8.9327        8.9327       8.851338       0.14451
  30     15.07        0.0814        0.0000        8.8758        8.8759       8.794493       0.14676
  29     18.79        0.0814        0.0000        8.8110        8.8110       8.729666       0.14698
  28     23.16        0.0814        0.0000        8.7365        8.7366       8.655221       0.14395
  27     28.12        0.0813        0.0000        8.6554        8.6555       8.574108       0.13789
  26     33.73        0.0813        0.0000        8.5719        8.5719       8.490608       0.12554
  25     40.54        0.0813        0.0001        8.4812        8.4812       8.399884       0.11255
  24     48.69        0.0813        0.0001        8.3838        8.3839       8.302583       0.10069
  23     57.69        0.0813        0.0001        8.2861        8.2862       8.204847       0.09161
  22     68.43        0.0813        0.0001        8.1751        8.1751       8.093851       0.08726
  21     81.20        0.0813        0.0001        8.0457        8.0458       7.964492       0.08548
  20     96.49        0.0813        0.0001        7.8949        7.8951       7.813788       0.08318
  19     114.6        0.0812        0.0001        7.7162        7.7163       7.635078       0.08345
  18     136.5        0.0812        0.0002        7.5193        7.5195       7.438233       0.07569
  17     162.9        0.0812        0.0002        7.2913        7.2915       7.210340       0.07284
  16     196.4        0.0812        0.0002        6.9660        6.9662       6.885061       0.08188
  15     218.7        0.0812        0.0002        6.6648        6.6650       6.583859       0.11436
  14     243.0        0.0812        0.0002        6.2619        6.2622       6.181030       0.13971
  13     269.0        0.0812        0.0003        5.7576        5.7579       5.676647       0.16362
  12     297.5        0.0814        0.0003        5.1719        5.1722       5.090779       0.17376
  11     328.5        0.0817        0.0002        4.5757        4.5760       4.494310       0.16218
  10     361.9        0.0822        0.0002        3.9995        3.9998       3.917623       0.14591
   9     398.1        0.0830        0.0002        3.4655        3.4657       3.382727       0.12462
   8     437.6        0.0844        0.0002        2.9740        2.9743       2.889883       0.10537
   7     480.5        0.0866        0.0002        2.5307        2.5309       2.444251       0.08752
   6     533.0        0.0910        0.0002        2.0614        2.0616       1.970595       0.07620
   5     589.8        0.0989        0.0002        1.6150        1.6151       1.516199       0.06745
   4     651.6        0.1156        0.0001        1.1565        1.1566       1.041005       0.06498
   3     718.7        0.1523        0.0001        0.7390        0.7391       0.586773       0.05708
   2     792.3        0.2509        0.0001        0.3985        0.3985       0.147656       0.05036
   1     891.5        0.0000        0.0031        0.0000        0.0031       0.003050       0.01231
   0    1013.0        0.0001        0.0003        0.0000        0.0003       0.000238       0.00020



 Wavenumbers:  4000. -  4650. cm-1, ATM      1
 LEVEL PRESSURE   UPWARD FLUX   DIFDOWN FLUX  DIRDOWN FLUX  DOWNWARD FLUX   NET FLUX    HEATING RATE
          mb          W/m2          W/m2          W/m2        W/m2          W/m2       degree/day
  51    .06700        6.7763        0.0000       10.7795       10.7795       4.003241       0.00000
  50    .07753        6.7763        0.0000       10.7795       10.7795       4.003240       0.00080
  49    .09103        6.7763        0.0000       10.7795       10.7795       4.003238       0.00078
  48    0.1069        6.7763        0.0000       10.7795       10.7795       4.003237       0.00077
  47    0.1255        6.7763        0.0000       10.7795       10.7795       4.003235       0.00075
  46    0.1487        6.7763        0.0000       10.7795       10.7795       4.003233       0.00076
  45    0.1794        6.7763        0.0000       10.7795       10.7795       4.003230       0.00078
  44    0.2165        6.7763        0.0000       10.7795       10.7795       4.003227       0.00076
  43    0.2613        6.7763        0.0000       10.7795       10.7795       4.003223       0.00075
  42    0.3336        6.7763        0.0000       10.7795       10.7795       4.003216       0.00077
  41    0.4307        6.7763        0.0000       10.7795       10.7795       4.003208       0.00078
  40    0.5894        6.7763        0.0000       10.7795       10.7795       4.003193       0.00080
  39     1.339        6.7763        0.0000       10.7794       10.7794       4.003103       0.00101
  38     1.782        6.7763        0.0000       10.7793       10.7793       4.003033       0.00133
  37     2.292        6.7763        0.0000       10.7792       10.7792       4.002939       0.00156
  36     2.964        6.7763        0.0000       10.7791       10.7791       4.002798       0.00177
  35     3.853        6.7763        0.0000       10.7789       10.7789       4.002589       0.00198
  34     5.035        6.7763        0.0000       10.7786       10.7786       4.002281       0.00220
  33     6.613        6.7763        0.0000       10.7781       10.7781       4.001828       0.00242
  32     8.786        6.7763        0.0000       10.7774       10.7775       4.001158       0.00260
  31     11.80        6.7763        0.0001       10.7763       10.7764       4.000106       0.00295
  30     15.07        6.7763        0.0001       10.7751       10.7752       3.998870       0.00319
  29     18.79        6.7763        0.0001       10.7736       10.7737       3.997374       0.00339
  28     23.16        6.7763        0.0001       10.7717       10.7718       3.995515       0.00359
  27     28.12        6.7763        0.0001       10.7695       10.7696       3.993262       0.00383
  26     33.73        6.7764        0.0002       10.7667       10.7668       3.990481       0.00418
  25     40.54        6.7764        0.0002       10.7629       10.7631       3.986703       0.00469
  24     48.69        6.7765        0.0002       10.7579       10.7582       3.981661       0.00522
  23     57.69        6.7766        0.0003       10.7520       10.7523       3.975673       0.00561
  22     68.43        6.7768        0.0003       10.7446       10.7449       3.968153       0.00591
  21     81.20        6.7770        0.0004       10.7355       10.7359       3.958869       0.00613
  20     96.49        6.7774        0.0005       10.7245       10.7250       3.947541       0.00625
  19     114.6        6.7780        0.0006       10.7107       10.7113       3.933330       0.00664
  18     136.5        6.7787        0.0007       10.6942       10.6949       3.916148       0.00661
  17     162.9        6.7798        0.0008       10.6740       10.6748       3.894990       0.00676
  16     196.4        6.7817        0.0010       10.6464       10.6473       3.865633       0.00739
  15     218.7        6.7833        0.0011       10.6255       10.6265       3.843189       0.00852
  14     243.0        6.7857        0.0012       10.5980       10.5993       3.813512       0.01029
  13     269.0        6.7893        0.0013       10.5611       10.5624       3.773160       0.01309
  12     297.5        6.7944        0.0015       10.5119       10.5134       3.719020       0.01606
  11     328.5        6.8014        0.0016       10.4499       10.4515       3.650067       0.01875
  10     361.9        6.8106        0.0018       10.3702       10.3719       3.561299       0.02246
   9     398.1        6.8223        0.0019       10.2678       10.2697       3.447428       0.02653
   8     437.6        6.8372        0.0021       10.1390       10.1411       3.303863       0.03069
   7     480.5        6.8565        0.0023        9.9877        9.9900       3.133454       0.03347
   6     533.0        6.8865        0.0025        9.7937        9.7962       2.909664       0.03600
   5     589.8        6.9304        0.0027        9.5752        9.5779       2.647471       0.03892
   4     651.6        7.0024        0.0030        9.2958        9.2987       2.296381       0.04801
   3     718.7        7.1260        0.0032        8.9267        8.9299       1.803857       0.06190
   2     792.3        7.3664        0.0034        8.4542        8.4576       1.091164       0.08174
   1     891.5        0.1964        0.8780        0.0000        0.8780       0.681529       0.03486
   0    1013.0        0.2067        0.8244        0.0000        0.8244       0.617713       0.00443



 Wavenumbers:  4650. -  5150. cm-1, ATM      1
 LEVEL PRESSURE   UPWARD FLUX   DIFDOWN FLUX  DIRDOWN FLUX  DOWNWARD FLUX   NET FLUX    HEATING RATE
          mb          W/m2          W/m2          W/m2        W/m2          W/m2       degree/day
  51    .06700        4.9063        0.0000       10.2033       10.2033       5.297005       0.00000
  50    .07753        4.9063        0.0000       10.2031       10.2031       5.296769       0.18901
  49    .09103        4.9063        0.0000       10.2028       10.2028       5.296474       0.18428
  48    0.1069        4.9063        0.0000       10.2025       10.2025       5.296138       0.17931
  47    0.1255        4.9063        0.0000       10.2021       10.2021       5.295753       0.17426
  46    0.1487        4.9063        0.0000       10.2016       10.2016       5.295272       0.17536
  45    0.1794        4.9063        0.0000       10.2010       10.2010       5.294622       0.17850
  44    0.2165        4.9063        0.0000       10.2002       10.2002       5.293862       0.17277
  43    0.2613        4.9063        0.0000       10.1993       10.1993       5.292977       0.16690
  42    0.3336        4.9063        0.0000       10.1979       10.1979       5.291544       0.16702
  41    0.4307        4.9063        0.0000       10.1960       10.1960       5.289704       0.16002
  40    0.5894        4.9063        0.0000       10.1932       10.1932       5.286830       0.15283
  39     1.339        4.9063        0.0000       10.1816       10.1816       5.275238       0.13051
  38     1.782        4.9063        0.0000       10.1760       10.1760       5.269708       0.10527
  37     2.292        4.9063        0.0000       10.1706       10.1706       5.264251       0.09039
  36     2.964        4.9063        0.0000       10.1646       10.1647       5.258326       0.07437
  35     3.853        4.9063        0.0000       10.1584       10.1584       5.252109       0.05900
  34     5.035        4.9063        0.0000       10.1521       10.1521       5.245769       0.04529
  33     6.613        4.9063        0.0000       10.1456       10.1456       5.239305       0.03456
  32     8.786        4.9064        0.0001       10.1386       10.1386       5.232281       0.02728
  31     11.80        4.9064        0.0001       10.1295       10.1296       5.223216       0.02538
  30     15.07        4.9064        0.0001       10.1196       10.1197       5.213304       0.02559
  29     18.79        4.9065        0.0001       10.1076       10.1077       5.201250       0.02733
  28     23.16        4.9065        0.0002       10.0923       10.0924       5.185879       0.02972
  27     28.12        4.9067        0.0002       10.0731       10.0733       5.166694       0.03261
  26     33.73        4.9068        0.0002       10.0500       10.0503       5.143478       0.03491
  25     40.54        4.9070        0.0003       10.0201       10.0204       5.113402       0.03731
  24     48.69        4.9073        0.0003        9.9820        9.9823       5.074984       0.03976
  23     57.69        4.9077        0.0004        9.9384        9.9389       5.031130       0.04111
  22     68.43        4.9083        0.0005        9.8858        9.8862       4.977962       0.04180
  21     81.20        4.9091        0.0006        9.8234        9.8240       4.914967       0.04163
  20     96.49        4.9101        0.0007        9.7518        9.7524       4.842315       0.04010
  19     114.6        4.9116        0.0008        9.6719        9.6727       4.761116       0.03791
  18     136.5        4.9137        0.0010        9.5858        9.5868       4.673096       0.03385
  17     162.9        4.9165        0.0011        9.4940        9.4952       4.578670       0.03018
  16     196.4        4.9209        0.0013        9.3883        9.3896       4.468761       0.02767
  15     218.7        4.9243        0.0015        9.3229        9.3244       4.400118       0.02606
  14     243.0        4.9287        0.0016        9.2520        9.2536       4.324905       0.02609
  13     269.0        4.9346        0.0018        9.1717        9.1735       4.238831       0.02792
  12     297.5        4.9429        0.0020        9.0763        9.0783       4.135383       0.03068
  11     328.5        4.9536        0.0022        8.9650        8.9671       4.013530       0.03313
  10     361.9        4.9675        0.0024        8.8349        8.8373       3.869833       0.03636
   9     398.1        4.9854        0.0026        8.6820        8.6846       3.699148       0.03977
   8     437.6        5.0089        0.0028        8.5028        8.5056       3.496721       0.04328
   7     480.5        5.0394        0.0030        8.2948        8.2978       3.258421       0.04680
   6     533.0        5.0861        0.0033        8.0209        8.0241       2.938036       0.05154
   5     589.8        5.1513        0.0035        7.7063        7.7098       2.558517       0.05633
   4     651.6        5.2484        0.0037        7.3412        7.3450       2.096552       0.06317
   3     718.7        5.3968        0.0040        6.9387        6.9426       1.545820       0.06921
   2     792.3        5.6383        0.0042        6.5066        6.5108       0.872445       0.07723
   1     891.5        0.1405        0.6444        0.0000        0.6444       0.503913       0.03136
   0    1013.0        0.1497        0.5972        0.0000        0.5972       0.447455       0.00392



 Wavenumbers:  5150. -  6150. cm-1, ATM      1
 LEVEL PRESSURE   UPWARD FLUX   DIFDOWN FLUX  DIRDOWN FLUX  DOWNWARD FLUX   NET FLUX    HEATING RATE
          mb          W/m2          W/m2          W/m2        W/m2          W/m2       degree/day
  51    .06700       11.5776        0.0000       25.5798       25.5798      14.002213       0.00000
  50    .07753       11.5776        0.0000       25.5798       25.5798      14.002174       0.03163
  49    .09103       11.5776        0.0000       25.5797       25.5797      14.002122       0.03211
  48    0.1069       11.5776        0.0000       25.5797       25.5797      14.002061       0.03262
  47    0.1255       11.5776        0.0000       25.5796       25.5796      14.001988       0.03312
  46    0.1487       11.5776        0.0000       25.5795       25.5795      14.001892       0.03489
  45    0.1794       11.5776        0.0000       25.5794       25.5794      14.001757       0.03714
  44    0.2165       11.5776        0.0000       25.5792       25.5792      14.001591       0.03770
  43    0.2613       11.5776        0.0000       25.5790       25.5790      14.001388       0.03828
  42    0.3336       11.5776        0.0000       25.5786       25.5786      14.001041       0.04044
  41    0.4307       11.5776        0.0000       25.5782       25.5782      14.000570       0.04098
  40    0.5894       11.5776        0.0000       25.5774       25.5774      13.999780       0.04200
  39     1.339       11.5776        0.0000       25.5735       25.5736      13.995975       0.04284
  38     1.782       11.5776        0.0001       25.5713       25.5714      13.993759       0.04219
  37     2.292       11.5776        0.0001       25.5688       25.5688      13.991250       0.04155
  36     2.964       11.5776        0.0001       25.5656       25.5657      13.988062       0.04002
  35     3.853       11.5776        0.0001       25.5615       25.5616      13.984008       0.03847
  34     5.035       11.5776        0.0002       25.5562       25.5564      13.978786       0.03730
  33     6.613       11.5776        0.0002       25.5494       25.5496      13.972009       0.03623
  32     8.786       11.5777        0.0003       25.5406       25.5409      13.963223       0.03412
  31     11.80       11.5777        0.0004       25.5287       25.5290      13.951334       0.03329
  30     15.07       11.5778        0.0005       25.5167       25.5172      13.939402       0.03081
  29     18.79       11.5779        0.0006       25.5042       25.5048      13.926917       0.02831
  28     23.16       11.5780        0.0007       25.4907       25.4914      13.913456       0.02603
  27     28.12       11.5781        0.0009       25.4764       25.4774      13.899247       0.02415
  26     33.73       11.5783        0.0011       25.4620       25.4631      13.884820       0.02169
  25     40.54       11.5786        0.0013       25.4463       25.4476      13.869006       0.01962
  24     48.69       11.5789        0.0016       25.4294       25.4309      13.852015       0.01758
  23     57.69       11.5794        0.0019       25.4126       25.4145      13.835090       0.01586
  22     68.43       11.5800        0.0022       25.3944       25.3966      13.816654       0.01449
  21     81.20       11.5807        0.0026       25.3744       25.3770      13.796304       0.01345
  20     96.49       11.5817        0.0031       25.3519       25.3550      13.773377       0.01265
  19     114.6       11.5828        0.0037       25.3262       25.3299      13.747031       0.01230
  18     136.5       11.5843        0.0044       25.2962       25.3006      13.716317       0.01181
  17     162.9       11.5860        0.0052       25.2521       25.2573      13.671267       0.01440
  16     196.4       11.5885        0.0063       25.1593       25.1656      13.577075       0.02371
  15     218.7       11.5903        0.0070       25.0159       25.0229      13.432625       0.05484
  14     243.0       11.5924        0.0077       24.7089       24.7166      13.124139       0.10699
  13     269.0       11.5952        0.0084       24.1619       24.1702      12.574984       0.17814
  12     297.5       11.5990        0.0090       23.4544       23.4634      11.864413       0.21075
  11     328.5       11.6040        0.0098       22.7355       22.7452      11.141241       0.19663
  10     361.9       11.6106        0.0105       21.9224       21.9329      10.322343       0.20719
   9     398.1       11.6194        0.0112       20.9939       21.0051       9.385665       0.21823
   8     437.6       11.6318        0.0119       19.9833       19.9952       8.363401       0.21857
   7     480.5       11.6490        0.0125       18.9483       18.9608       7.311859       0.20652
   6     533.0       11.6782        0.0133       17.7796       17.7929       6.114651       0.19259
   5     589.8       11.7259        0.0141       16.6726       16.6866       4.960759       0.17128
   4     651.6       11.8136        0.0148       15.6343       15.6491       3.835585       0.15387
   3     718.7       11.9756        0.0157       14.7738       14.7895       2.813865       0.12840
   2     792.3       12.3057        0.0167       14.0291       14.0458       1.740123       0.12315
   1     891.5        0.3532        1.5178        0.0000        1.5178       1.164649       0.04897
   0    1013.0        0.3639        1.4514        0.0000        1.4514       1.087536       0.00535



 Wavenumbers:  6150. -  7700. cm-1, ATM      1
 LEVEL PRESSURE   UPWARD FLUX   DIFDOWN FLUX  DIRDOWN FLUX  DOWNWARD FLUX   NET FLUX    HEATING RATE
          mb          W/m2          W/m2          W/m2        W/m2          W/m2       degree/day
  51    .06700       18.6797        0.0000       47.3109       47.3109      28.631111       0.00000
  50    .07753       18.6797        0.0000       47.3108       47.3108      28.631054       0.04553
  49    .09103       18.6797        0.0000       47.3107       47.3107      28.630981       0.04583
  48    0.1069       18.6797        0.0000       47.3106       47.3106      28.630894       0.04614
  47    0.1255       18.6797        0.0000       47.3105       47.3105      28.630792       0.04645
  46    0.1487       18.6797        0.0000       47.3104       47.3104      28.630659       0.04852
  45    0.1794       18.6797        0.0000       47.3102       47.3102      28.630472       0.05127
  44    0.2165       18.6797        0.0000       47.3100       47.3100      28.630245       0.05167
  43    0.2613       18.6797        0.0000       47.3097       47.3097      28.629968       0.05210
  42    0.3336       18.6797        0.0000       47.3092       47.3092      28.629499       0.05471
  41    0.4307       18.6797        0.0000       47.3085       47.3086      28.628864       0.05521
  40    0.5894       18.6797        0.0001       47.3074       47.3075      28.627805       0.05633
  39     1.339       18.6797        0.0002       47.3022       47.3024      28.622713       0.05733
  38     1.782       18.6796        0.0002       47.2991       47.2994      28.619743       0.05655
  37     2.292       18.6796        0.0003       47.2956       47.2959      28.616367       0.05591
  36     2.964       18.6795        0.0004       47.2912       47.2916      28.612048       0.05421
  35     3.853       18.6795        0.0005       47.2855       47.2860      28.606514       0.05252
  34     5.035       18.6794        0.0007       47.2780       47.2787      28.599333       0.05130
  33     6.613       18.6793        0.0009       47.2683       47.2692      28.589945       0.05019
  32     8.786       18.6791        0.0012       47.2556       47.2567      28.577645       0.04777
  31     11.80       18.6789        0.0016       47.2380       47.2396      28.560741       0.04733
  30     15.07       18.6786        0.0020       47.2201       47.2221      28.543453       0.04464
  29     18.79       18.6783        0.0025       47.2008       47.2033      28.524972       0.04190
  28     23.16       18.6780        0.0031       47.1795       47.1826      28.504580       0.03943
  27     28.12       18.6776        0.0037       47.1565       47.1602      28.482584       0.03739
  26     33.73       18.6772        0.0045       47.1324       47.1369      28.459660       0.03447
  25     40.54       18.6767        0.0054       47.1054       47.1107      28.434019       0.03181
  24     48.69       18.6761        0.0064       47.0754       47.0819      28.405761       0.02924
  23     57.69       18.6754        0.0076       47.0449       47.0526      28.377133       0.02683
  22     68.43       18.6747        0.0090       47.0110       47.0200      28.345387       0.02496
  21     81.20       18.6737        0.0107       46.9729       46.9836      28.309881       0.02346
  20     96.49       18.6726        0.0127       46.9294       46.9421      28.269524       0.02227
  19     114.6       18.6713        0.0151       46.8790       46.8942      28.222867       0.02179
  18     136.5       18.6697        0.0180       46.8200       46.8379      28.168209       0.02102
  17     162.9       18.6679        0.0214       46.7361       46.7575      28.089525       0.02515
  16     196.4       18.6658        0.0257       46.5703       46.5960      27.930170       0.04011
  15     218.7       18.6646        0.0285       46.3473       46.3758      27.711211       0.08313
  14     243.0       18.6638        0.0315       45.9299       45.9613      27.297570       0.14346
  13     269.0       18.6638        0.0345       45.1708       45.2052      26.541407       0.24530
  12     297.5       18.6657        0.0374       44.0115       44.0489      25.383145       0.34353
  11     328.5       18.6700        0.0404       42.7242       42.7646      24.094565       0.35036
  10     361.9       18.6781        0.0434       41.3539       41.3974      22.719301       0.34796
   9     398.1       18.6919        0.0464       39.7953       39.8417      21.149832       0.36565
   8     437.6       18.7150        0.0493       37.9948       38.0441      19.329017       0.38930
   7     480.5       18.7520        0.0520       36.0647       36.1167      17.364776       0.38577
   6     533.0       18.8213        0.0550       33.7773       33.8323      15.010968       0.37865
   5     589.8       18.9423        0.0577       31.4082       31.4659      12.523623       0.36920
   4     651.6       19.1766        0.0600       28.8834       28.9434       9.766768       0.37701
   3     718.7       19.6291        0.0621       26.4104       26.4724       6.843307       0.36740
   2     792.3       20.6124        0.0638       24.0056       24.0694       3.456967       0.38838
   1     891.5        0.5136        2.3301        0.0000        2.3301       1.816540       0.13959
   0    1013.0        0.5417        2.1609        0.0000        2.1609       1.619158       0.01371



 Wavenumbers:  7700. -  8050. cm-1, ATM      1
 LEVEL PRESSURE   UPWARD FLUX   DIFDOWN FLUX  DIRDOWN FLUX  DOWNWARD FLUX   NET FLUX    HEATING RATE
          mb          W/m2          W/m2          W/m2        W/m2          W/m2       degree/day
  51    .06700        8.4568        0.0000       11.1810       11.1810       2.724180       0.00000
  50    .07753        8.4568        0.0000       11.1809       11.1809       2.724156       0.01906
  49    .09103        8.4568        0.0000       11.1809       11.1809       2.724126       0.01868
  48    0.1069        8.4568        0.0000       11.1809       11.1809       2.724092       0.01829
  47    0.1255        8.4568        0.0000       11.1809       11.1809       2.724052       0.01789
  46    0.1487        8.4568        0.0000       11.1808       11.1808       2.724002       0.01816
  45    0.1794        8.4568        0.0000       11.1808       11.1808       2.723934       0.01868
  44    0.2165        8.4569        0.0000       11.1807       11.1807       2.723854       0.01833
  43    0.2613        8.4569        0.0000       11.1806       11.1806       2.723758       0.01799
  42    0.3336        8.4569        0.0000       11.1805       11.1805       2.723600       0.01840
  41    0.4307        8.4570        0.0000       11.1803       11.1804       2.723391       0.01820
  40    0.5894        8.4571        0.0000       11.1801       11.1801       2.723049       0.01818
  39     1.339        8.4575        0.0001       11.1788       11.1789       2.721431       0.01821
  38     1.782        8.4577        0.0001       11.1781       11.1782       2.720481       0.01809
  37     2.292        8.4580        0.0001       11.1772       11.1773       2.719381       0.01822
  36     2.964        8.4583        0.0002       11.1761       11.1763       2.717936       0.01813
  35     3.853        8.4588        0.0002       11.1746       11.1748       2.716028       0.01811
  34     5.035        8.4594        0.0003       11.1726       11.1729       2.713493       0.01811
  33     6.613        8.4603        0.0004       11.1700       11.1704       2.710107       0.01810
  32     8.786        8.4614        0.0005       11.1664       11.1669       2.705544       0.01772
  31     11.80        8.4630        0.0007       11.1613       11.1620       2.699019       0.01827
  30     15.07        8.4647        0.0009       11.1558       11.1568       2.692017       0.01808
  29     18.79        8.4667        0.0012       11.1497       11.1508       2.684112       0.01792
  28     23.16        8.4690        0.0014       11.1425       11.1439       2.674887       0.01784
  27     28.12        8.4717        0.0017       11.1343       11.1360       2.664350       0.01791
  26     33.73        8.4747        0.0021       11.1252       11.1273       2.652573       0.01771
  25     40.54        8.4783        0.0025       11.1142       11.1167       2.638370       0.01762
  24     48.69        8.4827        0.0030       11.1010       11.1040       2.621283       0.01768
  23     57.69        8.4876        0.0035       11.0866       11.0901       2.602561       0.01755
  22     68.43        8.4934        0.0042       11.0695       11.0737       2.580330       0.01748
  21     81.20        8.5004        0.0049       11.0494       11.0543       2.553940       0.01744
  20     96.49        8.5088        0.0059       11.0255       11.0314       2.522630       0.01728
  19     114.6        8.5189        0.0070       10.9975       11.0045       2.485641       0.01727
  18     136.5        8.5310        0.0083       10.9648       10.9730       2.442055       0.01676
  17     162.9        8.5456        0.0098       10.9263       10.9361       2.390490       0.01648
  16     196.4        8.5650        0.0118       10.8773       10.8891       2.324122       0.01671
  15     218.7        8.5779        0.0131       10.8455       10.8587       2.280787       0.01645
  14     243.0        8.5922        0.0146       10.8114       10.8260       2.233837       0.01628
  13     269.0        8.6079        0.0161       10.7749       10.7910       2.183047       0.01648
  12     297.5        8.6254        0.0178       10.7357       10.7535       2.128112       0.01629
  11     328.5        8.6447        0.0196       10.6937       10.7133       2.068626       0.01617
  10     361.9        8.6661        0.0215       10.6489       10.6704       2.004263       0.01628
   9     398.1        8.6900        0.0236       10.6008       10.6244       1.934383       0.01628
   8     437.6        8.7167        0.0258       10.5491       10.5749       1.858183       0.01629
   7     480.5        8.7468        0.0282       10.4934       10.5217       1.774900       0.01636
   6     533.0        8.7860        0.0312       10.4243       10.4555       1.669502       0.01696
   5     589.8        8.8317        0.0344       10.3479       10.3823       1.550560       0.01765
   4     651.6        8.8866        0.0378       10.2613       10.2991       1.412481       0.01888
   3     718.7        8.9541        0.0414       10.1618       10.2031       1.249087       0.02053
   2     792.3        9.0400        0.0452       10.0439       10.0891       1.049102       0.02294
   1     891.5        0.2898        1.2048        0.0000        1.2048       0.915020       0.01141
   0    1013.0        0.2956        1.1791        0.0000        1.1791       0.883488       0.00219



 Wavenumbers:  8050. - 12850. cm-1, ATM      1
 LEVEL PRESSURE   UPWARD FLUX   DIFDOWN FLUX  DIRDOWN FLUX  DOWNWARD FLUX   NET FLUX    HEATING RATE
          mb          W/m2          W/m2          W/m2        W/m2          W/m2       degree/day
  51    .06700      110.9063        0.0000      156.5418      156.5418      45.635493       0.00000
  50    .07753      110.9062        0.0000      156.5417      156.5417      45.635493      -0.00000
  49    .09103      110.9062        0.0001      156.5417      156.5417      45.635493       0.00000
  48    0.1069      110.9062        0.0001      156.5416      156.5417      45.635493       0.00000
  47    0.1255      110.9062        0.0002      156.5415      156.5417      45.635493      -0.00000
  46    0.1487      110.9062        0.0002      156.5414      156.5417      45.635493       0.00000
  45    0.1794      110.9061        0.0003      156.5413      156.5416      45.635493       0.00000
  44    0.2165      110.9061        0.0004      156.5412      156.5416      45.635493      -0.00000
  43    0.2613      110.9061        0.0006      156.5410      156.5416      45.635493      -0.00000
  42    0.3336      110.9060        0.0008      156.5407      156.5415      45.635493       0.00000
  41    0.4307      110.9059        0.0011      156.5403      156.5414      45.635493      -0.00000
  40    0.5894      110.9058        0.0016      156.5397      156.5412      45.635493       0.00000
  39     1.339      110.9050        0.0038      156.5367      156.5405      45.635493       0.00000
  38     1.782      110.9046        0.0051      156.5350      156.5401      45.635493      -0.00000
  37     2.292      110.9041        0.0066      156.5330      156.5396      45.635493       0.00000
  36     2.964      110.9035        0.0086      156.5303      156.5390      45.635493       0.00000
  35     3.853      110.9026        0.0112      156.5268      156.5381      45.635493      -0.00000
  34     5.035      110.9015        0.0148      156.5222      156.5370      45.635493      -0.00000
  33     6.613      110.8999        0.0194      156.5160      156.5354      45.635493       0.00000
  32     8.786      110.8979        0.0257      156.5076      156.5334      45.635493      -0.00000
  31     11.80      110.8950        0.0348      156.4957      156.5304      45.635493       0.00000
  30     15.07      110.8918        0.0445      156.4828      156.5273      45.635493       0.00000
  29     18.79      110.8882        0.0555      156.4682      156.5237      45.635493      -0.00000
  28     23.16      110.8840        0.0683      156.4512      156.5195      45.635493       0.00000
  27     28.12      110.8793        0.0831      156.4317      156.5148      45.635493       0.00000
  26     33.73      110.8739        0.0995      156.4099      156.5094      45.635493       0.00000
  25     40.54      110.8674        0.1195      156.3834      156.5029      45.635493       0.00000
  24     48.69      110.8596        0.1436      156.3515      156.4951      45.635493      -0.00000
  23     57.69      110.8510        0.1700      156.3164      156.4865      45.635493       0.00000
  22     68.43      110.8407        0.2016      156.2746      156.4762      45.635493      -0.00000
  21     81.20      110.8284        0.2394      156.2246      156.4639      45.635493      -0.00000
  20     96.49      110.8138        0.2844      156.1649      156.4493      45.635493       0.00000
  19     114.6      110.7966        0.3379      156.0879      156.4258      45.629201       0.00294
  18     136.5      110.7763        0.4015      155.9962      156.3977      45.621400       0.00300
  17     162.9      110.7520        0.4774      155.8831      156.3605      45.608473       0.00413
  16     196.4      110.7206        0.5761      155.7199      156.2960      45.575415       0.00832
  15     218.7      110.7005        0.6410      155.5733      156.2143      45.513792       0.02340
  14     243.0      110.6800        0.7116      155.3367      156.0482      45.368222       0.05049
  13     269.0      110.6610        0.7879      154.9514      155.7393      45.078268       0.09406
  12     297.5      110.6468        0.8701      154.3896      155.2597      44.612907       0.13802
  11     328.5      110.6394        0.9588      153.7151      154.6739      44.034445       0.15728
  10     361.9      110.6432        1.0539      152.9087      153.9627      43.319451       0.18090
   9     398.1      110.6655        1.1557      151.8986      153.0544      42.388847       0.21681
   8     437.6      110.7188        1.2641      150.6031      151.8672      41.148418       0.26521
   7     480.5      110.8184        1.3787      149.0014      150.3801      39.561675       0.31163
   6     533.0      111.0217        1.5174      146.7375      148.2549      37.233199       0.37458
   5     589.8      111.3918        1.6627      143.8730      145.5357      34.143912       0.45855
   4     651.6      112.1159        1.8118      140.0955      141.9073      29.791406       0.59522
   3     718.7      113.4775        1.9630      135.5278      137.4907      24.013193       0.72616
   2     792.3      116.2090        2.1123      130.0690      132.1814      15.972385       0.92219
   1     891.5        3.3487       14.4632        0.0000       14.4632      11.114482       0.41338
   0    1013.0        3.4594       13.7990        0.0000       13.7990      10.339565       0.05381



 Wavenumbers: 12850. - 16000. cm-1, ATM      1
 LEVEL PRESSURE   UPWARD FLUX   DIFDOWN FLUX  DIRDOWN FLUX  DOWNWARD FLUX   NET FLUX    HEATING RATE
          mb          W/m2          W/m2          W/m2        W/m2          W/m2       degree/day
  51    .06700       78.3974        0.0000       98.0872       98.0872      19.689883       0.00000
  50    .07753       78.3974        0.0001       98.0864       98.0864      19.689090       0.63523
  49    .09103       78.3974        0.0002       98.0853       98.0855      19.688095       0.62225
  48    0.1069       78.3974        0.0003       98.0841       98.0843      19.686951       0.60904
  47    0.1255       78.3974        0.0004       98.0826       98.0830      19.685636       0.59615
  46    0.1487       78.3974        0.0005       98.0809       98.0814      19.683976       0.60514
  45    0.1794       78.3975        0.0007       98.0784       98.0792      19.681716       0.62020
  44    0.2165       78.3975        0.0010       98.0756       98.0766      19.679058       0.60480
  43    0.2613       78.3977        0.0013       98.0723       98.0736      19.675930       0.58964
  42    0.3336       78.3979        0.0017       98.0670       98.0687      19.670821       0.59562
  41    0.4307       78.3983        0.0023       98.0602       98.0625      19.664210       0.57481
  40    0.5894       78.3992        0.0034       98.0496       98.0529      19.653782       0.55455
  39     1.339       78.4062        0.0082       98.0043       98.0125      19.606359       0.53390
  38     1.782       78.4125        0.0110       97.9793       97.9903      19.577778       0.54414
  37     2.292       78.4219        0.0143       97.9498       97.9640      19.542105       0.59084
  36     2.964       78.4375        0.0186       97.9088       97.9274      19.489842       0.65606
  35     3.853       78.4626        0.0242       97.8503       97.8746      19.411925       0.73945
  34     5.035       78.5004        0.0317       97.7680       97.7997      19.299311       0.80446
  33     6.613       78.5532        0.0418       97.6562       97.6980      19.144810       0.82596
  32     8.786       78.6218        0.0553       97.5107       97.5660      18.944128       0.77938
  31     11.80       78.7113        0.0746       97.3179       97.3925      18.681160       0.73623
  30     15.07       78.7971        0.0953       97.1283       97.2237      18.426527       0.65741
  29     18.79       78.8849        0.1187       96.9300       97.0488      18.163870       0.59552
  28     23.16       78.9767        0.1460       96.7166       96.8626      17.885855       0.53759
  27     28.12       79.0694        0.1772       96.4935       96.6707      17.601333       0.48367
  26     33.73       79.1553        0.2122       96.2731       96.4853      17.329931       0.40806
  25     40.54       79.2386        0.2544       96.0408       96.2951      17.056547       0.33916
  24     48.69       79.3190        0.3052       95.7946       96.0998      16.780778       0.28538
  23     57.69       79.3881        0.3611       95.5573       95.9184      16.530296       0.23479
  22     68.43       79.4495        0.4277       95.3106       95.7383      16.288814       0.18984
  21     81.20       79.4941        0.5072       95.0643       95.5715      16.077413       0.13969
  20     96.49       79.5209        0.6020       94.8153       95.4173      15.896395       0.09991
  19     114.6       79.5496        0.7156       94.5411       95.2566      15.706996       0.08844
  18     136.5       79.5728        0.8502       94.2320       95.0822      15.509434       0.07597
  17     162.9       79.5904        1.0104       93.8753       94.8857      15.295284       0.06845
  16     196.4       79.5922        1.2182       93.4347       94.6529      15.060663       0.05906
  15     218.7       79.5861        1.3547       93.1513       94.5060      14.919924       0.05343
  14     243.0       79.5766        1.5031       92.8439       94.3470      14.770417       0.05185
  13     269.0       79.5640        1.6638       92.5111       94.1749      14.610974       0.05172
  12     297.5       79.5491        1.8375       92.1495       93.9870      14.437859       0.05134
  11     328.5       79.5343        2.0251       91.7554       93.7805      14.246178       0.05212
  10     361.9       79.5211        2.2271       91.3262       93.5533      14.032249       0.05413
   9     398.1       79.5114        2.4444       90.8575       93.3019      13.790508       0.05632
   8     437.6       79.5094        2.6775       90.3418       93.0193      13.509878       0.06000
   7     480.5       79.5194        2.9271       89.7728       92.6999      13.180594       0.06467
   6     533.0       79.5543        3.2339       89.0428       92.2767      12.722459       0.07370
   5     589.8       79.6333        3.5633       88.2038       91.7671      12.133798       0.08738
   4     651.6       79.8016        3.9147       87.1979       91.1127      11.311060       0.11251
   3     718.7       80.0959        4.2869       86.0161       90.3031      10.207142       0.13873
   2     792.3       80.6233        4.6760       84.5970       89.2730       8.649723       0.17862
   1     891.5        8.3627       15.8897        0.0000       15.8897       7.527054       0.09553
   0    1013.0        8.4581       15.6110        0.0000       15.6110       7.152982       0.02597



 Wavenumbers: 16000. - 22650. cm-1, ATM      1
 LEVEL PRESSURE   UPWARD FLUX   DIFDOWN FLUX  DIRDOWN FLUX  DOWNWARD FLUX   NET FLUX    HEATING RATE
          mb          W/m2          W/m2          W/m2        W/m2          W/m2       degree/day
  51    .06700      132.9457        0.0000      156.3892      156.3892      23.443521       0.00000
  50    .07753      132.9457        0.0004      156.3887      156.3891      23.443377       0.11559
  49    .09103      132.9457        0.0009      156.3879      156.3888      23.443167       0.13110
  48    0.1069      132.9456        0.0014      156.3871      156.3885      23.442887       0.14950
  47    0.1255      132.9456        0.0021      156.3861      156.3881      23.442511       0.17041
  46    0.1487      132.9456        0.0029      156.3847      156.3876      23.441957       0.20194
  45    0.1794      132.9457        0.0040      156.3828      156.3868      23.441091       0.23777
  44    0.2165      132.9459        0.0053      156.3805      156.3858      23.439916       0.26722
  43    0.2613      132.9462        0.0069      156.3776      156.3845      23.438322       0.30042
  42    0.3336      132.9468        0.0094      156.3726      156.3821      23.435292       0.35329
  41    0.4307      132.9478        0.0129      156.3657      156.3786      23.430724       0.39714
  40    0.5894      132.9501        0.0184      156.3537      156.3721      23.422013       0.46324
  39     1.339      132.9706        0.0448      156.2834      156.3282      23.357656       0.72455
  38     1.782      132.9898        0.0603      156.2324      156.2927      23.302832       1.04376
  37     2.292      133.0188        0.0782      156.1641      156.2423      23.223474       1.31437
  36     2.964      133.0673        0.1018      156.0605      156.1622      23.094916       1.61379
  35     3.853      133.1460        0.1328      155.9041      156.0369      22.890931       1.93586
  34     5.035      133.2648        0.1740      155.6774      155.8514      22.586614       2.17392
  33     6.613      133.4309        0.2290      155.3656      155.5946      22.163725       2.26077
  32     8.786      133.6472        0.3031      154.9577      155.2607      21.613491       2.13691
  31     11.80      133.9284        0.4088      154.4153      154.8240      20.895650       2.00973
  30     15.07      134.1973        0.5221      153.8804      154.4025      20.205186       1.78264
  29     18.79      134.4714        0.6499      153.3191      153.9690      19.497605       1.60430
  28     23.16      134.7574        0.7990      152.7126      153.5116      18.754208       1.43749
  27     28.12      135.0443        0.9692      152.0755      153.0447      18.000374       1.28147
  26     33.73      135.3080        1.1595      151.4409      152.6004      17.292387       1.06448
  25     40.54      135.5601        1.3891      150.7637      152.1528      16.592731       0.86800
  24     48.69      135.7994        1.6657      150.0338      151.6995      15.900153       0.71671
  23     57.69      135.9997        1.9690      149.3151      151.2842      15.284464       0.57712
  22     68.43      136.1710        2.3299      148.5476      150.8775      14.706571       0.45430
  21     81.20      136.2826        2.7595      147.7517      150.5112      14.228582       0.31585
  20     96.49      136.3300        3.2709      146.9127      150.1835      13.853530       0.20700
  19     114.6      136.3419        3.8762      145.9763      149.8525      13.510535       0.16015
  18     136.5      136.3264        4.5908      144.9088      149.4995      13.173169       0.12973
  17     162.9      136.2808        5.4376      143.6785      149.1161      12.835283       0.10800
  16     196.4      136.1635        6.5299      142.1651      148.6949      12.531449       0.07648
  15     218.7      136.0651        7.2435      141.2033      148.4469      12.381783       0.05682
  14     243.0      135.9483        8.0158      140.1753      148.1911      12.242770       0.04821
  13     269.0      135.8117        8.8487      139.0797      147.9284      12.116724       0.04089
  12     297.5      135.6544        9.7443      137.9141      147.6584      12.003970       0.03344
  11     328.5      135.4801       10.7067      136.6676      147.3743      11.894128       0.02987
  10     361.9      135.2885       11.7367      135.3392      147.0758      11.787297       0.02703
   9     398.1      135.0791       12.8381      133.9235      146.7616      11.682539       0.02441
   8     437.6      134.8525       14.0130      132.4163      146.4292      11.576689       0.02263
   7     480.5      134.6085       15.2632      130.8147      146.0779      11.469357       0.02108
   6     533.0      134.3087       16.7895      128.8599      145.6494      11.340772       0.02069
   5     589.8      133.9900       18.4195      126.7679      145.1874      11.197460       0.02127
   4     651.6      133.6593       20.1545      124.5274      144.6819      11.022656       0.02390
   3     718.7      133.3232       21.9959      122.1285      144.1244      10.801210       0.02783
   2     792.3      132.9996       23.9414      119.5548      143.4962      10.496653       0.03493
   1     891.5       36.5251       46.7317        0.0000       46.7317      10.206508       0.02469
   0    1013.0       36.4899       46.5017        0.0000       46.5017      10.011817       0.01352



 Wavenumbers: 22650. - 29000. cm-1, ATM      1
 LEVEL PRESSURE   UPWARD FLUX   DIFDOWN FLUX  DIRDOWN FLUX  DOWNWARD FLUX   NET FLUX    HEATING RATE
          mb          W/m2          W/m2          W/m2        W/m2          W/m2       degree/day
  51    .06700       55.0253        0.0000       59.0156       59.0156       3.990304       0.00000
  50    .07753       55.0252        0.0005       59.0151       59.0155       3.990304       0.00000
  49    .09103       55.0251        0.0010       59.0144       59.0154       3.990304       0.00000
  48    0.1069       55.0249        0.0017       59.0136       59.0152       3.990304       0.00000
  47    0.1255       55.0248        0.0024       59.0127       59.0151       3.990304       0.00000
  46    0.1487       55.0246        0.0034       59.0115       59.0149       3.990304      -0.00000
  45    0.1794       55.0243        0.0047       59.0099       59.0146       3.990304      -0.00000
  44    0.2165       55.0239        0.0062       59.0080       59.0142       3.990304       0.00000
  43    0.2613       55.0235        0.0080       59.0058       59.0138       3.990304       0.00000
  42    0.3336       55.0229        0.0110       59.0022       59.0132       3.990304      -0.00000
  41    0.4307       55.0220        0.0150       58.9973       59.0123       3.990304       0.00000
  40    0.5894       55.0205        0.0215       58.9894       59.0108       3.990304       0.00000
  39     1.339       55.0137        0.0522       58.9518       59.0040       3.990304       0.00000
  38     1.782       55.0096        0.0702       58.9297       58.9999       3.990304       0.00000
  37     2.292       55.0050        0.0911       58.9042       58.9953       3.990304       0.00000
  36     2.964       54.9988        0.1185       58.8706       58.9892       3.990304      -0.00000
  35     3.853       54.9908        0.1547       58.8264       58.9811       3.990304       0.00000
  34     5.035       54.9800        0.2028       58.7676       58.9703       3.990304       0.00000
  33     6.613       54.9657        0.2669       58.6891       58.9560       3.990304       0.00000
  32     8.786       54.9464        0.3533       58.5834       58.9367       3.990304      -0.00000
  31     11.80       54.9188        0.4767       58.4324       58.9091       3.990304       0.00000
  30     15.07       54.8892        0.6089       58.2706       58.8795       3.990304       0.00000
  29     18.79       54.8559        0.7580       58.0882       58.8462       3.990304       0.00000
  28     23.16       54.8170        0.9316       57.8757       58.8073       3.990304      -0.00000
  27     28.12       54.7727        1.1296       57.6333       58.7630       3.990304       0.00000
  26     33.73       54.7232        1.3504       57.3631       58.7135       3.990304       0.00000
  25     40.54       54.6636        1.6160       57.0379       58.6539       3.990304      -0.00000
  24     48.69       54.5920        1.9344       56.6479       58.5823       3.990304       0.00000
  23     57.69       54.5138        2.2820       56.2221       58.5041       3.990304      -0.00000
  22     68.43       54.4213        2.6930       55.7186       58.4116       3.990304       0.00000
  21     81.20       54.3118        3.1782       55.1239       58.3021       3.990304       0.00000
  20     96.49       54.1825        3.7500       54.4228       58.1728       3.990304       0.00000
  19     114.6       54.0306        4.4199       53.6010       58.0209       3.990304       0.00000
  18     136.5       53.8529        5.2014       52.6418       57.8432       3.990304      -0.00000
  17     162.9       53.6445        6.1144       51.5203       57.6348       3.990304       0.00000
  16     196.4       53.3794        7.2703       50.0994       57.3697       3.990304       0.00000
  15     218.7       53.2084        8.0125       49.1863       57.1987       3.990304       0.00000
  14     243.0       53.0253        8.8043       48.2113       57.0156       3.990304       0.00000
  13     269.0       52.8300        9.6454       47.1749       56.8203       3.990304      -0.00000
  12     297.5       52.6225       10.5345       46.0783       56.6128       3.990304      -0.00000
  11     328.5       52.4023       11.4731       44.9195       56.3926       3.990304       0.00000
  10     361.9       52.1699       12.4584       43.7018       56.1602       3.990304       0.00000
   9     398.1       51.9249       13.4902       42.4250       55.9152       3.990304      -0.00000
   8     437.6       51.6676       14.5663       41.0916       55.6579       3.990304      -0.00000
   7     480.5       51.3982       15.6840       39.7045       55.3885       3.990304       0.00000
   6     533.0       51.0753       17.0113       38.0543       55.0656       3.990304      -0.00000
   5     589.8       50.7374       18.3847       36.3431       54.7277       3.990304       0.00000
   4     651.6       50.3856       19.7964       34.5795       54.3759       3.990304      -0.00000
   3     718.7       50.0205       21.2406       32.7702       54.0109       3.990304       0.00000
   2     792.3       49.6434       22.7082       30.9256       53.6337       3.990304       0.00000
   1     891.5       14.6776       18.6666        0.0000       18.6666       3.989025       0.00011
   0    1013.0       14.5387       18.5278        0.0000       18.5278       3.989025       0.00000



 Wavenumbers: 29000. - 38000. cm-1, ATM      1
 LEVEL PRESSURE   UPWARD FLUX   DIFDOWN FLUX  DIRDOWN FLUX  DOWNWARD FLUX   NET FLUX    HEATING RATE
          mb          W/m2          W/m2          W/m2        W/m2          W/m2       degree/day
  51    .06700        8.2953        0.0000       20.8114       20.8114      12.516014       0.00000
  50    .07753        8.2952        0.0003       20.8070       20.8074      12.512207       3.05110
  49    .09103        8.2949        0.0007       20.8009       20.8016      12.506671       3.46034
  48    0.1069        8.2947        0.0012       20.7928       20.7939      12.499262       3.94370
  47    0.1255        8.2944        0.0017       20.7820       20.7837      12.489359       4.48965
  46    0.1487        8.2940        0.0024       20.7665       20.7688      12.474798       5.30761
  45    0.1794        8.2935        0.0033       20.7424       20.7457      12.452137       6.22105
  44    0.2165        8.2930        0.0043       20.7103       20.7146      12.421619       6.94227
  43    0.2613        8.2924        0.0056       20.6675       20.6730      12.380631       7.72603
  42    0.3336        8.2915        0.0076       20.5880       20.5956      12.304083       8.92469
  41    0.4307        8.2904        0.0103       20.4722       20.4825      12.192151       9.73223
  40    0.5894        8.2887        0.0146       20.2637       20.2782      11.989508      10.77632
  39     1.339        8.2848        0.0328       19.0984       19.1312      10.846337      12.87003
  38     1.782        8.2849        0.0422       18.4394       18.4816      10.196670      12.36860
  37     2.292        8.2871        0.0524       17.7714       17.8238       9.536691      10.93097
  36     2.964        8.2929        0.0649       17.0421       17.1070       8.814149       9.07009
  35     3.853        8.3046        0.0806       16.2678       16.3484       8.043878       7.31001
  34     5.035        8.3240        0.1004       15.4803       15.5807       7.256721       5.62312
  33     6.613        8.3525        0.1258       14.7157       14.8415       6.488981       4.10434
  32     8.786        8.3901        0.1590       13.9936       14.1526       5.762423       2.82169
  31     11.80        8.4392        0.2052       13.2835       13.4888       5.049586       1.99572
  30     15.07        8.4864        0.2531       12.7394       12.9925       4.506146       1.40306
  29     18.79        8.5350        0.3062       12.2666       12.5728       4.037845       1.06178
  28     23.16        8.5865        0.3666       11.8300       12.1966       3.610063       0.82719
  27     28.12        8.6391        0.4341       11.4279       11.8620       3.222843       0.65825
  26     33.73        8.6873        0.5085       11.0695       11.5779       2.890670       0.49943
  25     40.54        8.7323        0.5973       10.7209       11.3182       2.585871       0.37814
  24     48.69        8.7741        0.7027       10.3742       11.0769       2.302731       0.29301
  23     57.69        8.8075        0.8166       10.0549       10.8715       2.064084       0.22370
  22     68.43        8.8330        0.9503        9.7327       10.6830       1.850044       0.16826
  21     81.20        8.8419        1.1080        9.4134       10.5214       1.679521       0.11268
  20     96.49        8.8321        1.2932        9.0887       10.3820       1.549827       0.07158
  19     114.6        8.8114        1.5071        8.7388       10.2459       1.434484       0.05386
  18     136.5        8.7823        1.7514        8.3549       10.1062       1.323919       0.04251
  17     162.9        8.7448        2.0294        7.9311        9.9605       1.215781       0.03457
  16     196.4        8.6858        2.3732        7.4333        9.8066       1.120722       0.02393
  15     218.7        8.6443        2.5892        7.1295        9.7188       1.074414       0.01758
  14     243.0        8.5990        2.8147        6.8161        9.6307       1.031696       0.01482
  13     269.0        8.5497        3.0487        6.4943        9.5430       0.993377       0.01243
  12     297.5        8.4963        3.2902        6.1657        9.4559       0.959635       0.01001
  11     328.5        8.4403        3.5382        5.8295        9.3676       0.927367       0.00877
  10     361.9        8.3820        3.7901        5.4886        9.2787       0.896720       0.00775
   9     398.1        8.3215        4.0452        5.1440        9.1892       0.867716       0.00676
   8     437.6        8.2593        4.3022        4.7969        9.0991       0.839798       0.00597
   7     480.5        8.1956        4.5586        4.4504        9.0090       0.813340       0.00520
   6     533.0        8.1214        4.8497        4.0563        8.9060       0.784552       0.00463
   5     589.8        8.0466        5.1351        3.6682        8.8033       0.756739       0.00413
   4     651.6        7.9719        5.4110        3.2905        8.7015       0.729591       0.00371
   3     718.7        7.8978        5.6757        2.9252        8.6009       0.703070       0.00333
   2     792.3        7.8250        5.9257        2.5764        8.5021       0.677181       0.00297
   1     891.5        2.3957        3.0525        0.0000        3.0525       0.656882       0.00173
   0    1013.0        2.3534        2.9992        0.0000        2.9992       0.645720       0.00078



 Wavenumbers: 38000. - 50000. cm-1, ATM      1
 LEVEL PRESSURE   UPWARD FLUX   DIFDOWN FLUX  DIRDOWN FLUX  DOWNWARD FLUX   NET FLUX    HEATING RATE
          mb          W/m2          W/m2          W/m2        W/m2          W/m2       degree/day
  51    .06700        0.0061        0.0000        1.2836        1.2836       1.277518       0.00000
  50    .07753        0.0061        0.0001        1.2812        1.2812       1.275183       1.87150
  49    .09103        0.0060        0.0002        1.2777        1.2778       1.271851       2.08247
  48    0.1069        0.0059        0.0002        1.2731        1.2734       1.267473       2.33059
  47    0.1255        0.0058        0.0004        1.2672        1.2675       1.261717       2.60908
  46    0.1487        0.0057        0.0005        1.2586        1.2591       1.253391       3.03499
  45    0.1794        0.0055        0.0007        1.2455        1.2462       1.240623       3.50520
  44    0.2165        0.0054        0.0009        1.2282        1.2291       1.223697       3.85037
  43    0.2613        0.0052        0.0011        1.2054        1.2065       1.201348       4.21261
  42    0.3336        0.0049        0.0015        1.1639        1.1654       1.160524       4.75970
  41    0.4307        0.0045        0.0020        1.1051        1.1070       1.102565       5.03943
  40    0.5894        0.0039        0.0026        1.0039        1.0064       1.002524       5.32007
  39     1.339        0.0022        0.0035        0.5438        0.5473       0.545104       5.14971
  38     1.782        0.0016        0.0032        0.3635        0.3666       0.365006       3.42879
  37     2.292        0.0012        0.0027        0.2356        0.2383       0.237058       2.11916
  36     2.964        0.0009        0.0022        0.1455        0.1477       0.146786       1.13318
  35     3.853        0.0006        0.0017        0.0858        0.0875       0.086906       0.56828
  34     5.035        0.0004        0.0013        0.0488        0.0501       0.049701       0.26578
  33     6.613        0.0003        0.0010        0.0273        0.0282       0.027974       0.11615
  32     8.786        0.0002        0.0007        0.0144        0.0151       0.014928       0.05067
  31     11.80        0.0001        0.0004        0.0065        0.0070       0.006903       0.02247
  30     15.07        0.0000        0.0003        0.0031        0.0034       0.003329       0.00923
  29     18.79        0.0000        0.0002        0.0014        0.0016       0.001583       0.00396
  28     23.16        0.0000        0.0001        0.0006        0.0007       0.000720       0.00167
  27     28.12        0.0000        0.0001        0.0003        0.0003       0.000317       0.00069
  26     33.73        0.0000        0.0000        0.0001        0.0001       0.000140       0.00027
  25     40.54        0.0000        0.0000        0.0000        0.0001       0.000057       0.00010
  24     48.69        0.0000        0.0000        0.0000        0.0000       0.000021       0.00004
  23     57.69        0.0000        0.0000        0.0000        0.0000       0.000008       0.00001
  22     68.43        0.0000        0.0000        0.0000        0.0000       0.000003       0.00000
  21     81.20        0.0000        0.0000        0.0000        0.0000       0.000001       0.00000
  20     96.49        0.0000        0.0000        0.0000        0.0000       0.000000       0.00000
  19     114.6        0.0000        0.0000        0.0000        0.0000       0.000000       0.00000
  18     136.5        0.0000        0.0000        0.0000        0.0000       0.000000       0.00000
  17     162.9        0.0000        0.0000        0.0000        0.0000       0.000000       0.00000
  16     196.4        0.0000        0.0000        0.0000        0.0000       0.000000       0.00000
  15     218.7        0.0000        0.0000        0.0000        0.0000       0.000000       0.00000
  14     243.0        0.0000        0.0000        0.0000        0.0000       0.000000       0.00000
  13     269.0        0.0000        0.0000        0.0000        0.0000       0.000000       0.00000
  12     297.5        0.0000        0.0000        0.0000        0.0000       0.000000       0.00000
  11     328.5        0.0000        0.0000        0.0000        0.0000       0.000000       0.00000
  10     361.9        0.0000        0.0000        0.0000        0.0000       0.000000       0.00000
   9     398.1        0.0000        0.0000        0.0000        0.0000       0.000000       0.00000
   8     437.6        0.0000        0.0000        0.0000        0.0000       0.000000       0.00000
   7     480.5        0.0000        0.0000        0.0000        0.0000       0.000000       0.00000
   6     533.0        0.0000        0.0000        0.0000        0.0000       0.000000       0.00000
   5     589.8        0.0000        0.0000        0.0000        0.0000       0.000000       0.00000
   4     651.6        0.0000        0.0000        0.0000        0.0000       0.000000       0.00000
   3     718.7        0.0000        0.0000        0.0000        0.0000       0.000000       0.00000
   2     792.3        0.0000        0.0000        0.0000        0.0000       0.000000       0.00000
   1     891.5        0.0000        0.0000        0.0000        0.0000       0.000000       0.00000
   0    1013.0        0.0000        0.0000        0.0000        0.0000       0.000000       0.00000



 Wavenumbers:   820. -  2600. cm-1, ATM      1
 LEVEL PRESSURE   UPWARD FLUX   DIFDOWN FLUX  DIRDOWN FLUX  DOWNWARD FLUX   NET FLUX    HEATING RATE
          mb          W/m2          W/m2          W/m2        W/m2          W/m2       degree/day
  51    .06700        1.6492        0.0000        6.0047        6.0047       4.355413       0.00000
  50    .07753        1.6492        0.0000        6.0008        6.0008       4.351560       3.08826
  49    .09103        1.6492        0.0000        5.9999        5.9999       4.350675       0.55362
  48    0.1069        1.6492        0.0000        5.9989        5.9989       4.349685       0.52657
  47    0.1255        1.6492        0.0000        5.9978        5.9978       4.348568       0.50654
  46    0.1487        1.6492        0.0000        5.9964        5.9964       4.347211       0.49462
  45    0.1794        1.6492        0.0000        5.9947        5.9947       4.345492       0.47205
  44    0.2165        1.6492        0.0000        5.9929        5.9929       4.343649       0.41916
  43    0.2613        1.6492        0.0000        5.9909        5.9909       4.341689       0.36938
  42    0.3336        1.6492        0.0000        5.9880        5.9880       4.338811       0.33562
  41    0.4307        1.6492        0.0000        5.9846        5.9846       4.335341       0.30171
  40    0.5894        1.6492        0.0000        5.9791        5.9791       4.329835       0.29282
  39     1.339        1.6492        0.0000        5.9536        5.9536       4.304342       0.28700
  38     1.782        1.6493        0.0000        5.9395        5.9395       4.290200       0.26923
  37     2.292        1.6493        0.0000        5.9237        5.9237       4.274445       0.26094
  36     2.964        1.6493        0.0000        5.9039        5.9039       4.254666       0.24829
  35     3.853        1.6493        0.0000        5.8793        5.8793       4.230003       0.23405
  34     5.035        1.6493        0.0000        5.8487        5.8487       4.199432       0.21839
  33     6.613        1.6493        0.0000        5.8108        5.8108       4.161455       0.20302
  32     8.786        1.6493        0.0000        5.7631        5.7631       4.113816       0.18501
  31     11.80        1.6494        0.0000        5.7039        5.7039       4.054535       0.16597
  30     15.07        1.6494        0.0000        5.6539        5.6539       4.004471       0.12926
  29     18.79        1.6494        0.0000        5.6127        5.6127       3.963306       0.09333
  28     23.16        1.6495        0.0000        5.5794        5.5794       3.929894       0.06461
  27     28.12        1.6495        0.0000        5.5518        5.5518       3.902285       0.04693
  26     33.73        1.6496        0.0000        5.5268        5.5268       3.877184       0.03774
  25     40.54        1.6497        0.0000        5.4993        5.4993       3.849681       0.03412
  24     48.69        1.6497        0.0000        5.4678        5.4678       3.818067       0.03272
  23     57.69        1.6498        0.0000        5.4340        5.4340       3.784197       0.03175
  22     68.43        1.6499        0.0000        5.3947        5.3948       3.744823       0.03095
  21     81.20        1.6501        0.0000        5.3497        5.3497       3.699665       0.02984
  20     96.49        1.6502        0.0000        5.2982        5.2982       3.647997       0.02852
  19     114.6        1.6504        0.0000        5.2389        5.2389       3.588484       0.02779
  18     136.5        1.6507        0.0000        5.1716        5.1717       3.520985       0.02595
  17     162.9        1.6510        0.0000        5.0890        5.0891       3.438009       0.02652
  16     196.4        1.6517        0.0000        4.9668        4.9668       3.315170       0.03092
  15     218.7        1.6523        0.0000        4.8585        4.8585       3.206208       0.04137
  14     243.0        1.6532        0.0000        4.7078        4.7079       3.054623       0.05257
  13     269.0        1.6547        0.0000        4.5343        4.5343       2.879609       0.05677
  12     297.5        1.6570        0.0000        4.3419        4.3420       2.684994       0.05772
  11     328.5        1.6601        0.0000        4.1281        4.1281       2.468096       0.05897
  10     361.9        1.6641        0.0000        3.8786        3.8787       2.214546       0.06415
   9     398.1        1.6694        0.0000        3.6159        3.6160       1.946536       0.06244
   8     437.6        1.6763        0.0000        3.3759        3.3759       1.699627       0.05279
   7     480.5        1.6847        0.0000        3.1957        3.1958       1.511127       0.03702
   6     533.0        1.6974        0.0000        3.0467        3.0467       1.349293       0.02603
   5     589.8        1.7163        0.0001        2.9023        2.9023       1.186070       0.02423
   4     651.6        1.7490        0.0001        2.7183        2.7184       0.969334       0.02964
   3     718.7        1.8062        0.0001        2.5058        2.5059       0.699695       0.03389
   2     792.3        1.9183        0.0001        2.2756        2.2757       0.357396       0.03926
   1     891.5        0.0322        0.1858        0.0000        0.1858       0.153536       0.01735
   0    1013.0        0.0384        0.1533        0.0000        0.1533       0.114865       0.00269

  Modules and versions used in this calculation:

       rrtmg_sw.1col.f90:  $Revision$                    rrtmg_sw_init.f90:  $Revision$        
     rrtmgsw_cldprop.f90:  $Revision$                  rrtmgsw_cldprmc.f90:  NOT USED          
     rrtmg_sw_reftra.f90:  $Revision$                  rrtmg_sw_spcvrt.f90:  NOT USED          
     rrtmg_sw_spcvmc.f90:  NOT USED                    rrtmgsw_setcoef.f90:  NOT USED          
     rrtmg_sw_taumol.f90:  $Revision$                  rrtmg_sw_vrtqdr.f90:  NOT USED          
                rrtatm.f:  NOT USED                             util_xxx.f:  NOT USED          
                 extra.f:  NOT USED                       rrtmg_sw_k_g.f90:  $Revision$        

