

 Wavenumbers:   820. - 50000. cm-1, ATM      1
 LEVEL PRESSURE   UPWARD FLUX   DIFDOWN FLUX  DIRDOWN FLUX  DOWNWARD FLUX   NET FLUX    HEATING RATE
          mb          W/m2          W/m2          W/m2        W/m2          W/m2       degree/day
  51    .06700      328.8332        0.0000      617.8126      617.8126     288.979409       0.00000
  50    .07753      328.8327        0.0013      617.7947      617.7960     288.963285      12.92323
  49    .09103      328.8322        0.0029      617.7778      617.7807     288.948500       9.24152
  48    0.1069      328.8316        0.0047      617.7581      617.7628     288.931270       9.17140
  47    0.1255      328.8309        0.0069      617.7340      617.7409     288.909968       9.65743
  46    0.1487      328.8301        0.0096      617.7009      617.7104     288.880344      10.79806
  45    0.1794      328.8291        0.0132      617.6521      617.6653     288.836210      12.11581
  44    0.2165      328.8280        0.0175      617.5895      617.6070     288.779020      13.00972
  43    0.2613      328.8268        0.0226      617.5089      617.5315     288.704686      14.01181
  42    0.3336      328.8252        0.0310      617.3641      617.3951     288.569938      15.71019
  41    0.4307      328.8234        0.0421      617.1591      617.2012     288.377824      16.70390
  40    0.5894      328.8213        0.0599      616.8005      616.8604     288.039104      18.01270
  39     1.339      328.8269        0.1403      614.9443      615.0845     286.257656      20.05587
  38     1.782      328.8409        0.1854      613.9670      614.1524     285.311480      18.01365
  37     2.292      328.8669        0.2367      613.0059      613.2425     284.375649      15.49980
  36     2.964      328.9156        0.3033      611.9577      612.2609     283.345365      12.93318
  35     3.853      329.0002        0.3906      610.8024      611.1930     282.192842      10.93766
  34     5.035      329.1325        0.5058      609.5327      610.0385     280.906006       9.19262
  33     6.613      329.3200        0.6586      608.1464      608.8050     279.485066       7.59635
  32     8.786      329.5636        0.8635      606.6250      607.4886     277.924964       6.05887
  31     11.80      329.8763        1.1552      604.8486      606.0038     276.127565       5.03215
  30     15.07      330.1702        1.4663      603.2440      604.7102     274.540027       4.09871
  29     18.79      330.4649        1.8162      601.6511      603.4673     273.002391       3.48629
  28     23.16      330.7661        2.2225      599.9927      602.2152     271.449107       3.00355
  27     28.12      331.0602        2.6848      598.2881      600.9729     269.912716       2.61176
  26     33.73      331.3154        3.2000      596.5951      599.7951     268.479685       2.15460
  25     40.54      331.5377        3.8200      594.7727      598.5927     267.054964       1.76753
  24     48.69      331.7224        4.5635      592.7865      597.3500     265.627614       1.47708
  23     57.69      331.8444        5.3758      590.7959      596.1717     264.327295       1.21885
  22     68.43      331.9021        6.3376      588.6191      594.9567     263.054588       1.00052
  21     81.20      331.8489        7.4772      586.2690      593.7461     261.897217       0.76477
  20     96.49      331.6726        8.8254      583.6961      592.5215     260.848903       0.57859
  19     114.6      331.4166       10.4098      580.7708      591.1806     259.764092       0.50653
  18     136.5      331.0768       12.2631      577.4359      589.6990     258.622184       0.43909
  17     162.9      330.6415       14.4350      573.5624      587.9975     257.355955       0.40474
  16     196.4      330.0059       17.2004      568.5907      585.7911     255.785188       0.39538
  15     218.7      329.5655       18.9857      565.0572      584.0429     254.477320       0.49655
  14     243.0      329.0804       20.8980      560.7495      581.6475     252.567160       0.66251
  13     269.0      328.5501       22.9382      555.3947      578.3329     249.782766       0.90324
  12     297.5      327.9774       25.1061      548.9964      574.1025     246.125112       1.08482
  11     328.5      327.3681       27.4071      542.0895      569.4966     242.128461       1.08668
  10     361.9      326.7269       29.8366      534.6242      564.4609     237.733923       1.11186
   9     398.1      326.0589       32.3981      526.4204      558.8186     232.759664       1.15889
   8     437.6      325.3769       35.0892      517.3907      552.4799     227.102960       1.20944
   7     480.5      324.6943       37.9069      507.7216      545.6284     220.934181       1.21152
   6     533.0      323.9434       41.2846      495.9006      537.1852     213.241829       1.23745
   5     589.8      323.2952       44.8167      483.0788      527.8956     204.600352       1.28268
   4     651.6      322.9278       48.4887      468.6907      517.1793     194.251568       1.41522
   3     718.7      323.0831       52.2906      453.2257      505.5163     182.433199       1.48524
   2     792.3      324.3948       56.1992      436.4928      492.6921     168.297322       1.62123
   1     891.5      189.2378      253.6072       88.5693      342.1764     152.938633       1.30695
   0    1013.0      190.3158      247.7054       83.1083      330.8137     140.497910       0.86382



 Wavenumbers:  2600. -  3250. cm-1, ATM      1
 LEVEL PRESSURE   UPWARD FLUX   DIFDOWN FLUX  DIRDOWN FLUX  DOWNWARD FLUX   NET FLUX    HEATING RATE
          mb          W/m2          W/m2          W/m2        W/m2          W/m2       degree/day
  51    .06700        1.1254        0.0000        5.4450        5.4450       4.319634       0.00000
  50    .07753        1.1254        0.0000        5.4450        5.4450       4.319626       0.00640
  49    .09103        1.1254        0.0000        5.4450        5.4450       4.319616       0.00627
  48    0.1069        1.1254        0.0000        5.4450        5.4450       4.319605       0.00613
  47    0.1255        1.1254        0.0000        5.4450        5.4450       4.319592       0.00599
  46    0.1487        1.1254        0.0000        5.4450        5.4450       4.319575       0.00608
  45    0.1794        1.1254        0.0000        5.4450        5.4450       4.319552       0.00625
  44    0.2165        1.1254        0.0000        5.4449        5.4449       4.319525       0.00612
  43    0.2613        1.1254        0.0000        5.4449        5.4449       4.319493       0.00600
  42    0.3336        1.1254        0.0000        5.4448        5.4448       4.319441       0.00617
  41    0.4307        1.1254        0.0000        5.4448        5.4448       4.319369       0.00620
  40    0.5894        1.1254        0.0000        5.4446        5.4446       4.319249       0.00637
  39     1.339        1.1254        0.0000        5.4439        5.4439       4.318542       0.00797
  38     1.782        1.1254        0.0000        5.4434        5.4434       4.317999       0.01034
  37     2.292        1.1254        0.0000        5.4427        5.4427       4.317283       0.01186
  36     2.964        1.1254        0.0000        5.4416        5.4416       4.316244       0.01304
  35     3.853        1.1254        0.0000        5.4402        5.4402       4.314767       0.01402
  34     5.035        1.1254        0.0000        5.4381        5.4381       4.312711       0.01468
  33     6.613        1.1254        0.0000        5.4353        5.4353       4.309930       0.01487
  32     8.786        1.1254        0.0000        5.4317        5.4317       4.306298       0.01411
  31     11.80        1.1254        0.0000        5.4269        5.4269       4.301516       0.01339
  30     15.07        1.1254        0.0000        5.4224        5.4224       4.296989       0.01169
  29     18.79        1.1254        0.0000        5.4180        5.4180       4.292575       0.01001
  28     23.16        1.1254        0.0000        5.4135        5.4135       4.288086       0.00868
  27     28.12        1.1254        0.0000        5.4088        5.4088       4.283435       0.00791
  26     33.73        1.1254        0.0000        5.4036        5.4036       4.278188       0.00789
  25     40.54        1.1254        0.0000        5.3966        5.3967       4.271238       0.00862
  24     48.69        1.1254        0.0000        5.3872        5.3872       4.261748       0.00982
  23     57.69        1.1255        0.0000        5.3754        5.3754       4.249945       0.01106
  22     68.43        1.1255        0.0000        5.3599        5.3599       4.234430       0.01220
  21     81.20        1.1255        0.0000        5.3401        5.3401       4.214558       0.01313
  20     96.49        1.1256        0.0000        5.3155        5.3155       4.189936       0.01359
  19     114.6        1.1257        0.0000        5.2853        5.2854       4.159662       0.01414
  18     136.5        1.1258        0.0001        5.2504        5.2505       4.124647       0.01346
  17     162.9        1.1260        0.0001        5.2111        5.2112       4.085147       0.01263
  16     196.4        1.1263        0.0001        5.1640        5.1641       4.037792       0.01192
  15     218.7        1.1266        0.0001        5.1331        5.1332       4.006556       0.01186
  14     243.0        1.1272        0.0001        5.0962        5.0963       3.969141       0.01298
  13     269.0        1.1280        0.0001        5.0511        5.0512       3.923204       0.01490
  12     297.5        1.1292        0.0001        4.9956        4.9957       3.866479       0.01682
  11     328.5        1.1310        0.0001        4.9304        4.9305       3.799511       0.01821
  10     361.9        1.1334        0.0001        4.8511        4.8512       3.717849       0.02066
   9     398.1        1.1367        0.0002        4.7507        4.7508       3.614131       0.02416
   8     437.6        1.1413        0.0002        4.6220        4.6222       3.480892       0.02849
   7     480.5        1.1477        0.0002        4.4625        4.4627       3.314967       0.03259
   6     533.0        1.1581        0.0002        4.2460        4.2462       3.088145       0.03649
   5     589.8        1.1739        0.0002        3.9954        3.9956       2.821655       0.03956
   4     651.6        1.2001        0.0002        3.7089        3.7091       2.508920       0.04277
   3     718.7        1.2434        0.0002        3.4018        3.4020       2.158595       0.04403
   2     792.3        1.3220        0.0002        3.0564        3.0566       1.734603       0.04863
   1     891.5        0.2811        1.0142        0.5526        1.5669       1.285711       0.03820
   0    1013.0        0.3243        0.8399        0.4460        1.2859       0.961574       0.02251



 Wavenumbers:  3250. -  4000. cm-1, ATM      1
 LEVEL PRESSURE   UPWARD FLUX   DIFDOWN FLUX  DIRDOWN FLUX  DOWNWARD FLUX   NET FLUX    HEATING RATE
          mb          W/m2          W/m2          W/m2        W/m2          W/m2       degree/day
  51    .06700        0.0261        0.0000        9.1795        9.1795       9.153425       0.00000
  50    .07753        0.0261        0.0000        9.1747        9.1747       9.148583       3.88148
  49    .09103        0.0261        0.0000        9.1713        9.1713       9.145195       2.11747
  48    0.1069        0.0261        0.0000        9.1688        9.1688       9.142670       1.34402
  47    0.1255        0.0261        0.0000        9.1665        9.1665       9.140411       1.02422
  46    0.1487        0.0261        0.0000        9.1641        9.1641       9.137969       0.88991
  45    0.1794        0.0261        0.0000        9.1612        9.1612       9.135091       0.79008
  44    0.2165        0.0261        0.0000        9.1583        9.1583       9.132171       0.66430
  43    0.2613        0.0261        0.0000        9.1553        9.1553       9.129198       0.56041
  42    0.3336        0.0261        0.0000        9.1511        9.1511       9.125019       0.48723
  41    0.4307        0.0261        0.0000        9.1464        9.1464       9.120251       0.41459
  40    0.5894        0.0261        0.0000        9.1393        9.1394       9.113245       0.37255
  39     1.339        0.0261        0.0000        9.1127        9.1127       9.086632       0.29962
  38     1.782        0.0261        0.0000        9.1011        9.1011       9.075043       0.22062
  37     2.292        0.0261        0.0000        9.0901        9.0901       9.063977       0.18329
  36     2.964        0.0261        0.0000        9.0776        9.0776       9.051547       0.15603
  35     3.853        0.0261        0.0000        9.0629        9.0629       9.036757       0.14036
  34     5.035        0.0261        0.0000        9.0441        9.0441       9.018018       0.13386
  33     6.613        0.0261        0.0000        9.0191        9.0191       8.993016       0.13366
  32     8.786        0.0261        0.0000        8.9843        8.9843       8.958233       0.13509
  31     11.80        0.0261        0.0000        8.9327        8.9327       8.906616       0.14451
  30     15.07        0.0261        0.0000        8.8758        8.8759       8.849771       0.14676
  29     18.79        0.0261        0.0000        8.8110        8.8110       8.784944       0.14698
  28     23.16        0.0261        0.0000        8.7365        8.7366       8.710499       0.14395
  27     28.12        0.0261        0.0000        8.6554        8.6555       8.629386       0.13789
  26     33.73        0.0261        0.0000        8.5719        8.5719       8.545887       0.12554
  25     40.54        0.0261        0.0001        8.4812        8.4812       8.455163       0.11255
  24     48.69        0.0260        0.0001        8.3838        8.3839       8.357862       0.10069
  23     57.69        0.0260        0.0001        8.2861        8.2862       8.260126       0.09161
  22     68.43        0.0260        0.0001        8.1751        8.1751       8.149130       0.08726
  21     81.20        0.0260        0.0001        8.0457        8.0458       8.019771       0.08548
  20     96.49        0.0260        0.0001        7.8949        7.8950       7.869068       0.08318
  19     114.6        0.0260        0.0001        7.7162        7.7163       7.690358       0.08344
  18     136.5        0.0259        0.0002        7.5193        7.5195       7.493514       0.07569
  17     162.9        0.0259        0.0002        7.2913        7.2915       7.265622       0.07284
  16     196.4        0.0259        0.0002        6.9660        6.9662       6.940348       0.08188
  15     218.7        0.0259        0.0002        6.6648        6.6650       6.639155       0.11435
  14     243.0        0.0258        0.0002        6.2619        6.2622       6.236350       0.13971
  13     269.0        0.0258        0.0003        5.7576        5.7579       5.732024       0.16360
  12     297.5        0.0259        0.0003        5.1719        5.1722       5.146277       0.17373
  11     328.5        0.0260        0.0002        4.5757        4.5760       4.550020       0.16212
  10     361.9        0.0261        0.0002        3.9995        3.9998       3.973683       0.14582
   9     398.1        0.0264        0.0002        3.4655        3.4657       3.439361       0.12448
   8     437.6        0.0268        0.0002        2.9740        2.9743       2.947472       0.10517
   7     480.5        0.0275        0.0002        2.5307        2.5309       2.503385       0.08722
   6     533.0        0.0288        0.0002        2.0614        2.0616       2.032711       0.07572
   5     589.8        0.0314        0.0002        1.6150        1.6151       1.583764       0.06664
   4     651.6        0.0366        0.0001        1.1565        1.1566       1.119958       0.06343
   3     718.7        0.0482        0.0001        0.7390        0.7391       0.690870       0.05392
   2     792.3        0.0791        0.0001        0.3985        0.3985       0.319405       0.04260
   1     891.5        0.0003        0.0400        0.0244        0.0644       0.064117       0.02172
   0    1013.0        0.0029        0.0042        0.0020        0.0062       0.003214       0.00423



 Wavenumbers:  4000. -  4650. cm-1, ATM      1
 LEVEL PRESSURE   UPWARD FLUX   DIFDOWN FLUX  DIRDOWN FLUX  DOWNWARD FLUX   NET FLUX    HEATING RATE
          mb          W/m2          W/m2          W/m2        W/m2          W/m2       degree/day
  51    .06700        3.6994        0.0000       10.7795       10.7795       7.080190       0.00000
  50    .07753        3.6994        0.0000       10.7795       10.7795       7.080189       0.00080
  49    .09103        3.6994        0.0000       10.7795       10.7795       7.080188       0.00078
  48    0.1069        3.6994        0.0000       10.7795       10.7795       7.080187       0.00076
  47    0.1255        3.6994        0.0000       10.7795       10.7795       7.080185       0.00075
  46    0.1487        3.6994        0.0000       10.7795       10.7795       7.080183       0.00076
  45    0.1794        3.6994        0.0000       10.7795       10.7795       7.080180       0.00078
  44    0.2165        3.6994        0.0000       10.7795       10.7795       7.080177       0.00076
  43    0.2613        3.6994        0.0000       10.7795       10.7795       7.080173       0.00075
  42    0.3336        3.6994        0.0000       10.7795       10.7795       7.080166       0.00077
  41    0.4307        3.6994        0.0000       10.7795       10.7795       7.080157       0.00077
  40    0.5894        3.6994        0.0000       10.7795       10.7795       7.080142       0.00080
  39     1.339        3.6993        0.0000       10.7794       10.7794       7.080053       0.00101
  38     1.782        3.6993        0.0000       10.7793       10.7793       7.079983       0.00133
  37     2.292        3.6993        0.0000       10.7792       10.7792       7.079889       0.00156
  36     2.964        3.6993        0.0000       10.7791       10.7791       7.079749       0.00176
  35     3.853        3.6993        0.0000       10.7789       10.7789       7.079540       0.00198
  34     5.035        3.6993        0.0000       10.7786       10.7786       7.079233       0.00219
  33     6.613        3.6993        0.0000       10.7781       10.7781       7.078781       0.00242
  32     8.786        3.6993        0.0000       10.7774       10.7774       7.078114       0.00259
  31     11.80        3.6993        0.0001       10.7763       10.7764       7.077065       0.00294
  30     15.07        3.6993        0.0001       10.7751       10.7752       7.075835       0.00318
  29     18.79        3.6993        0.0001       10.7736       10.7737       7.074347       0.00337
  28     23.16        3.6993        0.0001       10.7717       10.7718       7.072499       0.00357
  27     28.12        3.6993        0.0001       10.7695       10.7696       7.070262       0.00380
  26     33.73        3.6993        0.0001       10.7667       10.7668       7.067503       0.00415
  25     40.54        3.6993        0.0002       10.7629       10.7631       7.063761       0.00464
  24     48.69        3.6994        0.0002       10.7579       10.7581       7.058773       0.00516
  23     57.69        3.6994        0.0003       10.7520       10.7522       7.052859       0.00554
  22     68.43        3.6995        0.0003       10.7446       10.7449       7.045446       0.00583
  21     81.20        3.6995        0.0004       10.7355       10.7359       7.036314       0.00603
  20     96.49        3.6997        0.0004       10.7245       10.7249       7.025201       0.00613
  19     114.6        3.6999        0.0005       10.7107       10.7112       7.011300       0.00649
  18     136.5        3.7002        0.0006       10.6942       10.6948       6.994547       0.00644
  17     162.9        3.7007        0.0007       10.6740       10.6747       6.974002       0.00657
  16     196.4        3.7015        0.0008       10.6464       10.6472       6.945654       0.00714
  15     218.7        3.7023        0.0009       10.6255       10.6264       6.924085       0.00819
  14     243.0        3.7034        0.0010       10.5980       10.5991       6.895658       0.00986
  13     269.0        3.7051        0.0011       10.5611       10.5622       6.857125       0.01250
  12     297.5        3.7076        0.0013       10.5119       10.5132       6.805617       0.01528
  11     328.5        3.7110        0.0014       10.4499       10.4513       6.740258       0.01777
  10     361.9        3.7155        0.0015       10.3702       10.3717       6.656201       0.02127
   9     398.1        3.7212        0.0017       10.2678       10.2694       6.548289       0.02514
   8     437.6        3.7284        0.0018       10.1390       10.1408       6.412426       0.02905
   7     480.5        3.7376        0.0020        9.9877        9.9897       6.252040       0.03150
   6     533.0        3.7519        0.0021        9.7937        9.7958       6.043970       0.03347
   5     589.8        3.7724        0.0023        9.5752        9.5775       5.805060       0.03546
   4     651.6        3.8056        0.0025        9.2958        9.2983       5.492758       0.04271
   3     718.7        3.8611        0.0027        8.9267        8.9294       5.068330       0.05334
   2     792.3        3.9648        0.0028        8.4542        8.4571       4.492241       0.06607
   1     891.5        0.8997        3.0997        1.6677        4.7674       3.867685       0.05315
   0    1013.0        0.9580        2.8483        1.5141        4.3624       3.404399       0.03217



 Wavenumbers:  4650. -  5150. cm-1, ATM      1
 LEVEL PRESSURE   UPWARD FLUX   DIFDOWN FLUX  DIRDOWN FLUX  DOWNWARD FLUX   NET FLUX    HEATING RATE
          mb          W/m2          W/m2          W/m2        W/m2          W/m2       degree/day
  51    .06700        2.6663        0.0000       10.2033       10.2033       7.537045       0.00000
  50    .07753        2.6663        0.0000       10.2031       10.2031       7.536809       0.18901
  49    .09103        2.6663        0.0000       10.2028       10.2028       7.536514       0.18428
  48    0.1069        2.6663        0.0000       10.2025       10.2025       7.536178       0.17931
  47    0.1255        2.6663        0.0000       10.2021       10.2021       7.535793       0.17426
  46    0.1487        2.6663        0.0000       10.2016       10.2016       7.535312       0.17536
  45    0.1794        2.6663        0.0000       10.2010       10.2010       7.534662       0.17850
  44    0.2165        2.6663        0.0000       10.2002       10.2002       7.533902       0.17277
  43    0.2613        2.6663        0.0000       10.1993       10.1993       7.533017       0.16690
  42    0.3336        2.6663        0.0000       10.1979       10.1979       7.531584       0.16702
  41    0.4307        2.6663        0.0000       10.1960       10.1960       7.529744       0.16002
  40    0.5894        2.6663        0.0000       10.1932       10.1932       7.526870       0.15283
  39     1.339        2.6663        0.0000       10.1816       10.1816       7.515278       0.13050
  38     1.782        2.6663        0.0000       10.1760       10.1760       7.509750       0.10526
  37     2.292        2.6663        0.0000       10.1706       10.1706       7.504293       0.09038
  36     2.964        2.6663        0.0000       10.1646       10.1647       7.498370       0.07436
  35     3.853        2.6663        0.0000       10.1584       10.1584       7.492155       0.05898
  34     5.035        2.6663        0.0000       10.1521       10.1521       7.485818       0.04527
  33     6.613        2.6663        0.0000       10.1456       10.1456       7.479359       0.03453
  32     8.786        2.6663        0.0001       10.1386       10.1386       7.472346       0.02724
  31     11.80        2.6663        0.0001       10.1295       10.1296       7.463299       0.02533
  30     15.07        2.6663        0.0001       10.1196       10.1197       7.453412       0.02553
  29     18.79        2.6663        0.0001       10.1076       10.1077       7.441393       0.02725
  28     23.16        2.6663        0.0001       10.0923       10.0924       7.426071       0.02963
  27     28.12        2.6664        0.0002       10.0731       10.0733       7.406952       0.03250
  26     33.73        2.6664        0.0002       10.0500       10.0503       7.383825       0.03477
  25     40.54        2.6665        0.0003       10.0201       10.0204       7.353874       0.03716
  24     48.69        2.6666        0.0003        9.9820        9.9823       7.315633       0.03957
  23     57.69        2.6668        0.0004        9.9384        9.9388       7.272004       0.04090
  22     68.43        2.6670        0.0004        9.8858        9.8862       7.219146       0.04155
  21     81.20        2.6674        0.0005        9.8234        9.8240       7.156579       0.04134
  20     96.49        2.6678        0.0006        9.7518        9.7524       7.084515       0.03977
  19     114.6        2.6685        0.0007        9.6719        9.6726       7.004122       0.03754
  18     136.5        2.6694        0.0008        9.5858        9.5866       6.917208       0.03342
  17     162.9        2.6707        0.0010        9.4940        9.4950       6.824313       0.02969
  16     196.4        2.6727        0.0012        9.3883        9.3895       6.716741       0.02708
  15     218.7        2.6743        0.0013        9.3229        9.3242       6.649923       0.02537
  14     243.0        2.6764        0.0014        9.2520        9.2534       6.577052       0.02527
  13     269.0        2.6792        0.0016        9.1717        9.1733       6.494095       0.02691
  12     297.5        2.6831        0.0017        9.0763        9.0780       6.394956       0.02940
  11     328.5        2.6882        0.0019        8.9650        8.9669       6.278696       0.03161
  10     361.9        2.6948        0.0021        8.8349        8.8370       6.142205       0.03453
   9     398.1        2.7034        0.0023        8.6820        8.6843       5.980879       0.03759
   8     437.6        2.7146        0.0024        8.5028        8.5052       5.790638       0.04067
   7     480.5        2.7292        0.0026        8.2948        8.2974       5.568235       0.04368
   6     533.0        2.7515        0.0028        8.0209        8.0237       5.272212       0.04762
   5     589.8        2.7826        0.0030        7.7063        7.7094       4.926794       0.05127
   4     651.6        2.8286        0.0032        7.3412        7.3445       4.515843       0.05620
   3     718.7        2.8983        0.0034        6.9387        6.9421       4.043744       0.05933
   2     792.3        3.0096        0.0035        6.5066        6.5101       3.500570       0.06230
   1     891.5        0.6678        2.3506        1.2700        3.6206       2.952784       0.04661
   0    1013.0        0.7230        2.1294        1.1345        3.2638       2.540897       0.02860



 Wavenumbers:  5150. -  6150. cm-1, ATM      1
 LEVEL PRESSURE   UPWARD FLUX   DIFDOWN FLUX  DIRDOWN FLUX  DOWNWARD FLUX   NET FLUX    HEATING RATE
          mb          W/m2          W/m2          W/m2        W/m2          W/m2       degree/day
  51    .06700        6.4009        0.0000       25.5798       25.5798      19.178932       0.00000
  50    .07753        6.4009        0.0000       25.5798       25.5798      19.178892       0.03159
  49    .09103        6.4009        0.0000       25.5797       25.5797      19.178841       0.03208
  48    0.1069        6.4009        0.0000       25.5797       25.5797      19.178780       0.03259
  47    0.1255        6.4009        0.0000       25.5796       25.5796      19.178707       0.03309
  46    0.1487        6.4009        0.0000       25.5795       25.5795      19.178611       0.03486
  45    0.1794        6.4009        0.0000       25.5794       25.5794      19.178476       0.03710
  44    0.2165        6.4009        0.0000       25.5792       25.5792      19.178310       0.03766
  43    0.2613        6.4009        0.0000       25.5790       25.5790      19.178108       0.03824
  42    0.3336        6.4009        0.0000       25.5786       25.5786      19.177761       0.04040
  41    0.4307        6.4009        0.0000       25.5782       25.5782      19.177290       0.04095
  40    0.5894        6.4009        0.0000       25.5774       25.5774      19.176501       0.04196
  39     1.339        6.4009        0.0000       25.5735       25.5736      19.172700       0.04279
  38     1.782        6.4009        0.0001       25.5713       25.5714      19.170488       0.04213
  37     2.292        6.4009        0.0001       25.5688       25.5688      19.167983       0.04148
  36     2.964        6.4009        0.0001       25.5656       25.5657      19.164802       0.03994
  35     3.853        6.4008        0.0001       25.5615       25.5616      19.160758       0.03837
  34     5.035        6.4008        0.0001       25.5562       25.5564      19.155551       0.03720
  33     6.613        6.4008        0.0002       25.5494       25.5496      19.148795       0.03611
  32     8.786        6.4008        0.0003       25.5406       25.5409      19.140041       0.03400
  31     11.80        6.4008        0.0003       25.5287       25.5290      19.128202       0.03315
  30     15.07        6.4008        0.0004       25.5167       25.5171      19.116329       0.03065
  29     18.79        6.4008        0.0005       25.5042       25.5047      19.103917       0.02814
  28     23.16        6.4008        0.0007       25.4907       25.4913      19.090546       0.02586
  27     28.12        6.4008        0.0008       25.4764       25.4773      19.076446       0.02397
  26     33.73        6.4008        0.0010       25.4620       25.4630      19.062156       0.02149
  25     40.54        6.4009        0.0012       25.4463       25.4474      19.046528       0.01939
  24     48.69        6.4010        0.0014       25.4294       25.4308      19.029788       0.01732
  23     57.69        6.4011        0.0017       25.4126       25.4143      19.013165       0.01558
  22     68.43        6.4013        0.0020       25.3944       25.3964      18.995111       0.01419
  21     81.20        6.4015        0.0023       25.3744       25.3768      18.975239       0.01313
  20     96.49        6.4018        0.0028       25.3519       25.3547      18.952901       0.01233
  19     114.6        6.4022        0.0033       25.3262       25.3295      18.927279       0.01196
  18     136.5        6.4027        0.0039       25.2962       25.3001      18.897450       0.01147
  17     162.9        6.4033        0.0047       25.2521       25.2568      18.853491       0.01405
  16     196.4        6.4041        0.0056       25.1593       25.1649      18.760786       0.02334
  15     218.7        6.4047        0.0062       25.0159       25.0221      18.617392       0.05444
  14     243.0        6.4056        0.0068       24.7089       24.7157      18.310185       0.10655
  13     269.0        6.4067        0.0074       24.1619       24.1693      17.762638       0.17762
  12     297.5        6.4082        0.0080       23.4544       23.4624      17.054211       0.21011
  11     328.5        6.4103        0.0086       22.7355       22.7441      16.333817       0.19587
  10     361.9        6.4131        0.0092       21.9224       21.9317      15.518570       0.20627
   9     398.1        6.4169        0.0098       20.9939       21.0037      14.586793       0.21708
   8     437.6        6.4224        0.0104       19.9833       19.9937      13.571348       0.21711
   7     480.5        6.4299        0.0109       18.9483       18.9592      12.529288       0.20466
   6     533.0        6.4428        0.0115       17.7796       17.7911      11.348276       0.18999
   5     589.8        6.4638        0.0121       16.6726       16.6846      10.220845       0.16735
   4     651.6        6.5023        0.0126       15.6343       15.6470       9.144630       0.14718
   3     718.7        6.5730        0.0133       14.7738       14.7871       8.214096       0.11694
   2     792.3        6.7136        0.0141       14.0291       14.0432       7.329536       0.10145
   1     891.5        1.6011        5.2466        2.7989        8.0455       6.444375       0.07532
   0    1013.0        1.6708        4.8871        2.5756        7.4627       5.791954       0.04530



 Wavenumbers:  6150. -  7700. cm-1, ATM      1
 LEVEL PRESSURE   UPWARD FLUX   DIFDOWN FLUX  DIRDOWN FLUX  DOWNWARD FLUX   NET FLUX    HEATING RATE
          mb          W/m2          W/m2          W/m2        W/m2          W/m2       degree/day
  51    .06700       10.1338        0.0000       47.3109       47.3109      37.177048       0.00000
  50    .07753       10.1338        0.0000       47.3108       47.3108      37.176991       0.04553
  49    .09103       10.1338        0.0000       47.3107       47.3107      37.176918       0.04583
  48    0.1069       10.1338        0.0000       47.3106       47.3106      37.176831       0.04614
  47    0.1255       10.1338        0.0000       47.3105       47.3105      37.176729       0.04645
  46    0.1487       10.1338        0.0000       47.3104       47.3104      37.176596       0.04852
  45    0.1794       10.1338        0.0000       47.3102       47.3102      37.176409       0.05127
  44    0.2165       10.1338        0.0000       47.3100       47.3100      37.176182       0.05167
  43    0.2613       10.1338        0.0000       47.3097       47.3097      37.175905       0.05210
  42    0.3336       10.1338        0.0000       47.3092       47.3092      37.175436       0.05471
  41    0.4307       10.1338        0.0000       47.3085       47.3086      37.174801       0.05521
  40    0.5894       10.1338        0.0001       47.3074       47.3075      37.173742       0.05633
  39     1.339       10.1337        0.0002       47.3022       47.3023      37.168650       0.05733
  38     1.782       10.1337        0.0002       47.2991       47.2993      37.165679       0.05655
  37     2.292       10.1336        0.0003       47.2956       47.2959      37.162304       0.05591
  36     2.964       10.1336        0.0004       47.2912       47.2915      37.157985       0.05421
  35     3.853       10.1335        0.0005       47.2855       47.2859      37.152451       0.05252
  34     5.035       10.1334        0.0006       47.2780       47.2786      37.145270       0.05129
  33     6.613       10.1332        0.0008       47.2683       47.2691      37.135883       0.05019
  32     8.786       10.1330        0.0010       47.2556       47.2566      37.123583       0.04777
  31     11.80       10.1328        0.0014       47.2380       47.2394      37.106680       0.04732
  30     15.07       10.1325        0.0018       47.2201       47.2219      37.089392       0.04463
  29     18.79       10.1322        0.0023       47.2008       47.2031      37.070913       0.04190
  28     23.16       10.1318        0.0028       47.1795       47.1823      37.050523       0.03943
  27     28.12       10.1313        0.0034       47.1565       47.1599      37.028529       0.03739
  26     33.73       10.1308        0.0040       47.1324       47.1364      37.005608       0.03446
  25     40.54       10.1302        0.0048       47.1054       47.1102      36.979972       0.03180
  24     48.69       10.1295        0.0058       47.0754       47.0812      36.951720       0.02924
  23     57.69       10.1287        0.0069       47.0449       47.0518      36.923099       0.02683
  22     68.43       10.1278        0.0082       47.0110       47.0192      36.891363       0.02495
  21     81.20       10.1267        0.0097       46.9729       46.9826      36.855871       0.02345
  20     96.49       10.1254        0.0115       46.9294       46.9409      36.815533       0.02226
  19     114.6       10.1238        0.0137       46.8790       46.8927      36.768905       0.02177
  18     136.5       10.1219        0.0162       46.8200       46.8362      36.714288       0.02100
  17     162.9       10.1197        0.0193       46.7361       46.7554      36.635680       0.02513
  16     196.4       10.1169        0.0232       46.5703       46.5934      36.476516       0.04006
  15     218.7       10.1152        0.0257       46.3473       46.3730      36.257799       0.08304
  14     243.0       10.1136        0.0284       45.9299       45.9582      35.844650       0.14329
  13     269.0       10.1123        0.0310       45.1708       45.2018      35.089524       0.24496
  12     297.5       10.1117        0.0336       44.0115       44.0450      33.933348       0.34291
  11     328.5       10.1121        0.0362       42.7242       42.7604      32.648256       0.34941
  10     361.9       10.1141        0.0388       41.3539       41.3927      31.278588       0.34654
   9     398.1       10.1186        0.0413       39.7953       39.8366      29.717992       0.36358
   8     437.6       10.1271        0.0437       37.9948       38.0384      27.911359       0.38627
   7     480.5       10.1415        0.0459       36.0647       36.1106      25.969123       0.38145
   6     533.0       10.1696        0.0482       33.7773       33.8255      23.655937       0.37212
   5     589.8       10.2197        0.0503       31.4082       31.4584      21.238763       0.35879
   4     651.6       10.3176        0.0518       28.8834       28.9352      18.617569       0.35846
   3     718.7       10.5050        0.0531       26.4104       26.4635      15.958519       0.33417
   2     792.3       10.8976        0.0541       24.0056       24.0597      13.162139       0.32071
   1     891.5        2.4121        8.4516        4.5430       12.9946      10.582515       0.21951
   0    1013.0        2.5932        7.5449        3.9824       11.5273       8.934091       0.11446



 Wavenumbers:  7700. -  8050. cm-1, ATM      1
 LEVEL PRESSURE   UPWARD FLUX   DIFDOWN FLUX  DIRDOWN FLUX  DOWNWARD FLUX   NET FLUX    HEATING RATE
          mb          W/m2          W/m2          W/m2        W/m2          W/m2       degree/day
  51    .06700        4.7958        0.0000       11.1810       11.1810       6.385165       0.00000
  50    .07753        4.7958        0.0000       11.1809       11.1809       6.385144       0.01691
  49    .09103        4.7958        0.0000       11.1809       11.1809       6.385118       0.01657
  48    0.1069        4.7958        0.0000       11.1809       11.1809       6.385087       0.01622
  47    0.1255        4.7958        0.0000       11.1809       11.1809       6.385052       0.01587
  46    0.1487        4.7958        0.0000       11.1808       11.1808       6.385008       0.01611
  45    0.1794        4.7958        0.0000       11.1808       11.1808       6.384948       0.01657
  44    0.2165        4.7958        0.0000       11.1807       11.1807       6.384876       0.01626
  43    0.2613        4.7959        0.0000       11.1806       11.1806       6.384791       0.01595
  42    0.3336        4.7959        0.0000       11.1805       11.1805       6.384651       0.01632
  41    0.4307        4.7959        0.0000       11.1803       11.1804       6.384466       0.01614
  40    0.5894        4.7959        0.0000       11.1801       11.1801       6.384163       0.01613
  39     1.339        4.7962        0.0001       11.1788       11.1789       6.382728       0.01615
  38     1.782        4.7963        0.0001       11.1781       11.1782       6.381885       0.01604
  37     2.292        4.7964        0.0001       11.1772       11.1773       6.380910       0.01616
  36     2.964        4.7966        0.0002       11.1761       11.1762       6.379629       0.01608
  35     3.853        4.7968        0.0002       11.1746       11.1748       6.377937       0.01605
  34     5.035        4.7972        0.0003       11.1726       11.1729       6.375690       0.01605
  33     6.613        4.7976        0.0003       11.1700       11.1703       6.372689       0.01605
  32     8.786        4.7982        0.0005       11.1664       11.1668       6.368646       0.01570
  31     11.80        4.7990        0.0006       11.1613       11.1619       6.362866       0.01618
  30     15.07        4.8000        0.0008       11.1558       11.1566       6.356667       0.01601
  29     18.79        4.8010        0.0010       11.1497       11.1507       6.349671       0.01586
  28     23.16        4.8022        0.0012       11.1425       11.1437       6.341512       0.01578
  27     28.12        4.8036        0.0015       11.1343       11.1358       6.332198       0.01583
  26     33.73        4.8052        0.0018       11.1252       11.1270       6.321796       0.01564
  25     40.54        4.8071        0.0021       11.1142       11.1163       6.309260       0.01555
  24     48.69        4.8093        0.0025       11.1010       11.1035       6.294195       0.01559
  23     57.69        4.8119        0.0030       11.0866       11.0896       6.277707       0.01545
  22     68.43        4.8149        0.0036       11.0695       11.0731       6.258155       0.01537
  21     81.20        4.8186        0.0042       11.0494       11.0536       6.234982       0.01531
  20     96.49        4.8230        0.0050       11.0255       11.0305       6.207540       0.01515
  19     114.6        4.8283        0.0059       10.9975       11.0035       6.175195       0.01510
  18     136.5        4.8346        0.0070       10.9648       10.9718       6.137181       0.01462
  17     162.9        4.8423        0.0083       10.9263       10.9346       6.092351       0.01433
  16     196.4        4.8524        0.0100       10.8773       10.8873       6.034880       0.01447
  15     218.7        4.8592        0.0112       10.8455       10.8567       5.997493       0.01419
  14     243.0        4.8667        0.0124       10.8114       10.8238       5.957113       0.01401
  13     269.0        4.8750        0.0137       10.7749       10.7885       5.913575       0.01412
  12     297.5        4.8841        0.0151       10.7357       10.7508       5.866659       0.01391
  11     328.5        4.8943        0.0166       10.6937       10.7103       5.816057       0.01376
  10     361.9        4.9056        0.0182       10.6489       10.6671       5.761543       0.01379
   9     398.1        4.9181        0.0200       10.6008       10.6208       5.702629       0.01373
   8     437.6        4.9322        0.0219       10.5491       10.5710       5.638712       0.01367
   7     480.5        4.9481        0.0239       10.4934       10.5173       5.569220       0.01365
   6     533.0        4.9689        0.0264       10.4243       10.4507       5.481801       0.01406
   5     589.8        4.9931        0.0291       10.3479       10.3770       5.383814       0.01454
   4     651.6        5.0224        0.0319       10.2613       10.2933       5.270890       0.01544
   3     718.7        5.0583        0.0349       10.1618       10.1967       5.138356       0.01666
   2     792.3        5.1043        0.0381       10.0439       10.0820       4.977727       0.01842
   1     891.5        1.3387        4.0257        2.1105        6.1363       4.797624       0.01533
   0    1013.0        1.3663        3.9363        2.0565        5.9928       4.626569       0.01188



 Wavenumbers:  8050. - 12850. cm-1, ATM      1
 LEVEL PRESSURE   UPWARD FLUX   DIFDOWN FLUX  DIRDOWN FLUX  DOWNWARD FLUX   NET FLUX    HEATING RATE
          mb          W/m2          W/m2          W/m2        W/m2          W/m2       degree/day
  51    .06700       63.7705        0.0000      156.5418      156.5418      92.771282       0.00000
  50    .07753       63.7705        0.0000      156.5417      156.5417      92.771282       0.00000
  49    .09103       63.7704        0.0001      156.5417      156.5417      92.771282       0.00000
  48    0.1069       63.7704        0.0001      156.5416      156.5417      92.771282      -0.00000
  47    0.1255       63.7704        0.0002      156.5415      156.5417      92.771282       0.00000
  46    0.1487       63.7704        0.0002      156.5414      156.5416      92.771282       0.00000
  45    0.1794       63.7703        0.0003      156.5413      156.5416      92.771282       0.00000
  44    0.2165       63.7703        0.0004      156.5412      156.5415      92.771282       0.00000
  43    0.2613       63.7702        0.0005      156.5410      156.5415      92.771282       0.00000
  42    0.3336       63.7701        0.0007      156.5407      156.5414      92.771282       0.00000
  41    0.4307       63.7700        0.0009      156.5403      156.5412      92.771282      -0.00000
  40    0.5894       63.7697        0.0013      156.5397      156.5410      92.771282       0.00000
  39     1.339       63.7687        0.0033      156.5367      156.5400      92.771282       0.00000
  38     1.782       63.7681        0.0044      156.5350      156.5394      92.771282       0.00000
  37     2.292       63.7674        0.0057      156.5330      156.5387      92.771282      -0.00000
  36     2.964       63.7664        0.0074      156.5303      156.5377      92.771282       0.00000
  35     3.853       63.7652        0.0096      156.5268      156.5365      92.771282       0.00000
  34     5.035       63.7636        0.0127      156.5222      156.5349      92.771282       0.00000
  33     6.613       63.7614        0.0167      156.5160      156.5327      92.771282      -0.00000
  32     8.786       63.7584        0.0221      156.5076      156.5297      92.771282       0.00000
  31     11.80       63.7542        0.0298      156.4957      156.5255      92.771282      -0.00000
  30     15.07       63.7497        0.0382      156.4828      156.5209      92.771282       0.00000
  29     18.79       63.7445        0.0476      156.4682      156.5158      92.771282       0.00000
  28     23.16       63.7385        0.0586      156.4512      156.5098      92.771282      -0.00000
  27     28.12       63.7316        0.0712      156.4317      156.5029      92.771282       0.00000
  26     33.73       63.7239        0.0854      156.4099      156.4952      92.771282       0.00000
  25     40.54       63.7146        0.1025      156.3834      156.4859      92.771282       0.00000
  24     48.69       63.7034        0.1231      156.3515      156.4746      92.771282      -0.00000
  23     57.69       63.6910        0.1458      156.3164      156.4622      92.771282       0.00000
  22     68.43       63.6762        0.1729      156.2746      156.4475      92.771282      -0.00000
  21     81.20       63.6585        0.2052      156.2246      156.4298      92.771282       0.00000
  20     96.49       63.6375        0.2438      156.1649      156.4088      92.771282       0.00000
  19     114.6       63.6126        0.2897      156.0879      156.3777      92.765107       0.00288
  18     136.5       63.5829        0.3442      155.9962      156.3404      92.757444       0.00295
  17     162.9       63.5476        0.4093      155.8831      156.2923      92.744709       0.00407
  16     196.4       63.5018        0.4938      155.7199      156.2138      92.712004       0.00823
  15     218.7       63.4718        0.5494      155.5733      156.1227      92.650895       0.02320
  14     243.0       63.4399        0.6098      155.3367      155.9465      92.506606       0.05004
  13     269.0       63.4068        0.6751      154.9514      155.6266      92.219727       0.09306
  12     297.5       63.3741        0.7454      154.3896      155.1350      91.760955       0.13607
  11     328.5       63.3424        0.8211      153.7151      154.5362      91.193777       0.15421
  10     361.9       63.3139        0.9022      152.9087      153.8110      90.497105       0.17627
   9     398.1       63.2917        0.9889      151.8986      152.8875      89.595778       0.20999
   8     437.6       63.2818        1.0809      150.6031      151.6841      88.402280       0.25518
   7     480.5       63.2911        1.1780      149.0014      150.1794      86.888318       0.29734
   6     533.0       63.3403        1.2951      146.7375      148.0327      84.692349       0.35326
   5     589.8       63.4635        1.4172      143.8730      145.2902      81.826662       0.42536
   4     651.6       63.7464        1.5416      140.0955      141.6371      77.890637       0.53826
   3     718.7       64.3142        1.6667      135.5278      137.1945      72.880314       0.62966
   2     792.3       65.4782        1.7893      130.0690      131.8583      66.380126       0.74550
   1     891.5       18.4523       51.3193       26.1362       77.4555      59.003182       0.62774
   0    1013.0       19.2533       48.1516       24.1727       72.3243      53.070953       0.41191



 Wavenumbers: 12850. - 16000. cm-1, ATM      1
 LEVEL PRESSURE   UPWARD FLUX   DIFDOWN FLUX  DIRDOWN FLUX  DOWNWARD FLUX   NET FLUX    HEATING RATE
          mb          W/m2          W/m2          W/m2        W/m2          W/m2       degree/day
  51    .06700       57.9427        0.0000       98.0872       98.0872      40.144543       0.00000
  50    .07753       57.9427        0.0001       98.0864       98.0864      40.143756       0.63100
  49    .09103       57.9427        0.0001       98.0853       98.0854      40.142768       0.61745
  48    0.1069       57.9427        0.0002       98.0841       98.0843      40.141634       0.60357
  47    0.1255       57.9426        0.0003       98.0826       98.0830      40.140333       0.58991
  46    0.1487       57.9426        0.0005       98.0809       98.0813      40.138693       0.59774
  45    0.1794       57.9426        0.0007       98.0784       98.0791      40.136466       0.61150
  44    0.2165       57.9427        0.0009       98.0756       98.0765      40.133850       0.59501
  43    0.2613       57.9427        0.0011       98.0723       98.0735      40.130780       0.57863
  42    0.3336       57.9428        0.0016       98.0670       98.0686      40.125783       0.58267
  41    0.4307       57.9430        0.0021       98.0602       98.0623      40.119339       0.56025
  40    0.5894       57.9434        0.0030       98.0496       98.0526      40.109231       0.53756
  39     1.339       57.9476        0.0074       98.0043       98.0118      40.064169       0.50732
  38     1.782       57.9517        0.0100       97.9793       97.9893      40.037600       0.50583
  37     2.292       57.9579        0.0129       97.9498       97.9627      40.004839       0.54260
  36     2.964       57.9684        0.0168       97.9088       97.9257      39.957297       0.59681
  35     3.853       57.9854        0.0220       97.8503       97.8723      39.886875       0.66831
  34     5.035       58.0113        0.0288       97.7680       97.7968      39.785460       0.72447
  33     6.613       58.0475        0.0379       97.6562       97.6941      39.646553       0.74260
  32     8.786       58.0946        0.0502       97.5107       97.5608      39.466219       0.70035
  31     11.80       58.1556        0.0677       97.3179       97.3856      39.229903       0.66161
  30     15.07       58.2138        0.0865       97.1283       97.2148      39.001023       0.59092
  29     18.79       58.2728        0.1077       96.9300       97.0377      38.764879       0.53541
  28     23.16       58.3341        0.1324       96.7166       96.8490      38.514862       0.48345
  27     28.12       58.3953        0.1607       96.4935       96.6542      38.258882       0.43515
  26     33.73       58.4509        0.1923       96.2731       96.4654      38.014448       0.36751
  25     40.54       58.5034        0.2305       96.0408       96.2713      37.767888       0.30589
  24     48.69       58.5522        0.2765       95.7946       96.0711      37.518874       0.25769
  23     57.69       58.5920        0.3271       95.5573       95.8844      37.292400       0.21229
  22     68.43       58.6243        0.3874       95.3106       95.6980      37.073698       0.17193
  21     81.20       58.6421        0.4592       95.0643       95.5235      36.881455       0.12703
  20     96.49       58.6442        0.5449       94.8153       95.3602      36.715908       0.09137
  19     114.6       58.6459        0.6474       94.5411       95.1885      36.542552       0.08094
  18     136.5       58.6397        0.7690       94.2320       95.0010      36.361317       0.06969
  17     162.9       58.6247        0.9136       93.8753       94.7889      36.164242       0.06299
  16     196.4       58.5891        1.1010       93.4347       94.5357      35.946588       0.05479
  15     218.7       58.5601        1.2241       93.1513       94.3754      35.815289       0.04985
  14     243.0       58.5262        1.3578       92.8439       94.2018      35.675537       0.04847
  13     269.0       58.4874        1.5026       92.5111       94.0137      35.526356       0.04839
  12     297.5       58.4440        1.6590       92.1495       93.8085      35.364467       0.04801
  11     328.5       58.3975        1.8279       91.7554       93.5833      35.185793       0.04858
  10     361.9       58.3485        2.0096       91.3262       93.3358      34.987286       0.05022
   9     398.1       58.2982        2.2050       90.8575       93.0625      34.764351       0.05194
   8     437.6       58.2488        2.4145       90.3418       92.7563      34.507570       0.05490
   7     480.5       58.2026        2.6387       89.7728       92.4115      34.208965       0.05864
   6     533.0       58.1588        2.9140       89.0428       91.9569      33.798032       0.06611
   5     589.8       58.1361        3.2094       88.2038       91.4132      33.277129       0.07732
   4     651.6       58.1614        3.5242       87.1979       90.7222      32.560741       0.09797
   3     718.7       58.2554        3.8571       86.0161       89.8732      31.617875       0.11849
   2     792.3       58.4801        4.2043       84.5970       88.8014      30.321232       0.14871
   1     891.5       32.9251       43.9046       17.6392       61.5437      28.618651       0.14488
   0    1013.0       33.3906       43.0774       17.0360       60.1134      26.722816       0.13164



 Wavenumbers: 16000. - 22650. cm-1, ATM      1
 LEVEL PRESSURE   UPWARD FLUX   DIFDOWN FLUX  DIRDOWN FLUX  DOWNWARD FLUX   NET FLUX    HEATING RATE
          mb          W/m2          W/m2          W/m2        W/m2          W/m2       degree/day
  51    .06700      119.5566        0.0000      156.3892      156.3892      36.832653       0.00000
  50    .07753      119.5565        0.0004      156.3887      156.3891      36.832515       0.11044
  49    .09103      119.5565        0.0008      156.3879      156.3888      36.832314       0.12527
  48    0.1069      119.5564        0.0014      156.3871      156.3885      36.832046       0.14285
  47    0.1255      119.5564        0.0020      156.3861      156.3881      36.831687       0.16283
  46    0.1487      119.5563        0.0028      156.3847      156.3875      36.831158       0.19294
  45    0.1794      119.5563        0.0038      156.3828      156.3867      36.830330       0.22718
  44    0.2165      119.5564        0.0051      156.3805      156.3856      36.829208       0.25532
  43    0.2613      119.5565        0.0066      156.3776      156.3842      36.827685       0.28704
  42    0.3336      119.5569        0.0091      156.3726      156.3817      36.824790       0.33756
  41    0.4307      119.5577        0.0124      156.3657      156.3781      36.820426       0.37945
  40    0.5894      119.5593        0.0177      156.3537      156.3714      36.812102       0.44261
  39     1.339      119.5760        0.0432      156.2834      156.3266      36.750612       0.69227
  38     1.782      119.5922        0.0581      156.2324      156.2904      36.698231       0.99724
  37     2.292      119.6170        0.0753      156.1641      156.2394      36.622412       1.25576
  36     2.964      119.6589        0.0980      156.0605      156.1585      36.499591       1.54177
  35     3.853      119.7273        0.1279      155.9041      156.0320      36.304721       1.84936
  34     5.035      119.8309        0.1676      155.6774      155.8450      36.014024       2.07661
  33     6.613      119.9761        0.2206      155.3656      155.5862      35.610112       2.15932
  32     8.786      120.1648        0.2918      154.9577      155.2495      35.084654       2.04069
  31     11.80      120.4096        0.3936      154.4153      154.8089      34.399279       1.91883
  30     15.07      120.6429        0.5027      153.8804      154.3831      33.740200       1.70161
  29     18.79      120.8799        0.6257      153.3191      153.9448      33.064943       1.53102
  28     23.16      121.1261        0.7692      152.7126      153.4818      32.355686       1.37147
  27     28.12      121.3718        0.9330      152.0755      153.0084      31.636663       1.22229
  26     33.73      121.5954        1.1160      151.4409      152.5569      30.961552       1.01505
  25     40.54      121.8060        1.3369      150.7637      152.1006      30.294564       0.82747
  24     48.69      122.0021        1.6028      150.0338      151.6366      29.634511       0.68305
  23     57.69      122.1617        1.8945      149.3151      151.2096      29.047899       0.54986
  22     68.43      122.2915        2.2413      148.5476      150.7890      28.497452       0.43273
  21     81.20      122.3636        2.6542      147.7517      150.4059      28.042289       0.30076
  20     96.49      122.3729        3.1455      146.9127      150.0581      27.685245       0.19706
  19     114.6      122.3446        3.7269      145.9763      149.7032      27.358617       0.15251
  18     136.5      122.2844        4.4130      144.9088      149.3218      27.037443       0.12350
  17     162.9      122.1885        5.2258      143.6785      148.9044      26.715881       0.10278
  16     196.4      122.0120        6.2738      142.1651      148.4389      26.426840       0.07276
  15     218.7      121.8770        6.9582      141.2033      148.1615      26.284515       0.05404
  14     243.0      121.7215        7.6985      140.1753      147.8739      26.152370       0.04583
  13     269.0      121.5438        8.4967      139.0797      147.5764      26.032622       0.03885
  12     297.5      121.3431        9.3546      137.9141      147.2687      25.925595       0.03174
  11     328.5      121.1222       10.2761      136.6676      146.9437      25.821436       0.02832
  10     361.9      120.8807       11.2618      135.3392      146.6010      25.720259       0.02560
   9     398.1      120.6176       12.3154      133.9235      146.2389      25.621211       0.02308
   8     437.6      120.3334       13.4385      132.4163      145.8548      25.521348       0.02135
   7     480.5      120.0273       14.6329      130.8147      145.4476      25.420362       0.01983
   6     533.0      119.6502       16.0901      128.8599      144.9500      25.299809       0.01939
   5     589.8      119.2467       17.6449      126.7679      144.4128      25.166069       0.01985
   4     651.6      118.8217       19.2982      124.5274      143.8257      25.003937       0.02217
   3     718.7      118.3798       21.0512      122.1285      143.1796      24.799837       0.02565
   2     792.3      117.9349       22.9010      119.5548      142.4558      24.520851       0.03200
   1     891.5       90.0441       89.3058       24.8288      114.1346      24.090539       0.03662
   0    1013.0       89.8820       89.4638       23.9268      113.3906      23.508559       0.04041



 Wavenumbers: 22650. - 29000. cm-1, ATM      1
 LEVEL PRESSURE   UPWARD FLUX   DIFDOWN FLUX  DIRDOWN FLUX  DOWNWARD FLUX   NET FLUX    HEATING RATE
          mb          W/m2          W/m2          W/m2        W/m2          W/m2       degree/day
  51    .06700       50.2420        0.0000       59.0156       59.0156       8.773603       0.00000
  50    .07753       50.2419        0.0004       59.0151       59.0155       8.773603       0.00000
  49    .09103       50.2417        0.0010       59.0144       59.0153       8.773603       0.00000
  48    0.1069       50.2416        0.0016       59.0136       59.0152       8.773603      -0.00000
  47    0.1255       50.2414        0.0023       59.0127       59.0150       8.773603      -0.00000
  46    0.1487       50.2411        0.0033       59.0115       59.0147       8.773603       0.00000
  45    0.1794       50.2408        0.0045       59.0099       59.0144       8.773603       0.00000
  44    0.2165       50.2404        0.0060       59.0080       59.0140       8.773603       0.00000
  43    0.2613       50.2400        0.0077       59.0058       59.0136       8.773603      -0.00000
  42    0.3336       50.2392        0.0106       59.0022       59.0128       8.773603       0.00000
  41    0.4307       50.2382        0.0145       58.9973       59.0118       8.773603       0.00000
  40    0.5894       50.2365        0.0207       58.9894       59.0101       8.773603      -0.00000
  39     1.339       50.2286        0.0504       58.9518       59.0022       8.773603       0.00000
  38     1.782       50.2240        0.0679       58.9297       58.9976       8.773603       0.00000
  37     2.292       50.2186        0.0880       58.9042       58.9922       8.773603       0.00000
  36     2.964       50.2116        0.1145       58.8706       58.9852       8.773603       0.00000
  35     3.853       50.2022        0.1495       58.8264       58.9758       8.773603       0.00000
  34     5.035       50.1899        0.1959       58.7676       58.9635       8.773603      -0.00000
  33     6.613       50.1734        0.2579       58.6891       58.9470       8.773603      -0.00000
  32     8.786       50.1512        0.3413       58.5834       58.9248       8.773603       0.00000
  31     11.80       50.1194        0.4605       58.4324       58.8930       8.773603       0.00000
  30     15.07       50.0853        0.5882       58.2706       58.8589       8.773603       0.00000
  29     18.79       50.0468        0.7322       58.0882       58.8204       8.773603       0.00000
  28     23.16       50.0020        0.8999       57.8757       58.7756       8.773603       0.00000
  27     28.12       49.9508        1.0911       57.6333       58.7244       8.773603       0.00000
  26     33.73       49.8937        1.3042       57.3631       58.6673       8.773603      -0.00000
  25     40.54       49.8248        1.5605       57.0379       58.5984       8.773603       0.00000
  24     48.69       49.7421        1.8678       56.6479       58.5157       8.773603       0.00000
  23     57.69       49.6516        2.2031       56.2221       58.4252       8.773603      -0.00000
  22     68.43       49.5443        2.5993       55.7186       58.3179       8.773603      -0.00000
  21     81.20       49.4173        3.0670       55.1239       58.1909       8.773603      -0.00000
  20     96.49       49.2671        3.6179       54.4228       58.0407       8.773603       0.00000
  19     114.6       49.0903        4.2629       53.6010       57.8639       8.773603      -0.00000
  18     136.5       48.8829        5.0148       52.6418       57.6565       8.773603       0.00000
  17     162.9       48.6392        5.8924       51.5203       57.4128       8.773603      -0.00000
  16     196.4       48.3280        7.0022       50.0994       57.1016       8.773603      -0.00000
  15     218.7       48.1267        7.7140       49.1863       56.9003       8.773603      -0.00000
  14     243.0       47.9105        8.4728       48.2113       56.6841       8.773603       0.00000
  13     269.0       47.6792        9.2779       47.1749       56.4528       8.773603       0.00000
  12     297.5       47.4327       10.1281       46.0783       56.2063       8.773603      -0.00000
  11     328.5       47.1702       11.0243       44.9195       55.9438       8.773603       0.00000
  10     361.9       46.8920       11.9637       43.7018       55.6656       8.773603       0.00000
   9     398.1       46.5975       12.9460       42.4250       55.3711       8.773603      -0.00000
   8     437.6       46.2867       13.9686       41.0916       55.0603       8.773603       0.00000
   7     480.5       45.9596       15.0287       39.7045       54.7332       8.773603      -0.00000
   6     533.0       45.5652       16.2845       38.0543       54.3388       8.773603       0.00000
   5     589.8       45.1495       17.5801       36.3431       53.9231       8.773603       0.00000
   4     651.6       44.7133       18.9073       34.5795       53.4869       8.773603       0.00000
   3     718.7       44.2565       20.2599       32.7702       53.0301       8.773603      -0.00000
   2     792.3       43.7801       21.6281       30.9256       52.5537       8.773603      -0.00000
   1     891.5       34.9670       37.6259        6.1146       43.7405       8.773480       0.00001
   0    1013.0       34.5725       37.7902        5.5558       43.3460       8.773480       0.00000



 Wavenumbers: 29000. - 38000. cm-1, ATM      1
 LEVEL PRESSURE   UPWARD FLUX   DIFDOWN FLUX  DIRDOWN FLUX  DOWNWARD FLUX   NET FLUX    HEATING RATE
          mb          W/m2          W/m2          W/m2        W/m2          W/m2       degree/day
  51    .06700        7.6148        0.0000       20.8114       20.8114      13.196562       0.00000
  50    .07753        7.6146        0.0003       20.8070       20.8074      13.192756       3.05035
  49    .09103        7.6144        0.0007       20.8009       20.8016      13.187222       3.45947
  48    0.1069        7.6141        0.0012       20.7928       20.7939      13.179815       3.94269
  47    0.1255        7.6138        0.0017       20.7820       20.7837      13.169914       4.48849
  46    0.1487        7.6134        0.0023       20.7665       20.7688      13.155357       5.30621
  45    0.1794        7.6129        0.0032       20.7424       20.7456      13.132702       6.21938
  44    0.2165        7.6124        0.0043       20.7103       20.7146      13.102192       6.94036
  43    0.2613        7.6118        0.0055       20.6675       20.6730      13.061216       7.72384
  42    0.3336        7.6108        0.0075       20.5880       20.5955      12.984691       8.92206
  41    0.4307        7.6096        0.0101       20.4722       20.4824      12.872794       9.72922
  40    0.5894        7.6078        0.0144       20.2637       20.2780      12.670218      10.77273
  39     1.339        7.6031        0.0323       19.0984       19.1306      11.527560      12.86426
  38     1.782        7.6026        0.0416       18.4394       18.4809      10.878327      12.36034
  37     2.292        7.6039        0.0515       17.7714       17.8229      10.218965      10.92076
  36     2.964        7.6085        0.0637       17.0421       17.1059       9.497404       9.05777
  35     3.853        7.6182        0.0791       16.2678       16.3469       8.728671       7.29541
  34     5.035        7.6350        0.0984       15.4803       15.5788       7.943790       5.60687
  33     6.613        7.6597        0.1232       14.7157       14.8389       7.179201       4.08749
  32     8.786        7.6923        0.1555       13.9936       14.1491       6.456760       2.80570
  31     11.80        7.7347        0.2005       13.2835       13.4841       5.749355       1.98051
  30     15.07        7.7753        0.2472       12.7394       12.9865       5.211245       1.38929
  29     18.79        7.8168        0.2987       12.2666       12.5653       4.748535       1.04911
  28     23.16        7.8605        0.3573       11.8300       12.1873       4.326800       0.81550
  27     28.12        7.9048        0.4228       11.4279       11.8507       3.945924       0.64746
  26     33.73        7.9445        0.4949       11.0695       11.5644       3.619930       0.49014
  25     40.54        7.9804        0.5810       10.7209       11.3019       3.321473       0.37027
  24     48.69        8.0122        0.6829       10.3742       11.0571       3.044874       0.28624
  23     57.69        8.0357        0.7931       10.0549       10.8480       2.812288       0.21801
  22     68.43        8.0507        0.9221        9.7327       10.6549       2.604177       0.16360
  21     81.20        8.0489        1.0743        9.4134       10.4877       2.438766       0.10930
  20     96.49        8.0283        1.2528        9.0887       10.3415       2.313243       0.06928
  19     114.6        7.9955        1.4586        8.7388       10.1974       2.201868       0.05200
  18     136.5        7.9527        1.6932        8.3549       10.0481       2.095378       0.04095
  17     162.9        7.8993        1.9597        7.9311        9.8908       1.991530       0.03319
  16     196.4        7.8211        2.2883        7.4333        9.7216       1.900554       0.02290
  15     218.7        7.7674        2.4942        7.1295        9.6237       1.856371       0.01677
  14     243.0        7.7089        2.7086        6.8161        9.5246       1.815711       0.01410
  13     269.0        7.6456        2.9306        6.4943        9.4249       1.779334       0.01180
  12     297.5        7.5773        3.1589        6.1657        9.3247       1.747391       0.00947
  11     328.5        7.5051        3.3926        5.8295        9.2221       1.716936       0.00828
  10     361.9        7.4295        3.6290        5.4886        9.1176       1.688104       0.00729
   9     398.1        7.3504        3.8673        5.1440        9.0113       1.660914       0.00633
   8     437.6        7.2681        4.1060        4.7969        8.9030       1.634842       0.00557
   7     480.5        7.1829        4.3428        4.4504        8.7932       1.610235       0.00483
   6     533.0        7.0821        4.6094        4.0563        8.6657       1.583591       0.00429
   5     589.8        6.9783        4.8681        3.6682        8.5363       1.557994       0.00380
   4     651.6        6.8722        5.1149        3.2905        8.4054       1.533165       0.00340
   3     718.7        6.7640        5.3479        2.9252        8.2731       1.509071       0.00303
   2     792.3        6.6542        5.5635        2.5764        8.1399       1.485727       0.00268
   1     891.5        5.4681        6.4643        0.4634        6.9277       1.459604       0.00222
   0    1013.0        5.3608        6.4193        0.3750        6.7942       1.433403       0.00182



 Wavenumbers: 38000. - 50000. cm-1, ATM      1
 LEVEL PRESSURE   UPWARD FLUX   DIFDOWN FLUX  DIRDOWN FLUX  DOWNWARD FLUX   NET FLUX    HEATING RATE
          mb          W/m2          W/m2          W/m2        W/m2          W/m2       degree/day
  51    .06700        0.0061        0.0000        1.2836        1.2836       1.277518       0.00000
  50    .07753        0.0061        0.0001        1.2812        1.2812       1.275183       1.87150
  49    .09103        0.0060        0.0002        1.2777        1.2778       1.271851       2.08247
  48    0.1069        0.0059        0.0002        1.2731        1.2734       1.267473       2.33059
  47    0.1255        0.0058        0.0004        1.2672        1.2675       1.261717       2.60908
  46    0.1487        0.0057        0.0005        1.2586        1.2591       1.253391       3.03499
  45    0.1794        0.0055        0.0007        1.2455        1.2462       1.240623       3.50520
  44    0.2165        0.0054        0.0009        1.2282        1.2291       1.223697       3.85037
  43    0.2613        0.0052        0.0011        1.2054        1.2065       1.201348       4.21261
  42    0.3336        0.0049        0.0015        1.1639        1.1654       1.160524       4.75970
  41    0.4307        0.0045        0.0020        1.1051        1.1070       1.102565       5.03943
  40    0.5894        0.0039        0.0026        1.0039        1.0064       1.002524       5.32007
  39     1.339        0.0022        0.0035        0.5438        0.5473       0.545104       5.14971
  38     1.782        0.0016        0.0032        0.3635        0.3666       0.365006       3.42879
  37     2.292        0.0012        0.0027        0.2356        0.2383       0.237058       2.11916
  36     2.964        0.0009        0.0022        0.1455        0.1477       0.146786       1.13318
  35     3.853        0.0006        0.0017        0.0858        0.0875       0.086906       0.56828
  34     5.035        0.0004        0.0013        0.0488        0.0501       0.049701       0.26578
  33     6.613        0.0003        0.0010        0.0273        0.0282       0.027974       0.11615
  32     8.786        0.0002        0.0007        0.0144        0.0151       0.014928       0.05067
  31     11.80        0.0001        0.0004        0.0065        0.0070       0.006903       0.02247
  30     15.07        0.0000        0.0003        0.0031        0.0034       0.003329       0.00923
  29     18.79        0.0000        0.0002        0.0014        0.0016       0.001583       0.00396
  28     23.16        0.0000        0.0001        0.0006        0.0007       0.000720       0.00167
  27     28.12        0.0000        0.0001        0.0003        0.0003       0.000317       0.00069
  26     33.73        0.0000        0.0000        0.0001        0.0001       0.000140       0.00027
  25     40.54        0.0000        0.0000        0.0000        0.0001       0.000057       0.00010
  24     48.69        0.0000        0.0000        0.0000        0.0000       0.000021       0.00004
  23     57.69        0.0000        0.0000        0.0000        0.0000       0.000008       0.00001
  22     68.43        0.0000        0.0000        0.0000        0.0000       0.000003       0.00000
  21     81.20        0.0000        0.0000        0.0000        0.0000       0.000001       0.00000
  20     96.49        0.0000        0.0000        0.0000        0.0000       0.000000       0.00000
  19     114.6        0.0000        0.0000        0.0000        0.0000       0.000000       0.00000
  18     136.5        0.0000        0.0000        0.0000        0.0000       0.000000       0.00000
  17     162.9        0.0000        0.0000        0.0000        0.0000       0.000000       0.00000
  16     196.4        0.0000        0.0000        0.0000        0.0000       0.000000       0.00000
  15     218.7        0.0000        0.0000        0.0000        0.0000       0.000000       0.00000
  14     243.0        0.0000        0.0000        0.0000        0.0000       0.000000       0.00000
  13     269.0        0.0000        0.0000        0.0000        0.0000       0.000000       0.00000
  12     297.5        0.0000        0.0000        0.0000        0.0000       0.000000       0.00000
  11     328.5        0.0000        0.0000        0.0000        0.0000       0.000000       0.00000
  10     361.9        0.0000        0.0000        0.0000        0.0000       0.000000       0.00000
   9     398.1        0.0000        0.0000        0.0000        0.0000       0.000000       0.00000
   8     437.6        0.0000        0.0000        0.0000        0.0000       0.000000       0.00000
   7     480.5        0.0000        0.0000        0.0000        0.0000       0.000000       0.00000
   6     533.0        0.0000        0.0000        0.0000        0.0000       0.000000       0.00000
   5     589.8        0.0000        0.0000        0.0000        0.0000       0.000000       0.00000
   4     651.6        0.0000        0.0000        0.0000        0.0000       0.000000       0.00000
   3     718.7        0.0000        0.0000        0.0000        0.0000       0.000000       0.00000
   2     792.3        0.0000        0.0000        0.0000        0.0000       0.000000       0.00000
   1     891.5        0.0000        0.0000        0.0000        0.0000       0.000000       0.00000
   0    1013.0        0.0000        0.0000        0.0000        0.0000       0.000000       0.00000



 Wavenumbers:   820. -  2600. cm-1, ATM      1
 LEVEL PRESSURE   UPWARD FLUX   DIFDOWN FLUX  DIRDOWN FLUX  DOWNWARD FLUX   NET FLUX    HEATING RATE
          mb          W/m2          W/m2          W/m2        W/m2          W/m2       degree/day
  51    .06700        0.8528        0.0000        6.0047        6.0047       5.151808       0.00000
  50    .07753        0.8528        0.0000        6.0008        6.0008       5.147955       3.08822
  49    .09103        0.8528        0.0000        5.9999        5.9999       5.147069       0.55359
  48    0.1069        0.8528        0.0000        5.9989        5.9989       5.146080       0.52653
  47    0.1255        0.8528        0.0000        5.9978        5.9978       5.144963       0.50651
  46    0.1487        0.8528        0.0000        5.9964        5.9964       5.143606       0.49458
  45    0.1794        0.8528        0.0000        5.9947        5.9947       5.141887       0.47201
  44    0.2165        0.8528        0.0000        5.9929        5.9929       5.140044       0.41911
  43    0.2613        0.8528        0.0000        5.9909        5.9909       5.138085       0.36934
  42    0.3336        0.8528        0.0000        5.9880        5.9880       5.135207       0.33557
  41    0.4307        0.8528        0.0000        5.9846        5.9846       5.131737       0.30166
  40    0.5894        0.8528        0.0000        5.9791        5.9791       5.126232       0.29277
  39     1.339        0.8528        0.0000        5.9536        5.9536       5.100743       0.28695
  38     1.782        0.8529        0.0000        5.9395        5.9395       5.086604       0.26918
  37     2.292        0.8529        0.0000        5.9237        5.9237       5.070852       0.26089
  36     2.964        0.8529        0.0000        5.9039        5.9039       5.051077       0.24824
  35     3.853        0.8529        0.0000        5.8793        5.8793       5.026420       0.23401
  34     5.035        0.8529        0.0000        5.8487        5.8487       4.995854       0.21834
  33     6.613        0.8529        0.0000        5.8108        5.8108       4.957887       0.20297
  32     8.786        0.8529        0.0000        5.7631        5.7631       4.910259       0.18497
  31     11.80        0.8529        0.0000        5.7039        5.7039       4.850996       0.16592
  30     15.07        0.8529        0.0000        5.6539        5.6539       4.800950       0.12921
  29     18.79        0.8529        0.0000        5.6127        5.6127       4.759806       0.09329
  28     23.16        0.8530        0.0000        5.5794        5.5794       4.726418       0.06456
  27     28.12        0.8530        0.0000        5.5518        5.5518       4.698837       0.04689
  26     33.73        0.8530        0.0000        5.5268        5.5268       4.673767       0.03769
  25     40.54        0.8530        0.0000        5.4993        5.4993       4.646301       0.03407
  24     48.69        0.8531        0.0000        5.4678        5.4678       4.614731       0.03267
  23     57.69        0.8531        0.0000        5.4340        5.4340       4.580909       0.03170
  22     68.43        0.8532        0.0000        5.3947        5.3948       4.541593       0.03091
  21     81.20        0.8532        0.0000        5.3497        5.3497       4.496507       0.02979
  20     96.49        0.8533        0.0000        5.2982        5.2982       4.444928       0.02847
  19     114.6        0.8534        0.0000        5.2389        5.2389       4.385524       0.02774
  18     136.5        0.8535        0.0000        5.1716        5.1717       4.318163       0.02590
  17     162.9        0.8537        0.0000        5.0890        5.0890       4.235382       0.02646
  16     196.4        0.8540        0.0000        4.9668        4.9668       4.112882       0.03083
  15     218.7        0.8542        0.0000        4.8585        4.8585       4.004245       0.04125
  14     243.0        0.8547        0.0000        4.7078        4.7079       3.853183       0.05239
  13     269.0        0.8553        0.0000        4.5343        4.5343       3.678939       0.05652
  12     297.5        0.8564        0.0000        4.3419        4.3420       3.485555       0.05736
  11     328.5        0.8578        0.0000        4.1281        4.1281       3.270300       0.05853
  10     361.9        0.8597        0.0000        3.8786        3.8787       3.018929       0.06360
   9     398.1        0.8622        0.0000        3.6159        3.6159       2.753732       0.06178
   8     437.6        0.8654        0.0000        3.3759        3.3759       2.510469       0.05201
   7     480.5        0.8693        0.0000        3.1957        3.1958       2.326439       0.03614
   6     533.0        0.8753        0.0000        3.0467        3.0467       2.171392       0.02494
   5     589.8        0.8841        0.0000        2.9023        2.9023       2.018200       0.02274
   4     651.6        0.8994        0.0000        2.7183        2.7184       1.818918       0.02725
   3     718.7        0.9259        0.0000        2.5058        2.5059       1.579988       0.03003
   2     792.3        0.9761        0.0000        2.2756        2.2757       1.299563       0.03216
   1     891.5        0.1803        0.7588        0.4198        1.1787       0.998364       0.02563
   0    1013.0        0.2181        0.6131        0.3310        0.9441       0.726003       0.01891

  Modules and versions used in this calculation:

       rrtmg_sw.1col.f90:  $Revision$                    rrtmg_sw_init.f90:  $Revision$        
     rrtmgsw_cldprop.f90:  $Revision$                  rrtmgsw_cldprmc.f90:  NOT USED          
     rrtmg_sw_reftra.f90:  $Revision$                  rrtmg_sw_spcvrt.f90:  NOT USED          
     rrtmg_sw_spcvmc.f90:  NOT USED                    rrtmgsw_setcoef.f90:  NOT USED          
     rrtmg_sw_taumol.f90:  $Revision$                  rrtmg_sw_vrtqdr.f90:  NOT USED          
                rrtatm.f:  NOT USED                             util_xxx.f:  NOT USED          
                 extra.f:  NOT USED                       rrtmg_sw_k_g.f90:  $Revision$        

