

 Wavenumbers:   820. - 50000. cm-1, ATM      1
 LEVEL PRESSURE   UPWARD FLUX   DIFDOWN FLUX  DIRDOWN FLUX  DOWNWARD FLUX   NET FLUX    HEATING RATE
          mb          W/m2          W/m2          W/m2        W/m2          W/m2       degree/day
  51    .06700      290.5344        0.0000      617.8126      617.8126     327.278164       0.00000
  50    .07753      290.5340        0.0013      617.7947      617.7960     327.262044      12.92011
  49    .09103      290.5334        0.0029      617.7778      617.7806     327.247264       9.23815
  48    0.1069      290.5328        0.0047      617.7581      617.7628     327.230041       9.16773
  47    0.1255      290.5321        0.0068      617.7340      617.7408     327.208747       9.65341
  46    0.1487      290.5313        0.0095      617.7009      617.7104     327.179137      10.79346
  45    0.1794      290.5302        0.0132      617.6521      617.6652     327.135022      12.11055
  44    0.2165      290.5291        0.0174      617.5895      617.6069     327.077857      13.00396
  43    0.2613      290.5279        0.0225      617.5089      617.5314     327.003556      14.00548
  42    0.3336      290.5261        0.0309      617.3641      617.3950     326.868871      15.70290
  41    0.4307      290.5242        0.0419      617.1591      617.2010     326.676850      16.69583
  40    0.5894      290.5218        0.0596      616.8005      616.8601     326.338304      18.00345
  39     1.339      290.5257        0.1396      614.9443      615.0838     324.558090      20.04197
  38     1.782      290.5385        0.1844      613.9670      614.1515     323.612943      17.99409
  37     2.292      290.5627        0.2354      613.0059      613.2413     322.678582      15.47544
  36     2.964      290.6087        0.3017      611.9577      612.2593     321.650661      12.90352
  35     3.853      290.6890        0.3885      610.8024      611.1909     320.501867      10.90227
  34     5.035      290.8151        0.5030      609.5327      610.0357     319.220582       9.15296
  33     6.613      290.9940        0.6549      608.1464      608.8014     317.807367       7.55505
  32     8.786      291.2264        0.8587      606.6250      607.4837     316.257362       6.01966
  31     11.80      291.5241        1.1487      604.8486      605.9973     314.473235       4.99499
  30     15.07      291.8033        1.4579      603.2440      604.7019     312.898584       4.06544
  29     18.79      292.0826        1.8058      601.6511      603.4569     311.374284       3.45606
  28     23.16      292.3672        2.2097      599.9927      602.2024     309.835167       2.97615
  27     28.12      292.6440        2.6693      598.2881      600.9573     308.313332       2.58702
  26     33.73      292.8822        3.1813      596.5951      599.7764     306.894214       2.13368
  25     40.54      293.0867        3.7975      594.7727      598.5703     305.483552       1.75009
  24     48.69      293.2525        4.5365      592.7865      597.3230     304.070489       1.46230
  23     57.69      293.3564        5.3438      590.7959      596.1397     302.783299       1.20655
  22     68.43      293.3953        6.2996      588.6191      594.9187     301.523455       0.99041
  21     81.20      293.3234        7.4320      586.2690      593.7009     300.377574       0.75718
  20     96.49      293.1283        8.7716      583.6961      592.4677     299.339416       0.57299
  19     114.6      292.8516       10.3458      580.7708      591.1166     298.265015       0.50167
  18     136.5      292.4883       12.1868      577.4359      589.6227     297.134399       0.43475
  17     162.9      292.0258       14.3442      573.5624      587.9066     295.880815       0.40070
  16     196.4      291.3566       17.0905      568.5907      585.6812     294.324601       0.39172
  15     218.7      290.8943       18.8632      565.0572      583.9204     293.026062       0.49301
  14     243.0      290.3846       20.7618      560.7495      581.5114     291.126732       0.65875
  13     269.0      289.8262       22.7871      555.3947      578.1818     288.355609       0.89894
  12     297.5      289.2199       24.9388      548.9964      573.9352     284.715322       1.07967
  11     328.5      288.5705       27.2222      542.0895      569.3118     280.741308       1.08052
  10     361.9      287.8805       29.6329      534.6242      564.2571     276.376628       1.10431
   9     398.1      287.1517       32.1739      526.4204      558.5943     271.442548       1.14953
   8     437.6      286.3918       34.8428      517.3907      552.2335     265.841631       1.19751
   7     480.5      285.6078       37.6367      507.7216      545.3582     259.750459       1.19628
   6     533.0      284.6981       40.9849      495.9006      536.8856     252.187489       1.21664
   5     589.8      283.8154       44.4853      483.0788      527.5641     243.748638       1.25260
   4     651.6      283.0606       48.1230      468.6907      516.8137     233.753143       1.36691
   3     718.7      282.5593       51.8884      453.2257      505.1141     222.554805       1.40732
   2     792.3      282.6371       55.7583      436.4928      492.2512     209.614046       1.48416
   1     891.5      229.0748      155.5864      266.4413      422.0276     192.952827       1.41779
   0    1013.0      230.2865      155.6494      250.0134      405.6628     175.376374       1.22042



 Wavenumbers:  2600. -  3250. cm-1, ATM      1
 LEVEL PRESSURE   UPWARD FLUX   DIFDOWN FLUX  DIRDOWN FLUX  DOWNWARD FLUX   NET FLUX    HEATING RATE
          mb          W/m2          W/m2          W/m2        W/m2          W/m2       degree/day
  51    .06700        0.6899        0.0000        5.4450        5.4450       4.755125       0.00000
  50    .07753        0.6899        0.0000        5.4450        5.4450       4.755117       0.00640
  49    .09103        0.6899        0.0000        5.4450        5.4450       4.755107       0.00627
  48    0.1069        0.6899        0.0000        5.4450        5.4450       4.755096       0.00613
  47    0.1255        0.6899        0.0000        5.4450        5.4450       4.755083       0.00599
  46    0.1487        0.6899        0.0000        5.4450        5.4450       4.755066       0.00608
  45    0.1794        0.6899        0.0000        5.4450        5.4450       4.755043       0.00625
  44    0.2165        0.6899        0.0000        5.4449        5.4449       4.755016       0.00612
  43    0.2613        0.6899        0.0000        5.4449        5.4449       4.754985       0.00600
  42    0.3336        0.6899        0.0000        5.4448        5.4448       4.754932       0.00617
  41    0.4307        0.6899        0.0000        5.4448        5.4448       4.754860       0.00620
  40    0.5894        0.6899        0.0000        5.4446        5.4446       4.754741       0.00637
  39     1.339        0.6899        0.0000        5.4439        5.4439       4.754033       0.00797
  38     1.782        0.6899        0.0000        5.4434        5.4434       4.753490       0.01034
  37     2.292        0.6899        0.0000        5.4427        5.4427       4.752774       0.01186
  36     2.964        0.6899        0.0000        5.4416        5.4416       4.751736       0.01304
  35     3.853        0.6899        0.0000        5.4402        5.4402       4.750258       0.01402
  34     5.035        0.6899        0.0000        5.4381        5.4381       4.748203       0.01468
  33     6.613        0.6899        0.0000        5.4353        5.4353       4.745421       0.01487
  32     8.786        0.6899        0.0000        5.4317        5.4317       4.741789       0.01411
  31     11.80        0.6899        0.0000        5.4269        5.4269       4.737009       0.01338
  30     15.07        0.6899        0.0000        5.4224        5.4224       4.732482       0.01169
  29     18.79        0.6899        0.0000        5.4180        5.4180       4.728069       0.01000
  28     23.16        0.6899        0.0000        5.4135        5.4135       4.723582       0.00868
  27     28.12        0.6899        0.0000        5.4088        5.4088       4.718933       0.00790
  26     33.73        0.6899        0.0000        5.4036        5.4036       4.713690       0.00788
  25     40.54        0.6899        0.0000        5.3966        5.3967       4.706745       0.00862
  24     48.69        0.6899        0.0000        5.3872        5.3872       4.697263       0.00981
  23     57.69        0.6899        0.0000        5.3754        5.3754       4.685472       0.01105
  22     68.43        0.6899        0.0000        5.3599        5.3599       4.669973       0.01218
  21     81.20        0.6900        0.0000        5.3401        5.3401       4.650124       0.01312
  20     96.49        0.6900        0.0000        5.3155        5.3155       4.625535       0.01357
  19     114.6        0.6900        0.0000        5.2853        5.2853       4.595306       0.01411
  18     136.5        0.6901        0.0001        5.2504        5.2505       4.560354       0.01344
  17     162.9        0.6902        0.0001        5.2111        5.2111       4.520945       0.01260
  16     196.4        0.6904        0.0001        5.1640        5.1641       4.473740       0.01188
  15     218.7        0.6905        0.0001        5.1331        5.1332       4.442651       0.01180
  14     243.0        0.6908        0.0001        5.0962        5.0963       4.405478       0.01289
  13     269.0        0.6913        0.0001        5.0511        5.0512       4.359915       0.01478
  12     297.5        0.6920        0.0001        4.9956        4.9957       4.303757       0.01666
  11     328.5        0.6929        0.0001        4.9304        4.9305       4.237584       0.01799
  10     361.9        0.6942        0.0001        4.8511        4.8512       4.157019       0.02038
   9     398.1        0.6960        0.0001        4.7507        4.7508       4.054822       0.02381
   8     437.6        0.6985        0.0002        4.6220        4.6222       3.923711       0.02803
   7     480.5        0.7019        0.0002        4.4625        4.4626       3.760757       0.03200
   6     533.0        0.7074        0.0002        4.2460        4.2462       3.538815       0.03570
   5     589.8        0.7157        0.0002        3.9954        3.9956       3.279838       0.03844
   4     651.6        0.7294        0.0002        3.7089        3.7090       2.979665       0.04105
   3     718.7        0.7515        0.0002        3.4018        3.4020       2.650465       0.04137
   2     792.3        0.7908        0.0002        3.0564        3.0566       2.265817       0.04411
   1     891.5        0.3869        0.5044        1.6624        2.1667       1.779834       0.04135
   0    1013.0        0.4468        0.4170        1.3417        1.7587       1.311873       0.03249



 Wavenumbers:  3250. -  4000. cm-1, ATM      1
 LEVEL PRESSURE   UPWARD FLUX   DIFDOWN FLUX  DIRDOWN FLUX  DOWNWARD FLUX   NET FLUX    HEATING RATE
          mb          W/m2          W/m2          W/m2        W/m2          W/m2       degree/day
  51    .06700        0.0100        0.0000        9.1795        9.1795       9.169517       0.00000
  50    .07753        0.0100        0.0000        9.1747        9.1747       9.164675       3.88148
  49    .09103        0.0100        0.0000        9.1713        9.1713       9.161287       2.11747
  48    0.1069        0.0100        0.0000        9.1688        9.1688       9.158762       1.34402
  47    0.1255        0.0100        0.0000        9.1665        9.1665       9.156503       1.02422
  46    0.1487        0.0100        0.0000        9.1641        9.1641       9.154062       0.88991
  45    0.1794        0.0100        0.0000        9.1612        9.1612       9.151184       0.79008
  44    0.2165        0.0100        0.0000        9.1583        9.1583       9.148263       0.66430
  43    0.2613        0.0100        0.0000        9.1553        9.1553       9.145290       0.56041
  42    0.3336        0.0100        0.0000        9.1511        9.1511       9.141111       0.48723
  41    0.4307        0.0100        0.0000        9.1464        9.1464       9.136343       0.41459
  40    0.5894        0.0100        0.0000        9.1393        9.1394       9.129337       0.37255
  39     1.339        0.0100        0.0000        9.1127        9.1127       9.102724       0.29962
  38     1.782        0.0100        0.0000        9.1011        9.1011       9.091136       0.22062
  37     2.292        0.0100        0.0000        9.0901        9.0901       9.080069       0.18329
  36     2.964        0.0100        0.0000        9.0776        9.0776       9.067639       0.15603
  35     3.853        0.0100        0.0000        9.0629        9.0629       9.052849       0.14036
  34     5.035        0.0100        0.0000        9.0441        9.0441       9.034110       0.13386
  33     6.613        0.0100        0.0000        9.0191        9.0191       9.009108       0.13366
  32     8.786        0.0100        0.0000        8.9843        8.9843       8.974325       0.13509
  31     11.80        0.0100        0.0000        8.9327        8.9327       8.922708       0.14451
  30     15.07        0.0100        0.0000        8.8758        8.8759       8.865864       0.14676
  29     18.79        0.0100        0.0000        8.8110        8.8110       8.801036       0.14698
  28     23.16        0.0100        0.0000        8.7365        8.7366       8.726591       0.14395
  27     28.12        0.0100        0.0000        8.6554        8.6555       8.645478       0.13789
  26     33.73        0.0100        0.0000        8.5719        8.5719       8.561979       0.12554
  25     40.54        0.0100        0.0001        8.4812        8.4812       8.471255       0.11255
  24     48.69        0.0099        0.0001        8.3838        8.3839       8.373954       0.10069
  23     57.69        0.0099        0.0001        8.2861        8.2862       8.276218       0.09161
  22     68.43        0.0099        0.0001        8.1751        8.1751       8.165222       0.08726
  21     81.20        0.0099        0.0001        8.0457        8.0458       8.035864       0.08548
  20     96.49        0.0099        0.0001        7.8949        7.8950       7.885160       0.08318
  19     114.6        0.0099        0.0001        7.7162        7.7163       7.706451       0.08344
  18     136.5        0.0098        0.0002        7.5193        7.5194       7.509607       0.07569
  17     162.9        0.0098        0.0002        7.2913        7.2915       7.281715       0.07284
  16     196.4        0.0098        0.0002        6.9660        6.9662       6.956442       0.08188
  15     218.7        0.0098        0.0002        6.6648        6.6650       6.655252       0.11435
  14     243.0        0.0097        0.0002        6.2619        6.2622       6.252454       0.13970
  13     269.0        0.0097        0.0003        5.7576        5.7579       5.748145       0.16360
  12     297.5        0.0097        0.0003        5.1719        5.1722       5.162433       0.17372
  11     328.5        0.0097        0.0002        4.5757        4.5760       4.566237       0.16210
  10     361.9        0.0098        0.0002        3.9995        3.9998       3.990002       0.14579
   9     398.1        0.0099        0.0002        3.4655        3.4657       3.455847       0.12445
   8     437.6        0.0100        0.0002        2.9740        2.9742       2.964236       0.10511
   7     480.5        0.0103        0.0002        2.5307        2.5309       2.520599       0.08713
   6     533.0        0.0108        0.0002        2.0614        2.0616       2.050792       0.07558
   5     589.8        0.0117        0.0002        1.6150        1.6151       1.603429       0.06640
   4     651.6        0.0136        0.0001        1.1565        1.1566       1.142934       0.06297
   3     718.7        0.0180        0.0001        0.7390        0.7391       0.721137       0.05301
   2     792.3        0.0294        0.0001        0.3985        0.3985       0.369079       0.04038
   1     891.5        0.0007        0.0208        0.0733        0.0941       0.093429       0.02346
   0    1013.0        0.0063        0.0022        0.0060        0.0082       0.001923       0.00635



 Wavenumbers:  4000. -  4650. cm-1, ATM      1
 LEVEL PRESSURE   UPWARD FLUX   DIFDOWN FLUX  DIRDOWN FLUX  DOWNWARD FLUX   NET FLUX    HEATING RATE
          mb          W/m2          W/m2          W/m2        W/m2          W/m2       degree/day
  51    .06700        2.1460        0.0000       10.7795       10.7795       8.633592       0.00000
  50    .07753        2.1460        0.0000       10.7795       10.7795       8.633591       0.00080
  49    .09103        2.1460        0.0000       10.7795       10.7795       8.633590       0.00078
  48    0.1069        2.1460        0.0000       10.7795       10.7795       8.633589       0.00076
  47    0.1255        2.1460        0.0000       10.7795       10.7795       8.633587       0.00075
  46    0.1487        2.1460        0.0000       10.7795       10.7795       8.633585       0.00076
  45    0.1794        2.1460        0.0000       10.7795       10.7795       8.633582       0.00078
  44    0.2165        2.1459        0.0000       10.7795       10.7795       8.633579       0.00076
  43    0.2613        2.1459        0.0000       10.7795       10.7795       8.633575       0.00075
  42    0.3336        2.1459        0.0000       10.7795       10.7795       8.633568       0.00077
  41    0.4307        2.1459        0.0000       10.7795       10.7795       8.633559       0.00077
  40    0.5894        2.1459        0.0000       10.7795       10.7795       8.633544       0.00080
  39     1.339        2.1459        0.0000       10.7794       10.7794       8.633455       0.00101
  38     1.782        2.1459        0.0000       10.7793       10.7793       8.633385       0.00133
  37     2.292        2.1459        0.0000       10.7792       10.7792       8.633291       0.00156
  36     2.964        2.1459        0.0000       10.7791       10.7791       8.633151       0.00176
  35     3.853        2.1459        0.0000       10.7789       10.7789       8.632943       0.00197
  34     5.035        2.1459        0.0000       10.7786       10.7786       8.632636       0.00219
  33     6.613        2.1459        0.0000       10.7781       10.7781       8.632184       0.00241
  32     8.786        2.1459        0.0000       10.7774       10.7774       8.631518       0.00259
  31     11.80        2.1459        0.0000       10.7763       10.7764       8.630471       0.00293
  30     15.07        2.1459        0.0001       10.7751       10.7752       8.629243       0.00317
  29     18.79        2.1459        0.0001       10.7736       10.7737       8.627758       0.00337
  28     23.16        2.1459        0.0001       10.7717       10.7718       8.625915       0.00356
  27     28.12        2.1459        0.0001       10.7695       10.7696       8.623684       0.00379
  26     33.73        2.1459        0.0001       10.7667       10.7668       8.620935       0.00413
  25     40.54        2.1459        0.0002       10.7629       10.7631       8.617207       0.00462
  24     48.69        2.1459        0.0002       10.7579       10.7581       8.612241       0.00514
  23     57.69        2.1459        0.0002       10.7520       10.7522       8.606358       0.00551
  22     68.43        2.1459        0.0003       10.7446       10.7449       8.598990       0.00579
  21     81.20        2.1459        0.0003       10.7355       10.7358       8.589924       0.00599
  20     96.49        2.1460        0.0004       10.7245       10.7249       8.578902       0.00608
  19     114.6        2.1460        0.0005       10.7107       10.7112       8.565135       0.00643
  18     136.5        2.1462        0.0005       10.6942       10.6947       8.548569       0.00637
  17     162.9        2.1464        0.0006       10.6740       10.6747       8.528294       0.00648
  16     196.4        2.1467        0.0008       10.6464       10.6471       8.500393       0.00702
  15     218.7        2.1471        0.0009       10.6255       10.6263       8.479218       0.00804
  14     243.0        2.1476        0.0010       10.5980       10.5990       8.451358       0.00966
  13     269.0        2.1485        0.0011       10.5611       10.5621       8.413655       0.01223
  12     297.5        2.1497        0.0012       10.5119       10.5131       8.363353       0.01492
  11     328.5        2.1515        0.0013       10.4499       10.4511       8.299644       0.01732
  10     361.9        2.1538        0.0014       10.3702       10.3716       8.217749       0.02072
   9     398.1        2.1567        0.0015       10.2678       10.2693       8.112559       0.02451
   8     437.6        2.1605        0.0017       10.1390       10.1407       7.980187       0.02830
   7     480.5        2.1652        0.0018        9.9877        9.9895       7.824296       0.03062
   6     533.0        2.1724        0.0020        9.7937        9.7956       7.623195       0.03235
   5     589.8        2.1828        0.0021        9.5752        9.5773       7.394448       0.03395
   4     651.6        2.1994        0.0023        9.2958        9.2981       7.098714       0.04044
   3     718.7        2.2266        0.0024        8.9267        8.9292       6.702534       0.04979
   2     792.3        2.2762        0.0026        8.4542        8.4568       6.180585       0.05986
   1     891.5        1.0142        1.5077        5.0175        6.5252       5.511075       0.05697
   0    1013.0        1.0807        1.3834        4.5553        5.9387       4.858003       0.04535



 Wavenumbers:  4650. -  5150. cm-1, ATM      1
 LEVEL PRESSURE   UPWARD FLUX   DIFDOWN FLUX  DIRDOWN FLUX  DOWNWARD FLUX   NET FLUX    HEATING RATE
          mb          W/m2          W/m2          W/m2        W/m2          W/m2       degree/day
  51    .06700        1.5491        0.0000       10.2033       10.2033       8.654223       0.00000
  50    .07753        1.5491        0.0000       10.2031       10.2031       8.653987       0.18901
  49    .09103        1.5491        0.0000       10.2028       10.2028       8.653692       0.18428
  48    0.1069        1.5491        0.0000       10.2025       10.2025       8.653355       0.17931
  47    0.1255        1.5491        0.0000       10.2021       10.2021       8.652971       0.17426
  46    0.1487        1.5491        0.0000       10.2016       10.2016       8.652490       0.17536
  45    0.1794        1.5491        0.0000       10.2010       10.2010       8.651840       0.17850
  44    0.2165        1.5491        0.0000       10.2002       10.2002       8.651080       0.17277
  43    0.2613        1.5491        0.0000       10.1993       10.1993       8.650195       0.16690
  42    0.3336        1.5491        0.0000       10.1979       10.1979       8.648762       0.16702
  41    0.4307        1.5491        0.0000       10.1960       10.1960       8.646922       0.16002
  40    0.5894        1.5491        0.0000       10.1932       10.1932       8.644048       0.15283
  39     1.339        1.5491        0.0000       10.1816       10.1816       8.632457       0.13050
  38     1.782        1.5491        0.0000       10.1760       10.1760       8.626928       0.10526
  37     2.292        1.5491        0.0000       10.1706       10.1706       8.621472       0.09037
  36     2.964        1.5491        0.0000       10.1646       10.1647       8.615549       0.07435
  35     3.853        1.5491        0.0000       10.1584       10.1584       8.609335       0.05897
  34     5.035        1.5491        0.0000       10.1521       10.1521       8.603000       0.04525
  33     6.613        1.5491        0.0000       10.1456       10.1456       8.596544       0.03451
  32     8.786        1.5491        0.0001       10.1386       10.1386       8.589534       0.02722
  31     11.80        1.5491        0.0001       10.1295       10.1296       8.580496       0.02530
  30     15.07        1.5491        0.0001       10.1196       10.1197       8.570620       0.02550
  29     18.79        1.5491        0.0001       10.1076       10.1077       8.558617       0.02722
  28     23.16        1.5491        0.0001       10.0923       10.0924       8.543317       0.02959
  27     28.12        1.5491        0.0002       10.0731       10.0733       8.524228       0.03245
  26     33.73        1.5491        0.0002       10.0500       10.0502       8.501140       0.03471
  25     40.54        1.5491        0.0002       10.0201       10.0204       8.471246       0.03709
  24     48.69        1.5492        0.0003        9.9820        9.9822       8.433084       0.03949
  23     57.69        1.5492        0.0003        9.9384        9.9388       8.389557       0.04080
  22     68.43        1.5493        0.0004        9.8858        9.8862       8.336839       0.04144
  21     81.20        1.5495        0.0005        9.8234        9.8239       8.274465       0.04122
  20     96.49        1.5497        0.0006        9.7518        9.7523       8.202667       0.03963
  19     114.6        1.5499        0.0007        9.6719        9.6726       8.122638       0.03737
  18     136.5        1.5504        0.0008        9.5858        9.5866       8.036224       0.03323
  17     162.9        1.5509        0.0009        9.4940        9.4950       7.944020       0.02947
  16     196.4        1.5519        0.0011        9.3883        9.3894       7.837504       0.02681
  15     218.7        1.5526        0.0012        9.3229        9.3241       7.771512       0.02505
  14     243.0        1.5536        0.0013        9.2520        9.2533       7.699704       0.02491
  13     269.0        1.5550        0.0015        9.1717        9.1731       7.618163       0.02645
  12     297.5        1.5569        0.0016        9.0763        9.0779       7.520988       0.02882
  11     328.5        1.5595        0.0018        8.9650        8.9667       7.407281       0.03092
  10     361.9        1.5628        0.0019        8.8349        8.8368       7.274075       0.03370
   9     398.1        1.5671        0.0021        8.6820        8.6841       7.117015       0.03659
   8     437.6        1.5727        0.0023        8.5028        8.5051       6.932322       0.03949
   7     480.5        1.5801        0.0024        8.2948        8.2972       6.717143       0.04226
   6     533.0        1.5913        0.0026        8.0209        8.0235       6.432161       0.04584
   5     589.8        1.6070        0.0028        7.7063        7.7091       6.102135       0.04899
   4     651.6        1.6301        0.0030        7.3412        7.3442       5.714057       0.05307
   3     718.7        1.6650        0.0031        6.9387        6.9418       5.276793       0.05495
   2     792.3        1.7200        0.0032        6.5066        6.5098       4.789857       0.05585
   1     891.5        0.7653        1.1476        3.8207        4.9683       4.203021       0.04994
   0    1013.0        0.8293        1.0384        3.4129        4.4513       3.622025       0.04034



 Wavenumbers:  5150. -  6150. cm-1, ATM      1
 LEVEL PRESSURE   UPWARD FLUX   DIFDOWN FLUX  DIRDOWN FLUX  DOWNWARD FLUX   NET FLUX    HEATING RATE
          mb          W/m2          W/m2          W/m2        W/m2          W/m2       degree/day
  51    .06700        3.8284        0.0000       25.5798       25.5798      21.751431       0.00000
  50    .07753        3.8284        0.0000       25.5798       25.5798      21.751392       0.03157
  49    .09103        3.8284        0.0000       25.5797       25.5797      21.751340       0.03206
  48    0.1069        3.8284        0.0000       25.5797       25.5797      21.751279       0.03257
  47    0.1255        3.8284        0.0000       25.5796       25.5796      21.751206       0.03307
  46    0.1487        3.8284        0.0000       25.5795       25.5795      21.751111       0.03484
  45    0.1794        3.8284        0.0000       25.5794       25.5794      21.750976       0.03708
  44    0.2165        3.8284        0.0000       25.5792       25.5792      21.750810       0.03765
  43    0.2613        3.8284        0.0000       25.5790       25.5790      21.750607       0.03822
  42    0.3336        3.8284        0.0000       25.5786       25.5786      21.750261       0.04039
  41    0.4307        3.8284        0.0000       25.5782       25.5782      21.749790       0.04093
  40    0.5894        3.8284        0.0000       25.5774       25.5774      21.749002       0.04194
  39     1.339        3.8284        0.0000       25.5735       25.5736      21.745203       0.04277
  38     1.782        3.8284        0.0000       25.5713       25.5713      21.742992       0.04210
  37     2.292        3.8283        0.0001       25.5688       25.5688      21.740489       0.04144
  36     2.964        3.8283        0.0001       25.5656       25.5656      21.737311       0.03990
  35     3.853        3.8283        0.0001       25.5615       25.5616      21.733272       0.03833
  34     5.035        3.8283        0.0001       25.5562       25.5564      21.728071       0.03715
  33     6.613        3.8283        0.0002       25.5494       25.5496      21.721326       0.03606
  32     8.786        3.8283        0.0002       25.5406       25.5408      21.712587       0.03394
  31     11.80        3.8282        0.0003       25.5287       25.5290      21.700771       0.03308
  30     15.07        3.8282        0.0004       25.5167       25.5171      21.688926       0.03058
  29     18.79        3.8281        0.0005       25.5042       25.5047      21.676547       0.02807
  28     23.16        3.8281        0.0006       25.4907       25.4913      21.663218       0.02577
  27     28.12        3.8280        0.0008       25.4764       25.4772      21.649169       0.02388
  26     33.73        3.8280        0.0009       25.4620       25.4629      21.634942       0.02139
  25     40.54        3.8280        0.0011       25.4463       25.4474      21.619400       0.01928
  24     48.69        3.8279        0.0013       25.4294       25.4307      21.602777       0.01720
  23     57.69        3.8279        0.0016       25.4126       25.4142      21.586293       0.01545
  22     68.43        3.8279        0.0019       25.3944       25.3963      21.568417       0.01405
  21     81.20        3.8279        0.0022       25.3744       25.3766      21.548766       0.01298
  20     96.49        3.8279        0.0026       25.3519       25.3546      21.526702       0.01218
  19     114.6        3.8279        0.0031       25.3262       25.3293      21.501416       0.01181
  18     136.5        3.8279        0.0037       25.2962       25.2999      21.471998       0.01131
  17     162.9        3.8279        0.0044       25.2521       25.2565      21.428545       0.01389
  16     196.4        3.8280        0.0053       25.1593       25.1646      21.336528       0.02316
  15     218.7        3.8281        0.0058       25.0159       25.0218      21.193621       0.05426
  14     243.0        3.8283        0.0064       24.7089       24.7153      20.887002       0.10635
  13     269.0        3.8286        0.0070       24.1619       24.1688      20.340187       0.17738
  12     297.5        3.8292        0.0075       23.4544       23.4619      19.632729       0.20982
  11     328.5        3.8300        0.0081       22.7355       22.7435      18.913581       0.19553
  10     361.9        3.8311        0.0086       21.9224       21.9311      18.099957       0.20585
   9     398.1        3.8327        0.0092       20.9939       21.0031      17.170341       0.21658
   8     437.6        3.8351        0.0096       19.9833       19.9930      16.157875       0.21647
   7     480.5        3.8385        0.0101       18.9483       18.9584      15.119927       0.20385
   6     533.0        3.8443        0.0106       17.7796       17.7902      13.945882       0.18887
   5     589.8        3.8539        0.0111       16.6726       16.6836      12.829746       0.16567
   4     651.6        3.8716        0.0116       15.6343       15.6459      11.774255       0.14434
   3     718.7        3.9040        0.0121       14.7738       14.7859      10.881905       0.11214
   2     792.3        3.9678        0.0128       14.0291       14.0419      10.074088       0.09265
   1     891.5        1.8559        2.5603        8.4205       10.9808       9.124937       0.08077
   0    1013.0        1.9376        2.3816        7.7487       10.1303       8.192684       0.06473



 Wavenumbers:  6150. -  7700. cm-1, ATM      1
 LEVEL PRESSURE   UPWARD FLUX   DIFDOWN FLUX  DIRDOWN FLUX  DOWNWARD FLUX   NET FLUX    HEATING RATE
          mb          W/m2          W/m2          W/m2        W/m2          W/m2       degree/day
  51    .06700        5.9705        0.0000       47.3109       47.3109      41.340397       0.00000
  50    .07753        5.9705        0.0000       47.3108       47.3108      41.340340       0.04553
  49    .09103        5.9705        0.0000       47.3107       47.3107      41.340267       0.04583
  48    0.1069        5.9705        0.0000       47.3106       47.3106      41.340180       0.04614
  47    0.1255        5.9705        0.0000       47.3105       47.3105      41.340078       0.04645
  46    0.1487        5.9705        0.0000       47.3104       47.3104      41.339944       0.04852
  45    0.1794        5.9705        0.0000       47.3102       47.3102      41.339758       0.05127
  44    0.2165        5.9704        0.0000       47.3100       47.3100      41.339531       0.05167
  43    0.2613        5.9704        0.0000       47.3097       47.3097      41.339254       0.05210
  42    0.3336        5.9704        0.0000       47.3092       47.3092      41.338785       0.05471
  41    0.4307        5.9704        0.0000       47.3085       47.3086      41.338150       0.05521
  40    0.5894        5.9704        0.0001       47.3074       47.3075      41.337091       0.05633
  39     1.339        5.9703        0.0001       47.3022       47.3023      41.331998       0.05733
  38     1.782        5.9703        0.0002       47.2991       47.2993      41.329028       0.05655
  37     2.292        5.9702        0.0003       47.2956       47.2959      41.325653       0.05591
  36     2.964        5.9702        0.0003       47.2912       47.2915      41.321334       0.05421
  35     3.853        5.9701        0.0004       47.2855       47.2859      41.315800       0.05252
  34     5.035        5.9700        0.0006       47.2780       47.2786      41.308619       0.05129
  33     6.613        5.9698        0.0007       47.2683       47.2691      41.299232       0.05019
  32     8.786        5.9696        0.0010       47.2556       47.2566      41.286933       0.04777
  31     11.80        5.9693        0.0013       47.2380       47.2394      41.270029       0.04732
  30     15.07        5.9690        0.0017       47.2201       47.2218      41.252742       0.04463
  29     18.79        5.9687        0.0021       47.2008       47.2029      41.234264       0.04190
  28     23.16        5.9683        0.0026       47.1795       47.1821      41.213874       0.03943
  27     28.12        5.9678        0.0032       47.1565       47.1597      41.191882       0.03739
  26     33.73        5.9673        0.0038       47.1324       47.1362      41.168962       0.03446
  25     40.54        5.9666        0.0046       47.1054       47.1100      41.143328       0.03180
  24     48.69        5.9659        0.0055       47.0754       47.0809      41.115078       0.02923
  23     57.69        5.9650        0.0065       47.0449       47.0515      41.086461       0.02682
  22     68.43        5.9640        0.0077       47.0110       47.0187      41.054729       0.02495
  21     81.20        5.9628        0.0092       46.9729       46.9820      41.019243       0.02345
  20     96.49        5.9614        0.0109       46.9294       46.9403      40.978913       0.02226
  19     114.6        5.9597        0.0129       46.8790       46.8920      40.932297       0.02177
  18     136.5        5.9576        0.0154       46.8200       46.8353      40.877698       0.02099
  17     162.9        5.9552        0.0182       46.7361       46.7544      40.799122       0.02512
  16     196.4        5.9522        0.0220       46.5703       46.5922      40.640039       0.04004
  15     218.7        5.9502        0.0243       46.3473       46.3716      40.421424       0.08300
  14     243.0        5.9482        0.0268       45.9299       45.9567      40.008480       0.14322
  13     269.0        5.9463        0.0293       45.1708       45.2001      39.253785       0.24482
  12     297.5        5.9447        0.0317       44.0115       44.0432      38.098469       0.34265
  11     328.5        5.9435        0.0341       42.7242       42.7583      36.814811       0.34902
  10     361.9        5.9430        0.0365       41.3539       41.3905      35.447437       0.34596
   9     398.1        5.9436        0.0388       39.7953       39.8341      33.890465       0.36274
   8     437.6        5.9461        0.0410       37.9948       38.0357      32.089604       0.38504
   7     480.5        5.9513        0.0429       36.0647       36.1076      30.156287       0.37970
   6     533.0        5.9627        0.0449       33.7773       33.8222      27.859499       0.36948
   5     589.8        5.9843        0.0466       31.4082       31.4548      25.470477       0.35461
   4     651.6        6.0281        0.0478       28.8834       28.9312      22.903106       0.35109
   3     718.7        6.1125        0.0488       26.4104       26.4591      20.346592       0.32128
   2     792.3        6.2874        0.0494       24.0056       24.0550      17.767637       0.29578
   1     891.5        2.8253        4.1546       13.6685       17.8232      14.997866       0.23569
   0    1013.0        3.0395        3.7025       11.9823       15.6848      12.645297       0.16335



 Wavenumbers:  7700. -  8050. cm-1, ATM      1
 LEVEL PRESSURE   UPWARD FLUX   DIFDOWN FLUX  DIRDOWN FLUX  DOWNWARD FLUX   NET FLUX    HEATING RATE
          mb          W/m2          W/m2          W/m2        W/m2          W/m2       degree/day
  51    .06700        2.9776        0.0000       11.1810       11.1810       8.203390       0.00000
  50    .07753        2.9776        0.0000       11.1809       11.1809       8.203370       0.01585
  49    .09103        2.9776        0.0000       11.1809       11.1809       8.203345       0.01553
  48    0.1069        2.9776        0.0000       11.1809       11.1809       8.203317       0.01521
  47    0.1255        2.9776        0.0000       11.1809       11.1809       8.203284       0.01488
  46    0.1487        2.9776        0.0000       11.1808       11.1808       8.203242       0.01510
  45    0.1794        2.9776        0.0000       11.1808       11.1808       8.203186       0.01554
  44    0.2165        2.9776        0.0000       11.1807       11.1807       8.203119       0.01524
  43    0.2613        2.9776        0.0000       11.1806       11.1806       8.203039       0.01496
  42    0.3336        2.9776        0.0000       11.1805       11.1805       8.202908       0.01530
  41    0.4307        2.9776        0.0000       11.1803       11.1804       8.202734       0.01514
  40    0.5894        2.9777        0.0000       11.1801       11.1801       8.202450       0.01512
  39     1.339        2.9778        0.0001       11.1788       11.1789       8.201105       0.01514
  38     1.782        2.9778        0.0001       11.1781       11.1782       8.200315       0.01504
  37     2.292        2.9779        0.0001       11.1772       11.1773       8.199401       0.01514
  36     2.964        2.9780        0.0001       11.1761       11.1762       8.198200       0.01507
  35     3.853        2.9782        0.0002       11.1746       11.1748       8.196614       0.01505
  34     5.035        2.9783        0.0002       11.1726       11.1728       8.194508       0.01504
  33     6.613        2.9786        0.0003       11.1700       11.1703       8.191696       0.01504
  32     8.786        2.9789        0.0004       11.1664       11.1668       8.187908       0.01471
  31     11.80        2.9794        0.0006       11.1613       11.1619       8.182494       0.01516
  30     15.07        2.9799        0.0007       11.1558       11.1566       8.176688       0.01499
  29     18.79        2.9804        0.0009       11.1497       11.1506       8.170138       0.01485
  28     23.16        2.9811        0.0011       11.1425       11.1436       8.162502       0.01477
  27     28.12        2.9819        0.0013       11.1343       11.1357       8.153787       0.01481
  26     33.73        2.9827        0.0016       11.1252       11.1268       8.144059       0.01463
  25     40.54        2.9838        0.0019       11.1142       11.1161       8.132341       0.01454
  24     48.69        2.9851        0.0023       11.1010       11.1033       8.118266       0.01456
  23     57.69        2.9865        0.0027       11.0866       11.0893       8.102874       0.01443
  22     68.43        2.9881        0.0032       11.0695       11.0728       8.084635       0.01434
  21     81.20        2.9902        0.0038       11.0494       11.0532       8.063038       0.01427
  20     96.49        2.9926        0.0046       11.0255       11.0301       8.037492       0.01410
  19     114.6        2.9955        0.0054       10.9975       11.0030       8.007421       0.01404
  18     136.5        2.9991        0.0064       10.9648       10.9712       7.972137       0.01357
  17     162.9        3.0033        0.0076       10.9263       10.9339       7.930606       0.01328
  16     196.4        3.0089        0.0092       10.8773       10.8864       7.877491       0.01337
  15     218.7        3.0127        0.0102       10.8455       10.8557       7.843015       0.01309
  14     243.0        3.0169        0.0113       10.8114       10.8227       7.805850       0.01289
  13     269.0        3.0215        0.0125       10.7749       10.7873       7.765861       0.01297
  12     297.5        3.0266        0.0138       10.7357       10.7495       7.722868       0.01275
  11     328.5        3.0323        0.0151       10.6937       10.7089       7.676611       0.01258
  10     361.9        3.0386        0.0166       10.6489       10.6655       7.626913       0.01257
   9     398.1        3.0456        0.0182       10.6008       10.6190       7.573362       0.01248
   8     437.6        3.0536        0.0199       10.5491       10.5690       7.515450       0.01238
   7     480.5        3.0625        0.0218       10.4934       10.5152       7.452698       0.01232
   6     533.0        3.0742        0.0240       10.4243       10.4483       7.374063       0.01265
   5     589.8        3.0880        0.0264       10.3479       10.3743       7.286313       0.01303
   4     651.6        3.1047        0.0290       10.2613       10.2903       7.185669       0.01376
   3     718.7        3.1253        0.0317       10.1618       10.1935       7.068190       0.01476
   2     792.3        3.1518        0.0346       10.0439       10.0785       6.926735       0.01622
   1     891.5        1.5953        1.9805        6.3486        8.3290       6.733769       0.01642
   0    1013.0        1.6274        1.9389        6.1861        8.1251       6.497627       0.01640



 Wavenumbers:  8050. - 12850. cm-1, ATM      1
 LEVEL PRESSURE   UPWARD FLUX   DIFDOWN FLUX  DIRDOWN FLUX  DOWNWARD FLUX   NET FLUX    HEATING RATE
          mb          W/m2          W/m2          W/m2        W/m2          W/m2       degree/day
  51    .06700       44.9552        0.0000      156.5418      156.5418     111.586563       0.00000
  50    .07753       44.9552        0.0000      156.5417      156.5417     111.586563       0.00000
  49    .09103       44.9551        0.0001      156.5417      156.5417     111.586563       0.00000
  48    0.1069       44.9551        0.0001      156.5416      156.5417     111.586563      -0.00000
  47    0.1255       44.9551        0.0001      156.5415      156.5417     111.586563       0.00000
  46    0.1487       44.9551        0.0002      156.5414      156.5416     111.586563       0.00000
  45    0.1794       44.9550        0.0003      156.5413      156.5416     111.586563       0.00000
  44    0.2165       44.9550        0.0004      156.5412      156.5415     111.586563      -0.00000
  43    0.2613       44.9549        0.0005      156.5410      156.5414     111.586563       0.00000
  42    0.3336       44.9548        0.0006      156.5407      156.5413     111.586563       0.00000
  41    0.4307       44.9546        0.0009      156.5403      156.5412     111.586563      -0.00000
  40    0.5894       44.9544        0.0012      156.5397      156.5409     111.586563       0.00000
  39     1.339       44.9532        0.0030      156.5367      156.5398     111.586563       0.00000
  38     1.782       44.9525        0.0041      156.5350      156.5391     111.586563      -0.00000
  37     2.292       44.9517        0.0053      156.5330      156.5383     111.586563       0.00000
  36     2.964       44.9507        0.0069      156.5303      156.5372     111.586563      -0.00000
  35     3.853       44.9493        0.0090      156.5268      156.5359     111.586563       0.00000
  34     5.035       44.9475        0.0118      156.5222      156.5340     111.586563       0.00000
  33     6.613       44.9450        0.0156      156.5160      156.5316     111.586563      -0.00000
  32     8.786       44.9417        0.0206      156.5076      156.5283     111.586563       0.00000
  31     11.80       44.9370        0.0279      156.4957      156.5235     111.586563       0.00000
  30     15.07       44.9319        0.0356      156.4828      156.5184     111.586563       0.00000
  29     18.79       44.9261        0.0444      156.4682      156.5127     111.586563      -0.00000
  28     23.16       44.9194        0.0547      156.4512      156.5059     111.586563      -0.00000
  27     28.12       44.9117        0.0665      156.4317      156.4982     111.586563       0.00000
  26     33.73       44.9030        0.0797      156.4099      156.4896     111.586563       0.00000
  25     40.54       44.8925        0.0957      156.3834      156.4791     111.586563      -0.00000
  24     48.69       44.8799        0.1150      156.3515      156.4665     111.586563       0.00000
  23     57.69       44.8660        0.1362      156.3164      156.4526     111.586563       0.00000
  22     68.43       44.8494        0.1615      156.2746      156.4360     111.586563      -0.00000
  21     81.20       44.8297        0.1916      156.2246      156.4162     111.586563       0.00000
  20     96.49       44.8060        0.2277      156.1649      156.3926     111.586563      -0.00000
  19     114.6       44.7780        0.2705      156.0879      156.3585     111.580437       0.00286
  18     136.5       44.7447        0.3214      155.9962      156.3176     111.572829       0.00293
  17     162.9       44.7050        0.3821      155.8831      156.2652     111.560173       0.00405
  16     196.4       44.6534        0.4611      155.7199      156.1810     111.527609       0.00820
  15     218.7       44.6195        0.5129      155.5733      156.0862     111.466703       0.02312
  14     243.0       44.5831        0.5693      155.3367      155.9060     111.322917       0.04987
  13     269.0       44.5444        0.6302      154.9514      155.5816     111.037250       0.09267
  12     297.5       44.5042        0.6957      154.3896      155.0853     110.581080       0.13530
  11     328.5       44.4629        0.7662      153.7151      154.4813     110.018361       0.15300
  10     361.9       44.4216        0.8418      152.9087      153.7505     109.328930       0.17443
   9     398.1       44.3819        0.9224      151.8986      152.8210     108.439178       0.20729
   8     437.6       44.3469        1.0080      150.6031      151.6111     107.264234       0.25121
   7     480.5       44.3204        1.0981      149.0014      150.0995     105.779042       0.29169
   6     533.0       44.3087        1.2065      146.7375      147.9441     103.635410       0.34484
   5     589.8       44.3345        1.3194      143.8730      145.1924     100.857880       0.41228
   4     651.6       44.4439        1.4339      140.0955      141.5294      97.085480       0.51589
   3     718.7       44.7019        1.5487      135.5278      137.0765      92.374579       0.59203
   2     792.3       45.2650        1.6607      130.0690      131.7297      86.464668       0.67780
   1     891.5       26.7063       26.5441       78.6051      105.1492      78.442884       0.68262
   0    1013.0       27.8720       25.0227       72.6987       97.7214      69.849448       0.59669



 Wavenumbers: 12850. - 16000. cm-1, ATM      1
 LEVEL PRESSURE   UPWARD FLUX   DIFDOWN FLUX  DIRDOWN FLUX  DOWNWARD FLUX   NET FLUX    HEATING RATE
          mb          W/m2          W/m2          W/m2        W/m2          W/m2       degree/day
  51    .06700       52.3030        0.0000       98.0872       98.0872      45.784278       0.00000
  50    .07753       52.3029        0.0001       98.0864       98.0864      45.783492       0.62976
  49    .09103       52.3029        0.0001       98.0853       98.0854      45.782506       0.61605
  48    0.1069       52.3029        0.0002       98.0841       98.0843      45.781376       0.60197
  47    0.1255       52.3029        0.0003       98.0826       98.0830      45.780078       0.58809
  46    0.1487       52.3029        0.0005       98.0809       98.0813      45.778444       0.59559
  45    0.1794       52.3029        0.0006       98.0784       98.0791      45.776226       0.60896
  44    0.2165       52.3029        0.0009       98.0756       98.0765      45.773623       0.59216
  43    0.2613       52.3029        0.0011       98.0723       98.0734      45.770570       0.57542
  42    0.3336       52.3029        0.0015       98.0670       98.0685      45.765605       0.57889
  41    0.4307       52.3030        0.0021       98.0602       98.0623      45.759211       0.55600
  40    0.5894       52.3034        0.0030       98.0496       98.0525      45.749195       0.53260
  39     1.339       52.3067        0.0072       98.0043       98.0115      45.704823       0.49955
  38     1.782       52.3101        0.0097       97.9793       97.9890      45.678841       0.49465
  37     2.292       52.3154        0.0126       97.9498       97.9624      45.646931       0.52851
  36     2.964       52.3244        0.0164       97.9088       97.9252      45.600767       0.57950
  35     3.853       52.3392        0.0213       97.8503       97.8717      45.532534       0.64754
  34     5.035       52.3616        0.0280       97.7680       97.7960      45.434389       0.70111
  33     6.613       52.3930        0.0368       97.6562       97.6930      45.300035       0.71825
  32     8.786       52.4338        0.0487       97.5107       97.5594      45.125644       0.67727
  31     11.80       52.4865        0.0658       97.3179       97.3836      44.897111       0.63982
  30     15.07       52.5366        0.0840       97.1283       97.2123      44.675751       0.57151
  29     18.79       52.5873        0.1046       96.9300       97.0346      44.447351       0.51785
  28     23.16       52.6397        0.1286       96.7166       96.8452      44.205510       0.46764
  27     28.12       52.6917        0.1561       96.4935       96.6495      43.957867       0.42098
  26     33.73       52.7385        0.1868       96.2731       96.4598      43.721310       0.35567
  25     40.54       52.7820        0.2238       96.0408       96.2646      43.482587       0.29616
  24     48.69       52.8217        0.2685       95.7946       96.0631      43.241393       0.24960
  23     57.69       52.8529        0.3176       95.5573       95.8749      43.021943       0.20570
  22     68.43       52.8767        0.3760       95.3106       95.6867      42.809921       0.16668
  21     81.20       52.8868        0.4458       95.0643       95.5101      42.623317       0.12330
  20     96.49       52.8818        0.5289       94.8153       95.3442      42.462359       0.08884
  19     114.6       52.8760        0.6284       94.5411       95.1694      42.293483       0.07885
  18     136.5       52.8614        0.7463       94.2320       94.9783      42.116859       0.06792
  17     162.9       52.8372        0.8865       93.8753       94.7619      41.924679       0.06143
  16     196.4       52.7910        1.0684       93.4347       94.5030      41.712036       0.05352
  15     218.7       52.7553        1.1877       93.1513       94.3390      41.583614       0.04876
  14     243.0       52.7143        1.3173       92.8439       94.1613      41.446903       0.04742
  13     269.0       52.6678        1.4577       92.5111       93.9688      41.301003       0.04733
  12     297.5       52.6160        1.6093       92.1495       93.7588      41.142800       0.04692
  11     328.5       52.5599        1.7730       91.7554       93.5284      40.968471       0.04740
  10     361.9       52.5001        1.9491       91.3262       93.2753      40.775193       0.04890
   9     398.1       52.4372        2.1384       90.8575       92.9959      40.558708       0.05044
   8     437.6       52.3730        2.3414       90.3418       92.6832      40.310172       0.05314
   7     480.5       52.3091        2.5585       89.7728       92.3313      40.022231       0.05655
   6     533.0       52.2402        2.8252       89.0428       91.8680      39.627758       0.06346
   5     589.8       52.1845        3.1112       88.2038       91.3150      39.130503       0.07381
   4     651.6       52.1628        3.4160       87.1979       90.6139      38.451178       0.09290
   3     718.7       52.1898        3.7382       86.0161       89.7543      37.564531       0.11143
   2     792.3       52.3120        4.0740       84.5970       88.6711      36.359102       0.13825
   1     891.5       42.5622       23.9629       53.0737       77.0365      34.474355       0.16038
   0    1013.0       43.1451       23.8141       51.2587       75.0727      31.927663       0.17683



 Wavenumbers: 16000. - 22650. cm-1, ATM      1
 LEVEL PRESSURE   UPWARD FLUX   DIFDOWN FLUX  DIRDOWN FLUX  DOWNWARD FLUX   NET FLUX    HEATING RATE
          mb          W/m2          W/m2          W/m2        W/m2          W/m2       degree/day
  51    .06700      117.7986        0.0000      156.3892      156.3892      38.590599       0.00000
  50    .07753      117.7986        0.0004      156.3887      156.3890      38.590462       0.10973
  49    .09103      117.7985        0.0008      156.3879      156.3888      38.590263       0.12446
  48    0.1069      117.7985        0.0014      156.3871      156.3885      38.589996       0.14192
  47    0.1255      117.7984        0.0020      156.3861      156.3880      38.589640       0.16177
  46    0.1487      117.7984        0.0028      156.3847      156.3875      38.589114       0.19169
  45    0.1794      117.7984        0.0038      156.3828      156.3867      38.588292       0.22571
  44    0.2165      117.7984        0.0051      156.3805      156.3856      38.587176       0.25367
  43    0.2613      117.7985        0.0066      156.3776      156.3842      38.585664       0.28518
  42    0.3336      117.7989        0.0090      156.3726      156.3817      38.582787       0.33537
  41    0.4307      117.7996        0.0123      156.3657      156.3780      38.578451       0.37699
  40    0.5894      117.8012        0.0177      156.3537      156.3713      38.570182       0.43974
  39     1.339      117.8173        0.0429      156.2834      156.3264      38.509090       0.68778
  38     1.782      117.8331        0.0578      156.2324      156.2901      38.457050       0.99077
  37     2.292      117.8573        0.0750      156.1641      156.2391      38.381723       1.24761
  36     2.964      117.8983        0.0975      156.0605      156.1580      38.259700       1.53176
  35     3.853      117.9653        0.1273      155.9041      156.0313      38.066097       1.83733
  34     5.035      118.0668        0.1668      155.6774      155.8441      37.777295       2.06308
  33     6.613      118.2091        0.2195      155.3656      155.5851      37.376023       2.14520
  32     8.786      118.3940        0.2904      154.9577      155.2480      36.854012       2.02730
  31     11.80      118.6338        0.3917      154.4153      154.8069      36.173154       1.90619
  30     15.07      118.8621        0.5002      153.8804      154.3806      35.518443       1.69034
  29     18.79      119.0940        0.6226      153.3191      153.9417      34.847685       1.52081
  28     23.16      119.3347        0.7653      152.7126      153.4779      34.143181       1.36228
  27     28.12      119.5748        0.9283      152.0755      153.0038      33.429005       1.21405
  26     33.73      119.7928        1.1104      151.4409      152.5513      32.758471       1.00817
  25     40.54      119.9978        1.3301      150.7637      152.0938      32.096033       0.82183
  24     48.69      120.1880        1.5947      150.0338      151.6285      31.440509       0.67836
  23     57.69      120.3420        1.8848      149.3151      151.2000      30.857948       0.54606
  22     68.43      120.4662        2.2299      148.5476      150.7775      30.311324       0.42972
  21     81.20      120.5330        2.6406      147.7517      150.3923      29.859342       0.29866
  20     96.49      120.5372        3.1293      146.9127      150.0420      29.504806       0.19568
  19     114.6      120.5035        3.7076      145.9763      149.6839      29.180414       0.15147
  18     136.5      120.4374        4.3901      144.9088      149.2989      28.861452       0.12265
  17     162.9      120.3349        5.1985      143.6785      148.8771      28.542120       0.10207
  16     196.4      120.1507        6.2408      142.1651      148.4058      28.255100       0.07225
  15     218.7      120.0109        6.9214      141.2033      148.1247      28.113779       0.05365
  14     243.0      119.8503        7.6576      140.1753      147.8329      27.982578       0.04550
  13     269.0      119.6673        8.4513      139.0797      147.5310      27.863704       0.03856
  12     297.5      119.4609        9.3043      137.9141      147.2184      27.757489       0.03150
  11     328.5      119.2339       10.2205      136.6676      146.8881      27.654155       0.02810
  10     361.9      118.9859       11.2005      135.3392      146.5397      27.553823       0.02539
   9     398.1      118.7157       12.2479      133.9235      146.1714      27.455662       0.02287
   8     437.6      118.4238       13.3643      132.4163      145.7806      27.356775       0.02114
   7     480.5      118.1094       14.5516      130.8147      145.3663      27.256879       0.01962
   6     533.0      117.7219       15.9998      128.8599      144.8597      27.137791       0.01916
   5     589.8      117.3069       17.5449      126.7679      144.3128      27.005913       0.01958
   4     651.6      116.8687       19.1877      124.5274      143.7152      26.846422       0.02181
   3     718.7      116.4116       20.9293      122.1285      143.0577      26.646126       0.02517
   2     792.3      115.9487       22.7668      119.5548      142.3216      26.372930       0.03133
   1     891.5      104.8503       56.0516       74.6977      130.7493      25.899014       0.04033
   0    1013.0      104.4561       57.6644       71.9840      129.6484      25.192297       0.04907



 Wavenumbers: 22650. - 29000. cm-1, ATM      1
 LEVEL PRESSURE   UPWARD FLUX   DIFDOWN FLUX  DIRDOWN FLUX  DOWNWARD FLUX   NET FLUX    HEATING RATE
          mb          W/m2          W/m2          W/m2        W/m2          W/m2       degree/day
  51    .06700       50.2729        0.0000       59.0156       59.0156       8.742679       0.00000
  50    .07753       50.2728        0.0004       59.0151       59.0155       8.742679       0.00000
  49    .09103       50.2727        0.0010       59.0144       59.0153       8.742679      -0.00000
  48    0.1069       50.2725        0.0016       59.0136       59.0152       8.742679       0.00000
  47    0.1255       50.2723        0.0023       59.0127       59.0150       8.742679      -0.00000
  46    0.1487       50.2721        0.0033       59.0115       59.0147       8.742679       0.00000
  45    0.1794       50.2717        0.0045       59.0099       59.0144       8.742679       0.00000
  44    0.2165       50.2713        0.0060       59.0080       59.0140       8.742679      -0.00000
  43    0.2613       50.2709        0.0077       59.0058       59.0136       8.742679       0.00000
  42    0.3336       50.2701        0.0106       59.0022       59.0128       8.742679       0.00000
  41    0.4307       50.2691        0.0145       58.9973       59.0118       8.742679       0.00000
  40    0.5894       50.2674        0.0207       58.9894       59.0101       8.742679       0.00000
  39     1.339       50.2595        0.0504       58.9518       59.0022       8.742679       0.00000
  38     1.782       50.2549        0.0679       58.9297       58.9976       8.742679       0.00000
  37     2.292       50.2495        0.0880       58.9042       58.9922       8.742679       0.00000
  36     2.964       50.2425        0.1145       58.8706       58.9851       8.742679       0.00000
  35     3.853       50.2332        0.1495       58.8264       58.9758       8.742679       0.00000
  34     5.035       50.2208        0.1959       58.7676       58.9635       8.742679       0.00000
  33     6.613       50.2043        0.2579       58.6891       58.9470       8.742679       0.00000
  32     8.786       50.1820        0.3413       58.5834       58.9247       8.742679       0.00000
  31     11.80       50.1503        0.4605       58.4324       58.8929       8.742679      -0.00000
  30     15.07       50.1162        0.5882       58.2706       58.8588       8.742679       0.00000
  29     18.79       50.0777        0.7321       58.0882       58.8204       8.742679       0.00000
  28     23.16       50.0328        0.8998       57.8757       58.7755       8.742679       0.00000
  27     28.12       49.9816        1.0910       57.6333       58.7243       8.742679       0.00000
  26     33.73       49.9244        1.3041       57.3631       58.6671       8.742679       0.00000
  25     40.54       49.8556        1.5604       57.0379       58.5982       8.742679      -0.00000
  24     48.69       49.7728        1.8676       56.6479       58.5155       8.742679       0.00000
  23     57.69       49.6823        2.2029       56.2221       58.4250       8.742679       0.00000
  22     68.43       49.5750        2.5991       55.7186       58.3177       8.742679       0.00000
  21     81.20       49.4479        3.0667       55.1239       58.1906       8.742679       0.00000
  20     96.49       49.2976        3.6175       54.4228       58.0403       8.742679      -0.00000
  19     114.6       49.1208        4.2625       53.6010       57.8634       8.742679       0.00000
  18     136.5       48.9133        5.0143       52.6418       57.6560       8.742679      -0.00000
  17     162.9       48.6695        5.8918       51.5203       57.4122       8.742679       0.00000
  16     196.4       48.3582        7.0015       50.0994       57.1009       8.742679       0.00000
  15     218.7       48.1568        7.7132       49.1863       56.8995       8.742679       0.00000
  14     243.0       47.9405        8.4719       48.2113       56.6832       8.742679      -0.00000
  13     269.0       47.7091        9.2769       47.1749       56.4518       8.742679       0.00000
  12     297.5       47.4625       10.1269       46.0783       56.2052       8.742679      -0.00000
  11     328.5       47.1999       11.0230       44.9195       55.9426       8.742679       0.00000
  10     361.9       46.9215       11.9624       43.7018       55.6642       8.742679       0.00000
   9     398.1       46.6269       12.9445       42.4250       55.3696       8.742679      -0.00000
   8     437.6       46.3159       13.9670       41.0916       55.0586       8.742679       0.00000
   7     480.5       45.9887       15.0269       39.7045       54.7314       8.742679       0.00000
   6     533.0       45.5941       16.2825       38.0543       54.3368       8.742679      -0.00000
   5     589.8       45.1782       17.5778       36.3431       53.9209       8.742679       0.00000
   4     651.6       44.7417       18.9049       34.5795       53.4844       8.742679       0.00000
   3     718.7       44.2847       20.2572       32.7702       53.0274       8.742679      -0.00000
   2     792.3       43.8080       21.6251       30.9256       52.5507       8.742679       0.00000
   1     891.5       40.2482       30.5950       18.3959       48.9908       8.742641       0.00000
   0    1013.0       39.6743       31.7020       16.7149       48.4169       8.742641      -0.00000



 Wavenumbers: 29000. - 38000. cm-1, ATM      1
 LEVEL PRESSURE   UPWARD FLUX   DIFDOWN FLUX  DIRDOWN FLUX  DOWNWARD FLUX   NET FLUX    HEATING RATE
          mb          W/m2          W/m2          W/m2        W/m2          W/m2       degree/day
  51    .06700        7.5514        0.0000       20.8114       20.8114      13.259999       0.00000
  50    .07753        7.5512        0.0003       20.8070       20.8074      13.256194       3.05027
  49    .09103        7.5509        0.0007       20.8009       20.8016      13.250659       3.45938
  48    0.1069        7.5507        0.0012       20.7928       20.7939      13.243252       3.94259
  47    0.1255        7.5504        0.0017       20.7820       20.7837      13.233352       4.48837
  46    0.1487        7.5500        0.0023       20.7665       20.7688      13.218795       5.30607
  45    0.1794        7.5495        0.0032       20.7424       20.7456      13.196140       6.21921
  44    0.2165        7.5489        0.0042       20.7103       20.7146      13.165632       6.94016
  43    0.2613        7.5483        0.0055       20.6675       20.6730      13.124657       7.72361
  42    0.3336        7.5473        0.0075       20.5880       20.5955      13.048134       8.92180
  41    0.4307        7.5461        0.0101       20.4722       20.4824      12.936240       9.72891
  40    0.5894        7.5443        0.0143       20.2637       20.2780      12.733671      10.77236
  39     1.339        7.5395        0.0322       19.0984       19.1306      11.591066      12.86366
  38     1.782        7.5390        0.0415       18.4394       18.4809      10.941878      12.35949
  37     2.292        7.5402        0.0514       17.7714       17.8228      10.282578      10.91972
  36     2.964        7.5447        0.0636       17.0421       17.1058       9.561118       9.05650
  35     3.853        7.5542        0.0789       16.2678       16.3468       8.792544       7.29391
  34     5.035        7.5707        0.0983       15.4803       15.5786       8.007897       5.60519
  33     6.613        7.5950        0.1229       14.7157       14.8386       7.243634       4.08575
  32     8.786        7.6272        0.1552       13.9936       14.1488       6.521618       2.80405
  31     11.80        7.6689        0.2001       13.2835       13.4837       5.814777       1.97893
  30     15.07        7.7087        0.2466       12.7394       12.9859       5.277223       1.38786
  29     18.79        7.7495        0.2980       12.2666       12.5646       4.815097       1.04778
  28     23.16        7.7925        0.3565       11.8300       12.1865       4.393997       0.81427
  27     28.12        7.8358        0.4218       11.4279       11.8496       4.013790       0.64633
  26     33.73        7.8747        0.4937       11.0695       11.5631       3.688450       0.48916
  25     40.54        7.9097        0.5794       10.7209       11.3003       3.390667       0.36943
  24     48.69        7.9405        0.6810       10.3742       11.0552       3.114766       0.28551
  23     57.69        7.9629        0.7909       10.0549       10.8458       2.882830       0.21740
  22     68.43        7.9768        0.9195        9.7327       10.6522       2.675358       0.16310
  21     81.20        7.9740        1.0711        9.4134       10.4845       2.510499       0.10894
  20     96.49        7.9523        1.2490        9.0887       10.3377       2.385429       0.06903
  19     114.6        7.9183        1.4540        8.7388       10.1928       2.274485       0.05180
  18     136.5        7.8742        1.6877        8.3549       10.0426       2.168440       0.04078
  17     162.9        7.8192        1.9531        7.9311        9.8842       2.065061       0.03304
  16     196.4        7.7390        2.2803        7.4333        9.7136       1.974533       0.02279
  15     218.7        7.6841        2.4852        7.1295        9.6147       1.930582       0.01669
  14     243.0        7.6244        2.6985        6.8161        9.5146       1.890149       0.01402
  13     269.0        7.5597        2.9193        6.4943        9.4137       1.853985       0.01173
  12     297.5        7.4899        3.1464        6.1657        9.3122       1.822241       0.00942
  11     328.5        7.4162        3.3787        5.8295        9.2082       1.791985       0.00823
  10     361.9        7.3389        3.6136        5.4886        9.1023       1.763353       0.00724
   9     398.1        7.2580        3.8504        5.1440        8.9943       1.736363       0.00629
   8     437.6        7.1738        4.0873        4.7969        8.8843       1.710494       0.00553
   7     480.5        7.0865        4.3222        4.4504        8.7726       1.686093       0.00479
   6     533.0        6.9830        4.5865        4.0563        8.6427       1.659685       0.00425
   5     589.8        6.8764        4.8426        3.6682        8.5108       1.634333       0.00376
   4     651.6        6.7673        5.0866        3.2905        8.3771       1.609760       0.00336
   3     718.7        6.6558        5.3165        2.9252        8.2417       1.585935       0.00299
   2     792.3        6.5424        5.5288        2.5764        8.1052       1.562872       0.00265
   1     891.5        6.0419        6.1833        1.3942        7.5775       1.535563       0.00232
   0    1013.0        5.9022        6.2808        1.1281        7.4090       1.506702       0.00200



 Wavenumbers: 38000. - 50000. cm-1, ATM      1
 LEVEL PRESSURE   UPWARD FLUX   DIFDOWN FLUX  DIRDOWN FLUX  DOWNWARD FLUX   NET FLUX    HEATING RATE
          mb          W/m2          W/m2          W/m2        W/m2          W/m2       degree/day
  51    .06700        0.0061        0.0000        1.2836        1.2836       1.277518       0.00000
  50    .07753        0.0061        0.0001        1.2812        1.2812       1.275183       1.87150
  49    .09103        0.0060        0.0002        1.2777        1.2778       1.271851       2.08247
  48    0.1069        0.0059        0.0002        1.2731        1.2734       1.267473       2.33059
  47    0.1255        0.0058        0.0004        1.2672        1.2675       1.261717       2.60908
  46    0.1487        0.0057        0.0005        1.2586        1.2591       1.253391       3.03499
  45    0.1794        0.0055        0.0007        1.2455        1.2462       1.240623       3.50520
  44    0.2165        0.0054        0.0009        1.2282        1.2291       1.223697       3.85037
  43    0.2613        0.0052        0.0011        1.2054        1.2065       1.201348       4.21261
  42    0.3336        0.0049        0.0015        1.1639        1.1654       1.160524       4.75970
  41    0.4307        0.0045        0.0020        1.1051        1.1070       1.102565       5.03943
  40    0.5894        0.0039        0.0026        1.0039        1.0064       1.002524       5.32007
  39     1.339        0.0022        0.0035        0.5438        0.5473       0.545104       5.14971
  38     1.782        0.0016        0.0032        0.3635        0.3666       0.365006       3.42879
  37     2.292        0.0012        0.0027        0.2356        0.2383       0.237058       2.11916
  36     2.964        0.0009        0.0022        0.1455        0.1477       0.146786       1.13318
  35     3.853        0.0006        0.0017        0.0858        0.0875       0.086906       0.56828
  34     5.035        0.0004        0.0013        0.0488        0.0501       0.049701       0.26578
  33     6.613        0.0003        0.0010        0.0273        0.0282       0.027974       0.11615
  32     8.786        0.0002        0.0007        0.0144        0.0151       0.014928       0.05067
  31     11.80        0.0001        0.0004        0.0065        0.0070       0.006903       0.02247
  30     15.07        0.0000        0.0003        0.0031        0.0034       0.003329       0.00923
  29     18.79        0.0000        0.0002        0.0014        0.0016       0.001583       0.00396
  28     23.16        0.0000        0.0001        0.0006        0.0007       0.000720       0.00167
  27     28.12        0.0000        0.0001        0.0003        0.0003       0.000317       0.00069
  26     33.73        0.0000        0.0000        0.0001        0.0001       0.000140       0.00027
  25     40.54        0.0000        0.0000        0.0000        0.0001       0.000057       0.00010
  24     48.69        0.0000        0.0000        0.0000        0.0000       0.000021       0.00004
  23     57.69        0.0000        0.0000        0.0000        0.0000       0.000008       0.00001
  22     68.43        0.0000        0.0000        0.0000        0.0000       0.000003       0.00000
  21     81.20        0.0000        0.0000        0.0000        0.0000       0.000001       0.00000
  20     96.49        0.0000        0.0000        0.0000        0.0000       0.000000       0.00000
  19     114.6        0.0000        0.0000        0.0000        0.0000       0.000000       0.00000
  18     136.5        0.0000        0.0000        0.0000        0.0000       0.000000       0.00000
  17     162.9        0.0000        0.0000        0.0000        0.0000       0.000000       0.00000
  16     196.4        0.0000        0.0000        0.0000        0.0000       0.000000       0.00000
  15     218.7        0.0000        0.0000        0.0000        0.0000       0.000000       0.00000
  14     243.0        0.0000        0.0000        0.0000        0.0000       0.000000       0.00000
  13     269.0        0.0000        0.0000        0.0000        0.0000       0.000000       0.00000
  12     297.5        0.0000        0.0000        0.0000        0.0000       0.000000       0.00000
  11     328.5        0.0000        0.0000        0.0000        0.0000       0.000000       0.00000
  10     361.9        0.0000        0.0000        0.0000        0.0000       0.000000       0.00000
   9     398.1        0.0000        0.0000        0.0000        0.0000       0.000000       0.00000
   8     437.6        0.0000        0.0000        0.0000        0.0000       0.000000       0.00000
   7     480.5        0.0000        0.0000        0.0000        0.0000       0.000000       0.00000
   6     533.0        0.0000        0.0000        0.0000        0.0000       0.000000       0.00000
   5     589.8        0.0000        0.0000        0.0000        0.0000       0.000000       0.00000
   4     651.6        0.0000        0.0000        0.0000        0.0000       0.000000       0.00000
   3     718.7        0.0000        0.0000        0.0000        0.0000       0.000000       0.00000
   2     792.3        0.0000        0.0000        0.0000        0.0000       0.000000       0.00000
   1     891.5        0.0000        0.0000        0.0000        0.0000       0.000000       0.00000
   0    1013.0        0.0000        0.0000        0.0000        0.0000       0.000000       0.00000



 Wavenumbers:   820. -  2600. cm-1, ATM      1
 LEVEL PRESSURE   UPWARD FLUX   DIFDOWN FLUX  DIRDOWN FLUX  DOWNWARD FLUX   NET FLUX    HEATING RATE
          mb          W/m2          W/m2          W/m2        W/m2          W/m2       degree/day
  51    .06700        0.4758        0.0000        6.0047        6.0047       5.528852       0.00000
  50    .07753        0.4758        0.0000        6.0008        6.0008       5.524999       3.08820
  49    .09103        0.4758        0.0000        5.9999        5.9999       5.524113       0.55357
  48    0.1069        0.4758        0.0000        5.9989        5.9989       5.523124       0.52651
  47    0.1255        0.4758        0.0000        5.9978        5.9978       5.522007       0.50649
  46    0.1487        0.4758        0.0000        5.9964        5.9964       5.520650       0.49456
  45    0.1794        0.4758        0.0000        5.9947        5.9947       5.518931       0.47199
  44    0.2165        0.4758        0.0000        5.9929        5.9929       5.517088       0.41909
  43    0.2613        0.4758        0.0000        5.9909        5.9909       5.515129       0.36932
  42    0.3336        0.4758        0.0000        5.9880        5.9880       5.512251       0.33555
  41    0.4307        0.4758        0.0000        5.9846        5.9846       5.508782       0.30164
  40    0.5894        0.4758        0.0000        5.9791        5.9791       5.503277       0.29275
  39     1.339        0.4758        0.0000        5.9536        5.9536       5.477790       0.28693
  38     1.782        0.4758        0.0000        5.9395        5.9395       5.463652       0.26916
  37     2.292        0.4758        0.0000        5.9237        5.9237       5.447902       0.26087
  36     2.964        0.4758        0.0000        5.9039        5.9039       5.428128       0.24822
  35     3.853        0.4758        0.0000        5.8793        5.8793       5.403473       0.23398
  34     5.035        0.4758        0.0000        5.8487        5.8487       5.372910       0.21832
  33     6.613        0.4758        0.0000        5.8108        5.8108       5.334947       0.20295
  32     8.786        0.4758        0.0000        5.7631        5.7631       5.287325       0.18495
  31     11.80        0.4758        0.0000        5.7039        5.7039       5.228069       0.16590
  30     15.07        0.4758        0.0000        5.6539        5.6539       5.178031       0.12919
  29     18.79        0.4758        0.0000        5.6127        5.6127       5.136896       0.09327
  28     23.16        0.4759        0.0000        5.5794        5.5794       5.103518       0.06454
  27     28.12        0.4759        0.0000        5.5518        5.5518       5.075950       0.04686
  26     33.73        0.4759        0.0000        5.5268        5.5268       5.050893       0.03767
  25     40.54        0.4759        0.0000        5.4993        5.4993       5.023444       0.03405
  24     48.69        0.4759        0.0000        5.4678        5.4678       4.991893       0.03265
  23     57.69        0.4759        0.0000        5.4340        5.4340       4.958093       0.03168
  22     68.43        0.4760        0.0000        5.3947        5.3948       4.918803       0.03089
  21     81.20        0.4760        0.0000        5.3497        5.3497       4.873749       0.02977
  20     96.49        0.4760        0.0000        5.2982        5.2982       4.822209       0.02845
  19     114.6        0.4761        0.0000        5.2389        5.2389       4.762852       0.02772
  18     136.5        0.4761        0.0000        5.1716        5.1717       4.695552       0.02588
  17     162.9        0.4762        0.0000        5.0890        5.0890       4.612857       0.02643
  16     196.4        0.4763        0.0000        4.9668        4.9668       4.490506       0.03080
  15     218.7        0.4765        0.0000        4.8585        4.8585       4.382012       0.04119
  14     243.0        0.4767        0.0000        4.7078        4.7079       4.231181       0.05231
  13     269.0        0.4770        0.0000        4.5343        4.5343       4.057276       0.05641
  12     297.5        0.4775        0.0000        4.3419        4.3420       3.864436       0.05719
  11     328.5        0.4782        0.0000        4.1281        4.1281       3.649907       0.05833
  10     361.9        0.4792        0.0000        3.8786        3.8787       3.399499       0.06336
   9     398.1        0.4804        0.0000        3.6159        3.6159       3.135546       0.06150
   8     437.6        0.4820        0.0000        3.3759        3.3759       2.893891       0.05167
   7     480.5        0.4840        0.0000        3.1957        3.1958       2.711828       0.03576
   6     533.0        0.4869        0.0000        3.0467        3.0467       2.559758       0.02446
   5     589.8        0.4914        0.0000        2.9023        2.9023       2.410944       0.02209
   4     651.6        0.4991        0.0000        2.7183        2.7184       2.219224       0.02622
   3     718.7        0.5125        0.0000        2.5058        2.5059       1.993339       0.02839
   2     792.3        0.5377        0.0000        2.2756        2.2757       1.737996       0.02929
   1     891.5        0.2225        0.3737        1.2633        1.6370       1.414439       0.02753
   0    1013.0        0.2693        0.3016        0.9959        1.2975       1.028190       0.02682

  Modules and versions used in this calculation:

       rrtmg_sw.1col.f90:  $Revision$                    rrtmg_sw_init.f90:  $Revision$        
     rrtmgsw_cldprop.f90:  $Revision$                  rrtmgsw_cldprmc.f90:  NOT USED          
     rrtmg_sw_reftra.f90:  $Revision$                  rrtmg_sw_spcvrt.f90:  NOT USED          
     rrtmg_sw_spcvmc.f90:  NOT USED                    rrtmgsw_setcoef.f90:  NOT USED          
     rrtmg_sw_taumol.f90:  $Revision$                  rrtmg_sw_vrtqdr.f90:  NOT USED          
                rrtatm.f:  NOT USED                             util_xxx.f:  NOT USED          
                 extra.f:  NOT USED                       rrtmg_sw_k_g.f90:  $Revision$        

