

 Wavenumbers:   820. - 50000. cm-1, ATM      1
 LEVEL PRESSURE   UPWARD FLUX   DIFDOWN FLUX  DIRDOWN FLUX  DOWNWARD FLUX   NET FLUX    HEATING RATE
          mb          W/m2          W/m2          W/m2        W/m2          W/m2       degree/day
  51    .06700      300.3072        0.0000      617.8126      617.8126     317.505407       0.00000
  50    .07753      300.3067        0.0013      617.7947      617.7960     317.489286      12.92087
  49    .09103      300.3061        0.0029      617.7778      617.7807     317.474504       9.23897
  48    0.1069      300.3055        0.0047      617.7581      617.7628     317.457280       9.16862
  47    0.1255      300.3048        0.0068      617.7340      617.7408     317.435985       9.65438
  46    0.1487      300.3040        0.0095      617.7009      617.7104     317.406371      10.79456
  45    0.1794      300.3030        0.0132      617.6521      617.6653     317.362251      12.11180
  44    0.2165      300.3019        0.0175      617.5895      617.6070     317.305081      13.00533
  43    0.2613      300.3007        0.0225      617.5089      617.5314     317.230771      14.00698
  42    0.3336      300.2989        0.0309      617.3641      617.3950     317.096072      15.70462
  41    0.4307      300.2970        0.0419      617.1591      617.2010     316.904029      16.69773
  40    0.5894      300.2947        0.0597      616.8005      616.8601     316.565442      18.00563
  39     1.339      300.2990        0.1397      614.9443      615.0840     314.784940      20.04522
  38     1.782      300.3121        0.1846      613.9670      614.1516     313.839553      17.99864
  37     2.292      300.3367        0.2357      613.0059      613.2416     312.904851      15.48110
  36     2.964      300.3833        0.3020      611.9577      612.2597     311.876382      12.91040
  35     3.853      300.4646        0.3889      610.8024      611.1913     310.726723      10.91047
  34     5.035      300.5921        0.5036      609.5327      610.0363     309.444153       9.16215
  33     6.613      300.7730        0.6557      608.1464      608.8021     308.029149       7.56462
  32     8.786      301.0079        0.8597      606.6250      607.4847     306.476805       6.02874
  31     11.80      301.3090        1.1500      604.8486      605.9986     304.689602       5.00360
  30     15.07      301.5916        1.4596      603.2440      604.7036     303.111962       4.07316
  29     18.79      301.8744        1.8079      601.6511      603.4590     301.584568       3.46307
  28     23.16      302.1628        2.2123      599.9927      602.2050     300.042162       2.98251
  27     28.12      302.4435        2.6724      598.2881      600.9605     298.516945       2.59277
  26     33.73      302.6856        3.1851      596.5951      599.7802     297.094590       2.13855
  25     40.54      302.8941        3.8021      594.7727      598.5748     295.680651       1.75415
  24     48.69      303.0642        4.5420      592.7865      597.3285     294.264250       1.46575
  23     57.69      303.1722        5.3503      590.7959      596.1462     292.973981       1.20943
  22     68.43      303.2152        6.3073      588.6191      594.9263     291.711107       0.99279
  21     81.20      303.1475        7.4411      586.2690      593.7100     290.562495       0.75899
  20     96.49      302.9566        8.7824      583.6961      592.4785     289.521893       0.57434
  19     114.6      302.6845       10.3587      580.7708      591.1295     288.444975       0.50284
  18     136.5      302.3264       12.2021      577.4359      589.6380     287.311606       0.43581
  17     162.9      301.8700       14.3625      573.5624      587.9249     286.054913       0.40169
  16     196.4      301.2082       17.1126      568.5907      585.7033     284.495062       0.39263
  15     218.7      300.7509       18.8878      565.0572      583.9450     283.194161       0.49390
  14     243.0      300.2467       20.7892      560.7495      581.5388     281.292068       0.65971
  13     269.0      299.6946       22.8175      555.3947      578.2122     278.517535       0.90005
  12     297.5      299.0961       24.9725      548.9964      573.9689     274.872759       1.08100
  11     328.5      298.4561       27.2594      542.0895      569.3490     270.892881       1.08212
  10     361.9      297.7776       29.6739      534.6242      564.2981     266.520457       1.10627
   9     398.1      297.0634       32.2190      526.4204      558.6394     261.575952       1.15196
   8     437.6      296.3225       34.8924      517.3907      552.2830     255.960564       1.20060
   7     480.5      295.5633       37.6910      507.7216      545.4126     249.849271       1.20023
   6     533.0      294.6930       41.0452      495.9006      536.9458     242.252784       1.22203
   5     589.8      293.8692       44.5519      483.0788      527.6307     233.761497       1.26039
   4     651.6      293.2124       48.1965      468.6907      516.8871     223.674713       1.37940
   3     718.7      292.8784       51.9691      453.2257      505.1948     212.316471       1.42742
   2     792.3      293.2708       55.8467      436.4928      492.3395     199.068728       1.51937
   1     891.5      218.7402      187.6753      213.7684      401.4437     182.703485       1.39260
   0    1013.0      219.9313      185.8409      200.5882      386.4291     166.497754       1.12525



 Wavenumbers:  2600. -  3250. cm-1, ATM      1
 LEVEL PRESSURE   UPWARD FLUX   DIFDOWN FLUX  DIRDOWN FLUX  DOWNWARD FLUX   NET FLUX    HEATING RATE
          mb          W/m2          W/m2          W/m2        W/m2          W/m2       degree/day
  51    .06700        0.8042        0.0000        5.4450        5.4450       4.640827       0.00000
  50    .07753        0.8042        0.0000        5.4450        5.4450       4.640819       0.00640
  49    .09103        0.8042        0.0000        5.4450        5.4450       4.640809       0.00627
  48    0.1069        0.8042        0.0000        5.4450        5.4450       4.640797       0.00613
  47    0.1255        0.8042        0.0000        5.4450        5.4450       4.640784       0.00599
  46    0.1487        0.8042        0.0000        5.4450        5.4450       4.640767       0.00608
  45    0.1794        0.8042        0.0000        5.4450        5.4450       4.640744       0.00625
  44    0.2165        0.8042        0.0000        5.4449        5.4449       4.640718       0.00612
  43    0.2613        0.8042        0.0000        5.4449        5.4449       4.640686       0.00600
  42    0.3336        0.8042        0.0000        5.4448        5.4448       4.640633       0.00617
  41    0.4307        0.8042        0.0000        5.4448        5.4448       4.640562       0.00620
  40    0.5894        0.8042        0.0000        5.4446        5.4446       4.640442       0.00637
  39     1.339        0.8042        0.0000        5.4439        5.4439       4.639734       0.00797
  38     1.782        0.8042        0.0000        5.4434        5.4434       4.639191       0.01034
  37     2.292        0.8042        0.0000        5.4427        5.4427       4.638475       0.01186
  36     2.964        0.8042        0.0000        5.4416        5.4416       4.637437       0.01304
  35     3.853        0.8042        0.0000        5.4402        5.4402       4.635959       0.01402
  34     5.035        0.8042        0.0000        5.4381        5.4381       4.633904       0.01468
  33     6.613        0.8042        0.0000        5.4353        5.4353       4.631123       0.01487
  32     8.786        0.8042        0.0000        5.4317        5.4317       4.627490       0.01411
  31     11.80        0.8042        0.0000        5.4269        5.4269       4.622710       0.01338
  30     15.07        0.8042        0.0000        5.4224        5.4224       4.618182       0.01169
  29     18.79        0.8042        0.0000        5.4180        5.4180       4.613769       0.01001
  28     23.16        0.8042        0.0000        5.4135        5.4135       4.609282       0.00868
  27     28.12        0.8042        0.0000        5.4088        5.4088       4.604632       0.00790
  26     33.73        0.8042        0.0000        5.4036        5.4036       4.599389       0.00788
  25     40.54        0.8042        0.0000        5.3966        5.3967       4.592442       0.00862
  24     48.69        0.8042        0.0000        5.3872        5.3872       4.582958       0.00981
  23     57.69        0.8042        0.0000        5.3754        5.3754       4.571164       0.01106
  22     68.43        0.8043        0.0000        5.3599        5.3599       4.555661       0.01219
  21     81.20        0.8043        0.0000        5.3401        5.3401       4.535806       0.01312
  20     96.49        0.8043        0.0000        5.3155        5.3155       4.511208       0.01358
  19     114.6        0.8044        0.0000        5.2853        5.2854       4.480968       0.01412
  18     136.5        0.8045        0.0001        5.2504        5.2505       4.445999       0.01345
  17     162.9        0.8046        0.0001        5.2111        5.2111       4.406566       0.01260
  16     196.4        0.8048        0.0001        5.1640        5.1641       4.359323       0.01189
  15     218.7        0.8050        0.0001        5.1331        5.1332       4.328195       0.01182
  14     243.0        0.8053        0.0001        5.0962        5.0963       4.290960       0.01291
  13     269.0        0.8059        0.0001        5.0511        5.0512       4.245299       0.01481
  12     297.5        0.8067        0.0001        4.9956        4.9957       4.188993       0.01670
  11     328.5        0.8079        0.0001        4.9304        4.9305       4.122614       0.01805
  10     361.9        0.8095        0.0001        4.8511        4.8512       4.041763       0.02046
   9     398.1        0.8117        0.0001        4.7507        4.7508       3.939171       0.02390
   8     437.6        0.8147        0.0002        4.6220        4.6222       3.807508       0.02815
   7     480.5        0.8189        0.0002        4.4625        4.4626       3.643782       0.03216
   6     533.0        0.8256        0.0002        4.2460        4.2462       3.420575       0.03591
   5     589.8        0.8359        0.0002        3.9954        3.9956       3.159651       0.03873
   4     651.6        0.8528        0.0002        3.7089        3.7090       2.856227       0.04149
   3     718.7        0.8804        0.0002        3.4018        3.4020       2.521572       0.04206
   2     792.3        0.9298        0.0002        3.0564        3.0566       2.126796       0.04528
   1     891.5        0.3589        0.6744        1.3336        2.0080       1.649120       0.04065
   0    1013.0        0.4144        0.5578        1.0764        1.6341       1.219711       0.02982



 Wavenumbers:  3250. -  4000. cm-1, ATM      1
 LEVEL PRESSURE   UPWARD FLUX   DIFDOWN FLUX  DIRDOWN FLUX  DOWNWARD FLUX   NET FLUX    HEATING RATE
          mb          W/m2          W/m2          W/m2        W/m2          W/m2       degree/day
  51    .06700        0.0139        0.0000        9.1795        9.1795       9.165594       0.00000
  50    .07753        0.0139        0.0000        9.1747        9.1747       9.160751       3.88148
  49    .09103        0.0139        0.0000        9.1713        9.1713       9.157363       2.11747
  48    0.1069        0.0139        0.0000        9.1688        9.1688       9.154838       1.34402
  47    0.1255        0.0139        0.0000        9.1665        9.1665       9.152579       1.02422
  46    0.1487        0.0139        0.0000        9.1641        9.1641       9.150138       0.88991
  45    0.1794        0.0139        0.0000        9.1612        9.1612       9.147260       0.79008
  44    0.2165        0.0139        0.0000        9.1583        9.1583       9.144339       0.66430
  43    0.2613        0.0139        0.0000        9.1553        9.1553       9.141366       0.56041
  42    0.3336        0.0139        0.0000        9.1511        9.1511       9.137187       0.48723
  41    0.4307        0.0139        0.0000        9.1464        9.1464       9.132419       0.41459
  40    0.5894        0.0139        0.0000        9.1393        9.1394       9.125414       0.37255
  39     1.339        0.0139        0.0000        9.1127        9.1127       9.098800       0.29962
  38     1.782        0.0139        0.0000        9.1011        9.1011       9.087212       0.22062
  37     2.292        0.0139        0.0000        9.0901        9.0901       9.076145       0.18329
  36     2.964        0.0139        0.0000        9.0776        9.0776       9.063715       0.15603
  35     3.853        0.0139        0.0000        9.0629        9.0629       9.048925       0.14036
  34     5.035        0.0139        0.0000        9.0441        9.0441       9.030186       0.13386
  33     6.613        0.0139        0.0000        9.0191        9.0191       9.005185       0.13366
  32     8.786        0.0139        0.0000        8.9843        8.9843       8.970401       0.13509
  31     11.80        0.0139        0.0000        8.9327        8.9327       8.918785       0.14451
  30     15.07        0.0139        0.0000        8.8758        8.8759       8.861940       0.14676
  29     18.79        0.0139        0.0000        8.8110        8.8110       8.797113       0.14698
  28     23.16        0.0139        0.0000        8.7365        8.7366       8.722668       0.14395
  27     28.12        0.0139        0.0000        8.6554        8.6555       8.641555       0.13789
  26     33.73        0.0139        0.0000        8.5719        8.5719       8.558055       0.12554
  25     40.54        0.0139        0.0001        8.4812        8.4812       8.467331       0.11255
  24     48.69        0.0139        0.0001        8.3838        8.3839       8.370030       0.10069
  23     57.69        0.0139        0.0001        8.2861        8.2862       8.272295       0.09161
  22     68.43        0.0138        0.0001        8.1751        8.1751       8.161298       0.08726
  21     81.20        0.0138        0.0001        8.0457        8.0458       8.031940       0.08548
  20     96.49        0.0138        0.0001        7.8949        7.8950       7.881236       0.08318
  19     114.6        0.0138        0.0001        7.7162        7.7163       7.702527       0.08344
  18     136.5        0.0138        0.0002        7.5193        7.5194       7.505683       0.07569
  17     162.9        0.0137        0.0002        7.2913        7.2915       7.277791       0.07284
  16     196.4        0.0137        0.0002        6.9660        6.9662       6.952518       0.08188
  15     218.7        0.0137        0.0002        6.6648        6.6650       6.651327       0.11435
  14     243.0        0.0137        0.0002        6.2619        6.2622       6.248527       0.13970
  13     269.0        0.0137        0.0003        5.7576        5.7579       5.744214       0.16360
  12     297.5        0.0137        0.0003        5.1719        5.1722       5.158494       0.17372
  11     328.5        0.0137        0.0002        4.5757        4.5760       4.562283       0.16211
  10     361.9        0.0138        0.0002        3.9995        3.9998       3.986023       0.14580
   9     398.1        0.0139        0.0002        3.4655        3.4657       3.451827       0.12446
   8     437.6        0.0141        0.0002        2.9740        2.9743       2.960149       0.10512
   7     480.5        0.0145        0.0002        2.5307        2.5309       2.516401       0.08715
   6     533.0        0.0152        0.0002        2.0614        2.0616       2.046383       0.07561
   5     589.8        0.0165        0.0002        1.6150        1.6151       1.598634       0.06646
   4     651.6        0.0192        0.0001        1.1565        1.1566       1.137332       0.06308
   3     718.7        0.0253        0.0001        0.7390        0.7391       0.713758       0.05323
   2     792.3        0.0415        0.0001        0.3985        0.3985       0.356975       0.04092
   1     891.5        0.0006        0.0275        0.0589        0.0863       0.085795       0.02308
   0    1013.0        0.0053        0.0029        0.0048        0.0077       0.002386       0.00579



 Wavenumbers:  4000. -  4650. cm-1, ATM      1
 LEVEL PRESSURE   UPWARD FLUX   DIFDOWN FLUX  DIRDOWN FLUX  DOWNWARD FLUX   NET FLUX    HEATING RATE
          mb          W/m2          W/m2          W/m2        W/m2          W/m2       degree/day
  51    .06700        2.5699        0.0000       10.7795       10.7795       8.209669       0.00000
  50    .07753        2.5699        0.0000       10.7795       10.7795       8.209668       0.00080
  49    .09103        2.5699        0.0000       10.7795       10.7795       8.209667       0.00078
  48    0.1069        2.5699        0.0000       10.7795       10.7795       8.209666       0.00076
  47    0.1255        2.5699        0.0000       10.7795       10.7795       8.209664       0.00075
  46    0.1487        2.5699        0.0000       10.7795       10.7795       8.209662       0.00076
  45    0.1794        2.5699        0.0000       10.7795       10.7795       8.209659       0.00078
  44    0.2165        2.5699        0.0000       10.7795       10.7795       8.209656       0.00076
  43    0.2613        2.5699        0.0000       10.7795       10.7795       8.209652       0.00075
  42    0.3336        2.5699        0.0000       10.7795       10.7795       8.209645       0.00077
  41    0.4307        2.5699        0.0000       10.7795       10.7795       8.209636       0.00077
  40    0.5894        2.5699        0.0000       10.7795       10.7795       8.209621       0.00080
  39     1.339        2.5699        0.0000       10.7794       10.7794       8.209532       0.00101
  38     1.782        2.5699        0.0000       10.7793       10.7793       8.209462       0.00133
  37     2.292        2.5699        0.0000       10.7792       10.7792       8.209368       0.00156
  36     2.964        2.5699        0.0000       10.7791       10.7791       8.209228       0.00176
  35     3.853        2.5699        0.0000       10.7789       10.7789       8.209020       0.00197
  34     5.035        2.5699        0.0000       10.7786       10.7786       8.208713       0.00219
  33     6.613        2.5699        0.0000       10.7781       10.7781       8.208261       0.00241
  32     8.786        2.5698        0.0000       10.7774       10.7774       8.207594       0.00259
  31     11.80        2.5698        0.0000       10.7763       10.7764       8.206547       0.00293
  30     15.07        2.5698        0.0001       10.7751       10.7752       8.205318       0.00317
  29     18.79        2.5698        0.0001       10.7736       10.7737       8.203833       0.00337
  28     23.16        2.5698        0.0001       10.7717       10.7718       8.201988       0.00357
  27     28.12        2.5698        0.0001       10.7695       10.7696       8.199756       0.00379
  26     33.73        2.5698        0.0001       10.7667       10.7668       8.197004       0.00414
  25     40.54        2.5698        0.0002       10.7629       10.7631       8.193272       0.00463
  24     48.69        2.5698        0.0002       10.7579       10.7581       8.188301       0.00514
  23     57.69        2.5698        0.0002       10.7520       10.7522       8.182410       0.00552
  22     68.43        2.5698        0.0003       10.7446       10.7449       8.175030       0.00580
  21     81.20        2.5699        0.0003       10.7355       10.7358       8.165946       0.00600
  20     96.49        2.5700        0.0004       10.7245       10.7249       8.154900       0.00610
  19     114.6        2.5701        0.0005       10.7107       10.7112       8.141098       0.00644
  18     136.5        2.5703        0.0006       10.6942       10.6947       8.124482       0.00639
  17     162.9        2.5705        0.0007       10.6740       10.6747       8.104135       0.00650
  16     196.4        2.5710        0.0008       10.6464       10.6471       8.076116       0.00705
  15     218.7        2.5715        0.0009       10.6255       10.6263       8.054836       0.00808
  14     243.0        2.5722        0.0010       10.5980       10.5990       8.026824       0.00972
  13     269.0        2.5733        0.0011       10.5611       10.5622       7.988900       0.01230
  12     297.5        2.5749        0.0012       10.5119       10.5131       7.938275       0.01501
  11     328.5        2.5771        0.0013       10.4499       10.4512       7.874124       0.01744
  10     361.9        2.5800        0.0014       10.3702       10.3716       7.791651       0.02087
   9     398.1        2.5836        0.0016       10.2678       10.2693       7.685733       0.02468
   8     437.6        2.5883        0.0017       10.1390       10.1407       7.552429       0.02850
   7     480.5        2.5942        0.0018        9.9877        9.9895       7.395340       0.03085
   6     533.0        2.6033        0.0020        9.7937        9.7957       7.192386       0.03265
   5     589.8        2.6164        0.0022        9.5752        9.5773       6.960943       0.03435
   4     651.6        2.6373        0.0024        9.2958        9.2981       6.660833       0.04104
   3     718.7        2.6720        0.0025        8.9267        8.9292       6.257230       0.05072
   2     792.3        2.7357        0.0026        8.4542        8.4569       5.721175       0.06148
   1     891.5        0.9901        2.0261        4.0252        6.0513       5.061225       0.05616
   0    1013.0        1.0549        1.8597        3.6543        5.5140       4.459044       0.04181



 Wavenumbers:  4650. -  5150. cm-1, ATM      1
 LEVEL PRESSURE   UPWARD FLUX   DIFDOWN FLUX  DIRDOWN FLUX  DOWNWARD FLUX   NET FLUX    HEATING RATE
          mb          W/m2          W/m2          W/m2        W/m2          W/m2       degree/day
  51    .06700        1.8528        0.0000       10.2033       10.2033       8.350584       0.00000
  50    .07753        1.8528        0.0000       10.2031       10.2031       8.350349       0.18901
  49    .09103        1.8528        0.0000       10.2028       10.2028       8.350054       0.18428
  48    0.1069        1.8528        0.0000       10.2025       10.2025       8.349717       0.17931
  47    0.1255        1.8528        0.0000       10.2021       10.2021       8.349332       0.17426
  46    0.1487        1.8528        0.0000       10.2016       10.2016       8.348851       0.17536
  45    0.1794        1.8528        0.0000       10.2010       10.2010       8.348201       0.17850
  44    0.2165        1.8528        0.0000       10.2002       10.2002       8.347442       0.17277
  43    0.2613        1.8528        0.0000       10.1993       10.1993       8.346556       0.16690
  42    0.3336        1.8528        0.0000       10.1979       10.1979       8.345124       0.16702
  41    0.4307        1.8528        0.0000       10.1960       10.1960       8.343283       0.16002
  40    0.5894        1.8528        0.0000       10.1932       10.1932       8.340409       0.15283
  39     1.339        1.8528        0.0000       10.1816       10.1816       8.328818       0.13050
  38     1.782        1.8528        0.0000       10.1760       10.1760       8.323289       0.10526
  37     2.292        1.8527        0.0000       10.1706       10.1706       8.317833       0.09037
  36     2.964        1.8527        0.0000       10.1646       10.1647       8.311910       0.07435
  35     3.853        1.8527        0.0000       10.1584       10.1584       8.305696       0.05897
  34     5.035        1.8527        0.0000       10.1521       10.1521       8.299360       0.04526
  33     6.613        1.8527        0.0000       10.1456       10.1456       8.292903       0.03452
  32     8.786        1.8527        0.0001       10.1386       10.1386       8.285893       0.02723
  31     11.80        1.8527        0.0001       10.1295       10.1296       8.276853       0.02531
  30     15.07        1.8527        0.0001       10.1196       10.1197       8.266974       0.02551
  29     18.79        1.8527        0.0001       10.1076       10.1077       8.254966       0.02723
  28     23.16        1.8527        0.0001       10.0923       10.0924       8.239660       0.02960
  27     28.12        1.8528        0.0002       10.0731       10.0733       8.220563       0.03246
  26     33.73        1.8528        0.0002       10.0500       10.0502       8.197465       0.03473
  25     40.54        1.8528        0.0002       10.0201       10.0204       8.167556       0.03711
  24     48.69        1.8529        0.0003        9.9820        9.9823       8.129373       0.03951
  23     57.69        1.8530        0.0003        9.9384        9.9388       8.085819       0.04083
  22     68.43        1.8531        0.0004        9.8858        9.8862       8.033064       0.04147
  21     81.20        1.8533        0.0005        9.8234        9.8239       7.970638       0.04125
  20     96.49        1.8536        0.0006        9.7518        9.7523       7.898770       0.03967
  19     114.6        1.8540        0.0007        9.6719        9.6726       7.818645       0.03741
  18     136.5        1.8545        0.0008        9.5858        9.5866       7.732098       0.03328
  17     162.9        1.8553        0.0009        9.4940        9.4950       7.639710       0.02953
  16     196.4        1.8565        0.0011        9.3883        9.3894       7.532913       0.02688
  15     218.7        1.8575        0.0012        9.3229        9.3242       7.466701       0.02514
  14     243.0        1.8587        0.0014        9.2520        9.2534       7.394611       0.02500
  13     269.0        1.8605        0.0015        9.1717        9.1732       7.312694       0.02657
  12     297.5        1.8629        0.0017        9.0763        9.0779       7.214996       0.02898
  11     328.5        1.8662        0.0018        8.9650        8.9668       7.100609       0.03110
  10     361.9        1.8704        0.0020        8.8349        8.8369       6.966528       0.03392
   9     398.1        1.8758        0.0021        8.6820        8.6842       6.808333       0.03686
   8     437.6        1.8829        0.0023        8.5028        8.5051       6.622164       0.03980
   7     480.5        1.8922        0.0025        8.2948        8.2973       6.405063       0.04264
   6     533.0        1.9064        0.0027        8.0209        8.0236       6.117145       0.04632
   5     589.8        1.9262        0.0029        7.7063        7.7092       5.783027       0.04959
   4     651.6        1.9554        0.0030        7.3412        7.3443       5.388878       0.05390
   3     718.7        1.9995        0.0032        6.9387        6.9419       4.942383       0.05611
   2     792.3        2.0693        0.0033        6.5066        6.5099       4.440602       0.05755
   1     891.5        0.7439        1.5401        3.0659        4.6060       3.862094       0.04923
   0    1013.0        0.8060        1.3938        2.7387        4.1325       3.326504       0.03719



 Wavenumbers:  5150. -  6150. cm-1, ATM      1
 LEVEL PRESSURE   UPWARD FLUX   DIFDOWN FLUX  DIRDOWN FLUX  DOWNWARD FLUX   NET FLUX    HEATING RATE
          mb          W/m2          W/m2          W/m2        W/m2          W/m2       degree/day
  51    .06700        4.5271        0.0000       25.5798       25.5798      21.052680       0.00000
  50    .07753        4.5271        0.0000       25.5798       25.5798      21.052641       0.03158
  49    .09103        4.5271        0.0000       25.5797       25.5797      21.052589       0.03206
  48    0.1069        4.5271        0.0000       25.5797       25.5797      21.052528       0.03257
  47    0.1255        4.5271        0.0000       25.5796       25.5796      21.052455       0.03307
  46    0.1487        4.5271        0.0000       25.5795       25.5795      21.052360       0.03485
  45    0.1794        4.5271        0.0000       25.5794       25.5794      21.052224       0.03709
  44    0.2165        4.5271        0.0000       25.5792       25.5792      21.052059       0.03765
  43    0.2613        4.5271        0.0000       25.5790       25.5790      21.051856       0.03823
  42    0.3336        4.5271        0.0000       25.5786       25.5786      21.051510       0.04039
  41    0.4307        4.5271        0.0000       25.5782       25.5782      21.051039       0.04094
  40    0.5894        4.5271        0.0000       25.5774       25.5774      21.050250       0.04194
  39     1.339        4.5271        0.0000       25.5735       25.5736      21.046451       0.04277
  38     1.782        4.5271        0.0000       25.5713       25.5713      21.044239       0.04211
  37     2.292        4.5271        0.0001       25.5688       25.5688      21.041736       0.04145
  36     2.964        4.5271        0.0001       25.5656       25.5656      21.038557       0.03991
  35     3.853        4.5271        0.0001       25.5615       25.5616      21.034517       0.03834
  34     5.035        4.5271        0.0001       25.5562       25.5564      21.029314       0.03716
  33     6.613        4.5270        0.0002       25.5494       25.5496      21.022567       0.03607
  32     8.786        4.5270        0.0002       25.5406       25.5408      21.013824       0.03395
  31     11.80        4.5270        0.0003       25.5287       25.5290      21.002002       0.03310
  30     15.07        4.5270        0.0004       25.5167       25.5171      20.990149       0.03060
  29     18.79        4.5269        0.0005       25.5042       25.5047      20.977761       0.02809
  28     23.16        4.5269        0.0006       25.4907       25.4913      20.964421       0.02580
  27     28.12        4.5269        0.0008       25.4764       25.4772      20.950358       0.02391
  26     33.73        4.5268        0.0009       25.4620       25.4630      20.936114       0.02142
  25     40.54        4.5268        0.0011       25.4463       25.4474      20.920549       0.01931
  24     48.69        4.5268        0.0013       25.4294       25.4307      20.903895       0.01723
  23     57.69        4.5268        0.0016       25.4126       25.4142      20.887374       0.01549
  22     68.43        4.5269        0.0019       25.3944       25.3963      20.869450       0.01409
  21     81.20        4.5269        0.0022       25.3744       25.3767      20.849740       0.01302
  20     96.49        4.5270        0.0027       25.3519       25.3546      20.827603       0.01222
  19     114.6        4.5271        0.0032       25.3262       25.3293      20.802227       0.01185
  18     136.5        4.5272        0.0038       25.2962       25.2999      20.772699       0.01135
  17     162.9        4.5274        0.0045       25.2521       25.2566      20.729111       0.01393
  16     196.4        4.5277        0.0054       25.1593       25.1647      20.636910       0.02321
  15     218.7        4.5280        0.0059       25.0159       25.0219      20.493873       0.05431
  14     243.0        4.5283        0.0065       24.7089       24.7154      20.187097       0.10640
  13     269.0        4.5289        0.0071       24.1619       24.1690      19.640087       0.17745
  12     297.5        4.5297        0.0077       23.4544       23.4620      18.932371       0.20990
  11     328.5        4.5308        0.0082       22.7355       22.7437      18.212893       0.19562
  10     361.9        4.5324        0.0088       21.9224       21.9312      17.398839       0.20596
   9     398.1        4.5346        0.0093       20.9939       21.0032      16.468651       0.21671
   8     437.6        4.5378        0.0098       19.9833       19.9932      15.455399       0.21664
   7     480.5        4.5422        0.0103       18.9483       18.9586      14.416368       0.20406
   6     533.0        4.5499        0.0108       17.7796       17.7904      13.240491       0.18916
   5     589.8        4.5625        0.0113       16.6726       16.6839      12.121390       0.16611
   4     651.6        4.5857        0.0118       15.6343       15.6462      11.060468       0.14508
   3     718.7        4.6281        0.0124       14.7738       14.7862      10.158130       0.11340
   2     792.3        4.7119        0.0131       14.0291       14.0422       9.330318       0.09494
   1     891.5        1.7982        3.4373        6.7559       10.1932       8.395036       0.07959
   0    1013.0        1.8773        3.1980        6.2170        9.4150       7.537682       0.05953



 Wavenumbers:  6150. -  7700. cm-1, ATM      1
 LEVEL PRESSURE   UPWARD FLUX   DIFDOWN FLUX  DIRDOWN FLUX  DOWNWARD FLUX   NET FLUX    HEATING RATE
          mb          W/m2          W/m2          W/m2        W/m2          W/m2       degree/day
  51    .06700        7.0986        0.0000       47.3109       47.3109      40.212230       0.00000
  50    .07753        7.0986        0.0000       47.3108       47.3108      40.212173       0.04553
  49    .09103        7.0986        0.0000       47.3107       47.3107      40.212100       0.04583
  48    0.1069        7.0986        0.0000       47.3106       47.3106      40.212013       0.04614
  47    0.1255        7.0986        0.0000       47.3105       47.3105      40.211910       0.04645
  46    0.1487        7.0986        0.0000       47.3104       47.3104      40.211777       0.04852
  45    0.1794        7.0986        0.0000       47.3102       47.3102      40.211591       0.05127
  44    0.2165        7.0986        0.0000       47.3100       47.3100      40.211363       0.05167
  43    0.2613        7.0986        0.0000       47.3097       47.3097      40.211087       0.05210
  42    0.3336        7.0986        0.0000       47.3092       47.3092      40.210618       0.05471
  41    0.4307        7.0986        0.0000       47.3085       47.3086      40.209983       0.05521
  40    0.5894        7.0986        0.0001       47.3074       47.3075      40.208924       0.05633
  39     1.339        7.0985        0.0001       47.3022       47.3023      40.203831       0.05733
  38     1.782        7.0985        0.0002       47.2991       47.2993      40.200861       0.05655
  37     2.292        7.0984        0.0003       47.2956       47.2959      40.197485       0.05591
  36     2.964        7.0984        0.0003       47.2912       47.2915      40.193167       0.05421
  35     3.853        7.0983        0.0004       47.2855       47.2859      40.187633       0.05252
  34     5.035        7.0982        0.0006       47.2780       47.2786      40.180452       0.05129
  33     6.613        7.0980        0.0008       47.2683       47.2691      40.171065       0.05019
  32     8.786        7.0978        0.0010       47.2556       47.2566      40.158765       0.04777
  31     11.80        7.0975        0.0014       47.2380       47.2394      40.141862       0.04732
  30     15.07        7.0972        0.0017       47.2201       47.2218      40.124575       0.04463
  29     18.79        7.0969        0.0022       47.2008       47.2030      40.106096       0.04190
  28     23.16        7.0965        0.0027       47.1795       47.1822      40.085707       0.03943
  27     28.12        7.0960        0.0032       47.1565       47.1597      40.063714       0.03739
  26     33.73        7.0955        0.0039       47.1324       47.1363      40.040794       0.03446
  25     40.54        7.0949        0.0047       47.1054       47.1100      40.015159       0.03180
  24     48.69        7.0941        0.0056       47.0754       47.0810      39.986909       0.02923
  23     57.69        7.0933        0.0066       47.0449       47.0516      39.958290       0.02683
  22     68.43        7.0923        0.0079       47.0110       47.0189      39.926558       0.02495
  21     81.20        7.0911        0.0093       46.9729       46.9822      39.891070       0.02345
  20     96.49        7.0897        0.0111       46.9294       46.9404      39.850738       0.02226
  19     114.6        7.0880        0.0131       46.8790       46.8922      39.804118       0.02177
  18     136.5        7.0861        0.0156       46.8200       46.8356      39.749515       0.02100
  17     162.9        7.0837        0.0185       46.7361       46.7546      39.670930       0.02512
  16     196.4        7.0807        0.0223       46.5703       46.5925      39.511826       0.04005
  15     218.7        7.0788        0.0247       46.3473       46.3720      39.293184       0.08301
  14     243.0        7.0769        0.0272       45.9299       45.9571      38.880187       0.14324
  13     269.0        7.0752        0.0298       45.1708       45.2006      38.125378       0.24486
  12     297.5        7.0738        0.0322       44.0115       44.0437      36.969837       0.34272
  11     328.5        7.0731        0.0347       42.7242       42.7589      35.685805       0.34912
  10     361.9        7.0732        0.0371       41.3539       41.3911      34.317831       0.34611
   9     398.1        7.0749        0.0395       39.7953       39.8348      32.759912       0.36296
   8     437.6        7.0789        0.0417       37.9948       38.0365      30.957545       0.38536
   7     480.5        7.0865        0.0437       36.0647       36.1084      29.021902       0.38015
   6     533.0        7.1022        0.0458       33.7773       33.8231      26.720840       0.37017
   5     589.8        7.1313        0.0476       31.4082       31.4558      24.324489       0.35570
   4     651.6        7.1892        0.0489       28.8834       28.9323      21.743130       0.35301
   3     718.7        7.3003        0.0500       26.4104       26.4603      19.160063       0.32462
   2     792.3        7.5311        0.0507       24.0056       24.0563      16.525251       0.30218
   1     891.5        2.7294        5.5605       10.9651       16.5255      13.796154       0.23223
   0    1013.0        2.9362        4.9561        9.6121       14.5682      11.632080       0.15026



 Wavenumbers:  7700. -  8050. cm-1, ATM      1
 LEVEL PRESSURE   UPWARD FLUX   DIFDOWN FLUX  DIRDOWN FLUX  DOWNWARD FLUX   NET FLUX    HEATING RATE
          mb          W/m2          W/m2          W/m2        W/m2          W/m2       degree/day
  51    .06700        3.4705        0.0000       11.1810       11.1810       7.710487       0.00000
  50    .07753        3.4705        0.0000       11.1809       11.1809       7.710467       0.01613
  49    .09103        3.4705        0.0000       11.1809       11.1809       7.710442       0.01581
  48    0.1069        3.4705        0.0000       11.1809       11.1809       7.710413       0.01548
  47    0.1255        3.4705        0.0000       11.1809       11.1809       7.710379       0.01515
  46    0.1487        3.4705        0.0000       11.1808       11.1808       7.710337       0.01537
  45    0.1794        3.4705        0.0000       11.1808       11.1808       7.710280       0.01582
  44    0.2165        3.4705        0.0000       11.1807       11.1807       7.710211       0.01552
  43    0.2613        3.4705        0.0000       11.1806       11.1806       7.710131       0.01522
  42    0.3336        3.4705        0.0000       11.1805       11.1805       7.709997       0.01558
  41    0.4307        3.4705        0.0000       11.1803       11.1804       7.709820       0.01541
  40    0.5894        3.4706        0.0000       11.1801       11.1801       7.709530       0.01539
  39     1.339        3.4707        0.0001       11.1788       11.1789       7.708161       0.01541
  38     1.782        3.4708        0.0001       11.1781       11.1782       7.707357       0.01531
  37     2.292        3.4709        0.0001       11.1772       11.1773       7.706426       0.01542
  36     2.964        3.4710        0.0001       11.1761       11.1762       7.705204       0.01534
  35     3.853        3.4712        0.0002       11.1746       11.1748       7.703590       0.01532
  34     5.035        3.4714        0.0002       11.1726       11.1728       7.701445       0.01532
  33     6.613        3.4717        0.0003       11.1700       11.1703       7.698582       0.01531
  32     8.786        3.4721        0.0004       11.1664       11.1668       7.694725       0.01498
  31     11.80        3.4727        0.0006       11.1613       11.1619       7.689212       0.01543
  30     15.07        3.4733        0.0007       11.1558       11.1566       7.683300       0.01526
  29     18.79        3.4740        0.0009       11.1497       11.1506       7.676630       0.01512
  28     23.16        3.4748        0.0011       11.1425       11.1436       7.668852       0.01504
  27     28.12        3.4757        0.0014       11.1343       11.1357       7.659975       0.01509
  26     33.73        3.4768        0.0016       11.1252       11.1268       7.650065       0.01490
  25     40.54        3.4781        0.0020       11.1142       11.1162       7.638126       0.01481
  24     48.69        3.4796        0.0024       11.1010       11.1034       7.623784       0.01484
  23     57.69        3.4813        0.0028       11.0866       11.0894       7.608096       0.01471
  22     68.43        3.4834        0.0033       11.0695       11.0729       7.589502       0.01462
  21     81.20        3.4858        0.0039       11.0494       11.0533       7.567479       0.01455
  20     96.49        3.4888        0.0047       11.0255       11.0302       7.541420       0.01438
  19     114.6        3.4924        0.0056       10.9975       11.0031       7.510735       0.01433
  18     136.5        3.4966        0.0066       10.9648       10.9714       7.474714       0.01385
  17     162.9        3.5018        0.0078       10.9263       10.9341       7.432291       0.01356
  16     196.4        3.5087        0.0094       10.8773       10.8867       7.377999       0.01367
  15     218.7        3.5133        0.0104       10.8455       10.8560       7.342737       0.01339
  14     243.0        3.5183        0.0116       10.8114       10.8230       7.304703       0.01319
  13     269.0        3.5239        0.0128       10.7749       10.7877       7.263756       0.01328
  12     297.5        3.5301        0.0141       10.7357       10.7498       7.219703       0.01307
  11     328.5        3.5370        0.0155       10.6937       10.7093       7.172273       0.01290
  10     361.9        3.5446        0.0171       10.6489       10.6659       7.121274       0.01290
   9     398.1        3.5532        0.0187       10.6008       10.6195       7.066275       0.01281
   8     437.6        3.5628        0.0205       10.5491       10.5695       7.006741       0.01273
   7     480.5        3.5736        0.0223       10.4934       10.5158       6.942169       0.01268
   6     533.0        3.5878        0.0247       10.4243       10.4489       6.861163       0.01303
   5     589.8        3.6044        0.0271       10.3479       10.3750       6.770649       0.01344
   4     651.6        3.6244        0.0298       10.2613       10.2911       6.666689       0.01422
   3     718.7        3.6492        0.0326       10.1618       10.1944       6.545147       0.01527
   2     792.3        3.6809        0.0356       10.0439       10.0795       6.398519       0.01682
   1     891.5        1.5345        2.6504        5.0926        7.7430       6.208507       0.01617
   0    1013.0        1.5657        2.5932        4.9623        7.5555       5.989849       0.01518



 Wavenumbers:  8050. - 12850. cm-1, ATM      1
 LEVEL PRESSURE   UPWARD FLUX   DIFDOWN FLUX  DIRDOWN FLUX  DOWNWARD FLUX   NET FLUX    HEATING RATE
          mb          W/m2          W/m2          W/m2        W/m2          W/m2       degree/day
  51    .06700       49.7912        0.0000      156.5418      156.5418     106.750537       0.00000
  50    .07753       49.7912        0.0000      156.5417      156.5417     106.750537       0.00000
  49    .09103       49.7912        0.0001      156.5417      156.5417     106.750537      -0.00000
  48    0.1069       49.7912        0.0001      156.5416      156.5417     106.750537       0.00000
  47    0.1255       49.7911        0.0001      156.5415      156.5417     106.750537      -0.00000
  46    0.1487       49.7911        0.0002      156.5414      156.5416     106.750537      -0.00000
  45    0.1794       49.7910        0.0003      156.5413      156.5416     106.750537       0.00000
  44    0.2165       49.7910        0.0004      156.5412      156.5415     106.750537      -0.00000
  43    0.2613       49.7909        0.0005      156.5410      156.5415     106.750537       0.00000
  42    0.3336       49.7908        0.0007      156.5407      156.5413     106.750537       0.00000
  41    0.4307       49.7907        0.0009      156.5403      156.5412     106.750537       0.00000
  40    0.5894       49.7904        0.0013      156.5397      156.5410     106.750537       0.00000
  39     1.339       49.7893        0.0031      156.5367      156.5398     106.750537       0.00000
  38     1.782       49.7886        0.0042      156.5350      156.5392     106.750537      -0.00000
  37     2.292       49.7878        0.0054      156.5330      156.5384     106.750537      -0.00000
  36     2.964       49.7868        0.0070      156.5303      156.5374     106.750537       0.00000
  35     3.853       49.7855        0.0092      156.5268      156.5360     106.750537       0.00000
  34     5.035       49.7837        0.0120      156.5222      156.5342     106.750537       0.00000
  33     6.613       49.7813        0.0158      156.5160      156.5318     106.750537      -0.00000
  32     8.786       49.7781        0.0210      156.5076      156.5286     106.750537      -0.00000
  31     11.80       49.7735        0.0284      156.4957      156.5240     106.750537       0.00000
  30     15.07       49.7685        0.0363      156.4828      156.5191     106.750537       0.00000
  29     18.79       49.7629        0.0453      156.4682      156.5135     106.750537      -0.00000
  28     23.16       49.7564        0.0557      156.4512      156.5069     106.750537       0.00000
  27     28.12       49.7489        0.0677      156.4317      156.4994     106.750537      -0.00000
  26     33.73       49.7405        0.0812      156.4099      156.4910     106.750537       0.00000
  25     40.54       49.7303        0.0974      156.3834      156.4809     106.750537       0.00000
  24     48.69       49.7180        0.1171      156.3515      156.4686     106.750537       0.00000
  23     57.69       49.7045        0.1386      156.3164      156.4551     106.750537      -0.00000
  22     68.43       49.6884        0.1644      156.2746      156.4390     106.750537       0.00000
  21     81.20       49.6692        0.1951      156.2246      156.4197     106.750537      -0.00000
  20     96.49       49.6462        0.2318      156.1649      156.3967     106.750537       0.00000
  19     114.6       49.6190        0.2754      156.0879      156.3634     106.744398       0.00287
  18     136.5       49.5867        0.3273      155.9962      156.3234     106.736776       0.00293
  17     162.9       49.5481        0.3891      155.8831      156.2722     106.724100       0.00405
  16     196.4       49.4979        0.4695      155.7199      156.1894     106.691500       0.00821
  15     218.7       49.4651        0.5223      155.5733      156.0956     106.630542       0.02314
  14     243.0       49.4298        0.5797      155.3367      155.9164     106.486626       0.04991
  13     269.0       49.3925        0.6418      154.9514      155.5932     106.200647       0.09277
  12     297.5       49.3543        0.7085      154.3896      155.0981     105.743808       0.13549
  11     328.5       49.3155        0.7803      153.7151      154.4954     105.179943       0.15331
  10     361.9       49.2774        0.8573      152.9087      153.7661     104.488650       0.17490
   9     398.1       49.2422        0.9395      151.8986      152.8381     103.595921       0.20799
   8     437.6       49.2137        1.0267      150.6031      151.6299     102.416205       0.25223
   7     480.5       49.1964        1.1186      149.0014      150.1200     100.923614       0.29314
   6     533.0       49.2003        1.2293      146.7375      147.9668      98.766523       0.34701
   5     589.8       49.2512        1.3445      143.8730      145.2175      95.966329       0.41564
   4     651.6       49.4052        1.4616      140.0955      141.5571      92.151885       0.52164
   3     718.7       49.7427        1.5790      135.5278      137.1068      87.364127       0.60169
   2     792.3       50.4597        1.6937      130.0690      131.7627      81.303058       0.69514
   1     891.5       24.4759       34.8352       63.0713       97.9065      73.430616       0.66991
   0    1013.0       25.5436       32.7605       58.3323       91.0928      65.549210       0.54725



 Wavenumbers: 12850. - 16000. cm-1, ATM      1
 LEVEL PRESSURE   UPWARD FLUX   DIFDOWN FLUX  DIRDOWN FLUX  DOWNWARD FLUX   NET FLUX    HEATING RATE
          mb          W/m2          W/m2          W/m2        W/m2          W/m2       degree/day
  51    .06700       53.6671        0.0000       98.0872       98.0872      44.420102       0.00000
  50    .07753       53.6671        0.0001       98.0864       98.0864      44.419315       0.63006
  49    .09103       53.6671        0.0001       98.0853       98.0854      44.418329       0.61639
  48    0.1069       53.6671        0.0002       98.0841       98.0843      44.417198       0.60236
  47    0.1255       53.6671        0.0003       98.0826       98.0830      44.415899       0.58853
  46    0.1487       53.6671        0.0005       98.0809       98.0813      44.414264       0.59611
  45    0.1794       53.6670        0.0006       98.0784       98.0791      44.412044       0.60958
  44    0.2165       53.6670        0.0009       98.0756       98.0765      44.409437       0.59285
  43    0.2613       53.6671        0.0011       98.0723       98.0734      44.406381       0.57621
  42    0.3336       53.6671        0.0015       98.0670       98.0685      44.401407       0.57982
  41    0.4307       53.6673        0.0021       98.0602       98.0623      44.395001       0.55704
  40    0.5894       53.6676        0.0030       98.0496       98.0526      44.384963       0.53382
  39     1.339       53.6712        0.0073       98.0043       98.0116      44.340422       0.50145
  38     1.782       53.6748        0.0098       97.9793       97.9890      44.314296       0.49738
  37     2.292       53.6803        0.0127       97.9498       97.9624      44.282179       0.53195
  36     2.964       53.6896        0.0165       97.9088       97.9253      44.235677       0.58373
  35     3.853       53.7049        0.0215       97.8503       97.8718      44.166909       0.65262
  34     5.035       53.7282        0.0282       97.7680       97.7962      44.067964       0.70682
  33     6.613       53.7608        0.0371       97.6562       97.6933      43.932497       0.72421
  32     8.786       53.8031        0.0491       97.5107       97.5598      43.756653       0.68292
  31     11.80       53.8579        0.0662       97.3179       97.3841      43.526216       0.64515
  30     15.07       53.9099        0.0846       97.1283       97.2129      43.303018       0.57626
  29     18.79       53.9626        0.1053       96.9300       97.0354      43.072724       0.52215
  28     23.16       54.0172        0.1295       96.7166       96.8461      42.828884       0.47151
  27     28.12       54.0715        0.1572       96.4935       96.6507      42.579202       0.42444
  26     33.73       54.1205        0.1881       96.2731       96.4612      42.340719       0.35857
  25     40.54       54.1662        0.2254       96.0408       96.2662      42.100079       0.29854
  24     48.69       54.2081        0.2705       95.7946       96.0650      41.856973       0.25158
  23     57.69       54.2414        0.3199       95.5573       95.8772      41.635805       0.20731
  22     68.43       54.2673        0.3788       95.3106       95.6894      41.422147       0.16796
  21     81.20       54.2792        0.4490       95.0643       95.5134      41.234163       0.12422
  20     96.49       54.2760        0.5328       94.8153       95.3480      41.072079       0.08946
  19     114.6       54.2719        0.6330       94.5411       95.1741      40.902117       0.07936
  18     136.5       54.2594        0.7518       94.2320       94.9838      40.724372       0.06835
  17     162.9       54.2374        0.8931       93.8753       94.7684      40.530998       0.06181
  16     196.4       54.1938        1.0763       93.4347       94.5109      40.317126       0.05383
  15     218.7       54.1598        1.1965       93.1513       94.3478      40.187995       0.04903
  14     243.0       54.1205        1.3271       92.8439       94.1711      40.050531       0.04768
  13     269.0       54.0759        1.4686       92.5111       93.9797      39.903815       0.04759
  12     297.5       54.0261        1.6213       92.1495       93.7708      39.744692       0.04719
  11     328.5       53.9724        1.7863       91.7554       93.5417      39.569275       0.04770
  10     361.9       53.9153        1.9637       91.3262       93.2900      39.374683       0.04923
   9     398.1       53.8555        2.1545       90.8575       93.0121      39.156577       0.05081
   8     437.6       53.7949        2.3591       90.3418       92.7009      38.905965       0.05358
   7     480.5       53.7354        2.5780       89.7728       92.3508      38.615336       0.05708
   6     533.0       53.6728        2.8467       89.0428       91.8895      38.216714       0.06413
   5     589.8       53.6253        3.1350       88.2038       91.3388      37.713497       0.07469
   4     651.6       53.6153        3.4422       87.1979       90.6401      37.024830       0.09418
   3     718.7       53.6591        3.7669       86.0161       89.7831      36.124010       0.11321
   2     792.3       53.8070        4.1056       84.5970       88.7026      34.895578       0.14089
   1     891.5       40.0472       30.5254       42.5754       73.1008      33.053579       0.15675
   0    1013.0       40.6009       30.1595       41.1196       71.2790      30.678093       0.16494



 Wavenumbers: 16000. - 22650. cm-1, ATM      1
 LEVEL PRESSURE   UPWARD FLUX   DIFDOWN FLUX  DIRDOWN FLUX  DOWNWARD FLUX   NET FLUX    HEATING RATE
          mb          W/m2          W/m2          W/m2        W/m2          W/m2       degree/day
  51    .06700      118.1644        0.0000      156.3892      156.3892      38.224801       0.00000
  50    .07753      118.1644        0.0004      156.3887      156.3890      38.224664       0.10988
  49    .09103      118.1643        0.0008      156.3879      156.3888      38.224465       0.12463
  48    0.1069      118.1643        0.0014      156.3871      156.3885      38.224198       0.14212
  47    0.1255      118.1642        0.0020      156.3861      156.3880      38.223840       0.16199
  46    0.1487      118.1642        0.0028      156.3847      156.3875      38.223314       0.19196
  45    0.1794      118.1642        0.0038      156.3828      156.3867      38.222491       0.22602
  44    0.2165      118.1642        0.0051      156.3805      156.3856      38.221374       0.25402
  43    0.2613      118.1643        0.0066      156.3776      156.3842      38.219859       0.28558
  42    0.3336      118.1647        0.0091      156.3726      156.3817      38.216978       0.33583
  41    0.4307      118.1654        0.0123      156.3657      156.3780      38.212637       0.37751
  40    0.5894      118.1670        0.0177      156.3537      156.3714      38.204356       0.44035
  39     1.339      118.1832        0.0430      156.2834      156.3264      38.143180       0.68873
  38     1.782      118.1991        0.0578      156.2324      156.2902      38.091067       0.99215
  37     2.292      118.2235        0.0750      156.1641      156.2391      38.015636       1.24933
  36     2.964      118.2647        0.0976      156.0605      156.1581      37.893444       1.53388
  35     3.853      118.3319        0.1274      155.9041      156.0315      37.699572       1.83988
  34     5.035      118.4339        0.1669      155.6774      155.8443      37.410368       2.06595
  33     6.613      118.5768        0.2197      155.3656      155.5853      37.008536       2.14820
  32     8.786      118.7625        0.2907      154.9577      155.2483      36.485794       2.03014
  31     11.80      119.0033        0.3921      154.4153      154.8073      35.803979       1.90887
  30     15.07      119.2328        0.5007      153.8804      154.3811      35.148341       1.69273
  29     18.79      119.4657        0.6233      153.3191      153.9424      34.476629       1.52298
  28     23.16      119.7076        0.7661      152.7126      153.4787      33.771117       1.36423
  27     28.12      119.9488        0.9292      152.0755      153.0047      33.055913       1.21580
  26     33.73      120.1681        1.1115      151.4409      152.5525      32.384408       1.00962
  25     40.54      120.3742        1.3315      150.7637      152.0952      31.721005       0.82303
  24     48.69      120.5657        1.5964      150.0338      151.6302      31.064520       0.67936
  23     57.69      120.7209        1.8868      149.3151      151.2020      30.481100       0.54687
  22     68.43      120.8462        2.2323      148.5476      150.7799      29.933665       0.43036
  21     81.20      120.9141        2.6434      147.7517      150.3951      29.481008       0.29911
  20     96.49      120.9194        3.1327      146.9127      150.0453      29.125940       0.19597
  19     114.6      120.8868        3.7116      145.9763      149.6879      28.801077       0.15169
  18     136.5      120.8220        4.3949      144.9088      149.3036      28.481648       0.12283
  17     162.9      120.7209        5.2042      143.6785      148.8827      28.161847       0.10222
  16     196.4      120.5382        6.2476      142.1651      148.4126      27.874401       0.07235
  15     218.7      120.3995        6.9290      141.2033      148.1323      27.732868       0.05373
  14     243.0      120.2399        7.6660      140.1753      147.8414      27.601468       0.04557
  13     269.0      120.0580        8.4607      139.0797      147.5404      27.482409       0.03862
  12     297.5      119.8528        9.3147      137.9141      147.2288      27.376021       0.03155
  11     328.5      119.6271       10.2320      136.6676      146.8996      27.272509       0.02814
  10     361.9      119.3804       11.2132      135.3392      146.5524      27.171994       0.02543
   9     398.1      119.1117       12.2619      133.9235      146.1853      27.073639       0.02291
   8     437.6      118.8214       13.3797      132.4163      145.7959      26.974535       0.02119
   7     480.5      118.5087       14.5684      130.8147      145.3831      26.874395       0.01967
   6     533.0      118.1234       16.0185      128.8599      144.8784      26.754972       0.01921
   5     589.8      117.7109       17.5656      126.7679      144.3335      26.622663       0.01964
   4     651.6      117.2755       19.2106      124.5274      143.7380      26.462553       0.02190
   3     718.7      116.8216       20.9545      122.1285      143.0830      26.261356       0.02528
   2     792.3      116.3626       22.7946      119.5548      142.3494      25.986782       0.03149
   1     891.5      101.0332       66.6219       59.9347      126.5567      25.523490       0.03942
   0    1013.0      100.7078       67.7996       57.7573      125.5570      24.849186       0.04682



 Wavenumbers: 22650. - 29000. cm-1, ATM      1
 LEVEL PRESSURE   UPWARD FLUX   DIFDOWN FLUX  DIRDOWN FLUX  DOWNWARD FLUX   NET FLUX    HEATING RATE
          mb          W/m2          W/m2          W/m2        W/m2          W/m2       degree/day
  51    .06700       50.2020        0.0000       59.0156       59.0156       8.813563       0.00000
  50    .07753       50.2019        0.0004       59.0151       59.0155       8.813563       0.00000
  49    .09103       50.2018        0.0010       59.0144       59.0153       8.813563       0.00000
  48    0.1069       50.2016        0.0016       59.0136       59.0152       8.813563      -0.00000
  47    0.1255       50.2014        0.0023       59.0127       59.0150       8.813563       0.00000
  46    0.1487       50.2012        0.0032       59.0115       59.0147       8.813563       0.00000
  45    0.1794       50.2008        0.0045       59.0099       59.0144       8.813563      -0.00000
  44    0.2165       50.2005        0.0060       59.0080       59.0140       8.813563       0.00000
  43    0.2613       50.2000        0.0077       59.0058       59.0136       8.813563       0.00000
  42    0.3336       50.1992        0.0106       59.0022       59.0128       8.813563       0.00000
  41    0.4307       50.1982        0.0145       58.9973       59.0118       8.813563      -0.00000
  40    0.5894       50.1965        0.0207       58.9894       59.0101       8.813563       0.00000
  39     1.339       50.1886        0.0504       58.9518       59.0022       8.813563      -0.00000
  38     1.782       50.1840        0.0678       58.9297       58.9975       8.813563       0.00000
  37     2.292       50.1786        0.0880       58.9042       58.9922       8.813563       0.00000
  36     2.964       50.1715        0.1145       58.8706       58.9851       8.813563      -0.00000
  35     3.853       50.1622        0.1494       58.8264       58.9758       8.813563       0.00000
  34     5.035       50.1498        0.1958       58.7676       58.9634       8.813563       0.00000
  33     6.613       50.1333        0.2578       58.6891       58.9469       8.813563       0.00000
  32     8.786       50.1110        0.3412       58.5834       58.9246       8.813563      -0.00000
  31     11.80       50.0792        0.4603       58.4324       58.8927       8.813563       0.00000
  30     15.07       50.0450        0.5879       58.2706       58.8586       8.813563      -0.00000
  29     18.79       50.0065        0.7318       58.0882       58.8201       8.813563       0.00000
  28     23.16       49.9616        0.8994       57.8757       58.7751       8.813563      -0.00000
  27     28.12       49.9103        1.0905       57.6333       58.7238       8.813563       0.00000
  26     33.73       49.8530        1.3035       57.3631       58.6666       8.813563       0.00000
  25     40.54       49.7840        1.5597       57.0379       58.5976       8.813563      -0.00000
  24     48.69       49.7011        1.8668       56.6479       58.5147       8.813563      -0.00000
  23     57.69       49.6104        2.2019       56.2221       58.4240       8.813563       0.00000
  22     68.43       49.5030        2.5980       55.7186       58.3165       8.813563       0.00000
  21     81.20       49.3757        3.0654       55.1239       58.1893       8.813563       0.00000
  20     96.49       49.2252        3.6159       54.4228       58.0387       8.813563       0.00000
  19     114.6       49.0480        4.2606       53.6010       57.8616       8.813563      -0.00000
  18     136.5       48.8402        5.0120       52.6418       57.6538       8.813563       0.00000
  17     162.9       48.5959        5.8892       51.5203       57.4095       8.813563       0.00000
  16     196.4       48.2842        6.9983       50.0994       57.0977       8.813563      -0.00000
  15     218.7       48.0824        7.7097       49.1863       56.8959       8.813563       0.00000
  14     243.0       47.8657        8.4680       48.2113       56.6792       8.813563       0.00000
  13     269.0       47.6339        9.2725       47.1749       56.4474       8.813563       0.00000
  12     297.5       47.3868       10.1221       46.0783       56.2003       8.813563      -0.00000
  11     328.5       47.1237       11.0177       44.9195       55.9372       8.813563       0.00000
  10     361.9       46.8448       11.9565       43.7018       55.6583       8.813563      -0.00000
   9     398.1       46.5495       12.9380       42.4250       55.3631       8.813563       0.00000
   8     437.6       46.2379       13.9599       41.0916       55.0515       8.813563       0.00000
   7     480.5       45.9100       15.0191       39.7045       54.7236       8.813563      -0.00000
   6     533.0       45.5145       16.2738       38.0543       54.3281       8.813563       0.00000
   5     589.8       45.0977       17.5682       36.3431       53.9113       8.813563      -0.00000
   4     651.6       44.6602       18.8943       34.5795       53.4738       8.813563      -0.00000
   3     718.7       44.2021       20.2455       32.7702       53.0157       8.813563       0.00000
   2     792.3       43.7243       21.6123       30.9256       52.5378       8.813563       0.00000
   1     891.5       38.9109       32.9666       14.7578       47.7244       8.813507       0.00000
   0    1013.0       38.3880       33.7922       13.4093       47.2015       8.813507       0.00000



 Wavenumbers: 29000. - 38000. cm-1, ATM      1
 LEVEL PRESSURE   UPWARD FLUX   DIFDOWN FLUX  DIRDOWN FLUX  DOWNWARD FLUX   NET FLUX    HEATING RATE
          mb          W/m2          W/m2          W/m2        W/m2          W/m2       degree/day
  51    .06700        7.5624        0.0000       20.8114       20.8114      13.248951       0.00000
  50    .07753        7.5622        0.0003       20.8070       20.8074      13.245145       3.05028
  49    .09103        7.5620        0.0007       20.8009       20.8016      13.239611       3.45940
  48    0.1069        7.5617        0.0012       20.7928       20.7939      13.232204       3.94261
  47    0.1255        7.5614        0.0017       20.7820       20.7837      13.222304       4.48839
  46    0.1487        7.5610        0.0023       20.7665       20.7688      13.207747       5.30610
  45    0.1794        7.5605        0.0032       20.7424       20.7456      13.185092       6.21924
  44    0.2165        7.5600        0.0042       20.7103       20.7146      13.154583       6.94020
  43    0.2613        7.5594        0.0055       20.6675       20.6730      13.113608       7.72365
  42    0.3336        7.5584        0.0075       20.5880       20.5955      13.037085       8.92185
  41    0.4307        7.5572        0.0101       20.4722       20.4824      12.925191       9.72897
  40    0.5894        7.5554        0.0143       20.2637       20.2780      12.722620      10.77243
  39     1.339        7.5506        0.0322       19.0984       19.1306      11.580005      12.86377
  38     1.782        7.5501        0.0415       18.4394       18.4809      10.930809      12.35965
  37     2.292        7.5513        0.0514       17.7714       17.8228      10.271498      10.91991
  36     2.964        7.5558        0.0637       17.0421       17.1058       9.550019       9.05674
  35     3.853        7.5654        0.0790       16.2678       16.3468       8.781415       7.29419
  34     5.035        7.5819        0.0983       15.4803       15.5786       7.996725       5.60550
  33     6.613        7.6063        0.1230       14.7157       14.8387       7.232401       4.08607
  32     8.786        7.6385        0.1553       13.9936       14.1488       6.510306       2.80436
  31     11.80        7.6804        0.2002       13.2835       13.4837       5.803361       1.97923
  30     15.07        7.7203        0.2467       12.7394       12.9860       5.265703       1.38813
  29     18.79        7.7613        0.2982       12.2666       12.5648       4.803468       1.04803
  28     23.16        7.8044        0.3566       11.8300       12.1866       4.382249       0.81450
  27     28.12        7.8479        0.4220       11.4279       11.8498       4.001916       0.64654
  26     33.73        7.8869        0.4939       11.0695       11.5633       3.676454       0.48934
  25     40.54        7.9221        0.5797       10.7209       11.3006       3.378544       0.36959
  24     48.69        7.9530        0.6814       10.3742       11.0556       3.102511       0.28565
  23     57.69        7.9757        0.7912       10.0549       10.8461       2.870453       0.21752
  22     68.43        7.9898        0.9199        9.7327       10.6527       2.662859       0.16320
  21     81.20        7.9872        1.0716        9.4134       10.4851       2.497895       0.10901
  20     96.49        7.9657        1.2497        9.0887       10.3384       2.372739       0.06908
  19     114.6        7.9319        1.4548        8.7388       10.1936       2.261713       0.05184
  18     136.5        7.8880        1.6887        8.3549       10.0436       2.155584       0.04081
  17     162.9        7.8333        1.9543        7.9311        9.8854       2.052115       0.03307
  16     196.4        7.7535        2.2817        7.4333        9.7150       1.961501       0.02281
  15     218.7        7.6988        2.4868        7.1295        9.6163       1.917506       0.01670
  14     243.0        7.6393        2.7003        6.8161        9.5163       1.877030       0.01404
  13     269.0        7.5748        2.9213        6.4943        9.4156       1.840825       0.01174
  12     297.5        7.5053        3.1486        6.1657        9.3144       1.809043       0.00943
  11     328.5        7.4319        3.3812        5.8295        9.2106       1.778749       0.00824
  10     361.9        7.3549        3.6163        5.4886        9.1050       1.750078       0.00725
   9     398.1        7.2743        3.8534        5.1440        8.9973       1.723050       0.00630
   8     437.6        7.1904        4.0906        4.7969        8.8876       1.697143       0.00554
   7     480.5        7.1035        4.3259        4.4504        8.7762       1.672702       0.00480
   6     533.0        7.0005        4.5905        4.0563        8.6468       1.646249       0.00426
   5     589.8        6.8944        4.8471        3.6682        8.5153       1.620850       0.00377
   4     651.6        6.7859        5.0916        3.2905        8.3821       1.596227       0.00337
   3     718.7        6.6749        5.3221        2.9252        8.2473       1.572351       0.00300
   2     792.3        6.5622        5.5349        2.5764        8.1114       1.549233       0.00265
   1     891.5        5.9053        6.3089        1.1185        7.4275       1.522206       0.00230
   0    1013.0        5.7746        6.3635        0.9051        7.2686       1.493966       0.00196



 Wavenumbers: 38000. - 50000. cm-1, ATM      1
 LEVEL PRESSURE   UPWARD FLUX   DIFDOWN FLUX  DIRDOWN FLUX  DOWNWARD FLUX   NET FLUX    HEATING RATE
          mb          W/m2          W/m2          W/m2        W/m2          W/m2       degree/day
  51    .06700        0.0061        0.0000        1.2836        1.2836       1.277518       0.00000
  50    .07753        0.0061        0.0001        1.2812        1.2812       1.275183       1.87150
  49    .09103        0.0060        0.0002        1.2777        1.2778       1.271851       2.08247
  48    0.1069        0.0059        0.0002        1.2731        1.2734       1.267473       2.33059
  47    0.1255        0.0058        0.0004        1.2672        1.2675       1.261717       2.60908
  46    0.1487        0.0057        0.0005        1.2586        1.2591       1.253391       3.03499
  45    0.1794        0.0055        0.0007        1.2455        1.2462       1.240623       3.50520
  44    0.2165        0.0054        0.0009        1.2282        1.2291       1.223697       3.85037
  43    0.2613        0.0052        0.0011        1.2054        1.2065       1.201348       4.21261
  42    0.3336        0.0049        0.0015        1.1639        1.1654       1.160524       4.75970
  41    0.4307        0.0045        0.0020        1.1051        1.1070       1.102565       5.03943
  40    0.5894        0.0039        0.0026        1.0039        1.0064       1.002524       5.32007
  39     1.339        0.0022        0.0035        0.5438        0.5473       0.545104       5.14971
  38     1.782        0.0016        0.0032        0.3635        0.3666       0.365006       3.42879
  37     2.292        0.0012        0.0027        0.2356        0.2383       0.237058       2.11916
  36     2.964        0.0009        0.0022        0.1455        0.1477       0.146786       1.13318
  35     3.853        0.0006        0.0017        0.0858        0.0875       0.086906       0.56828
  34     5.035        0.0004        0.0013        0.0488        0.0501       0.049701       0.26578
  33     6.613        0.0003        0.0010        0.0273        0.0282       0.027974       0.11615
  32     8.786        0.0002        0.0007        0.0144        0.0151       0.014928       0.05067
  31     11.80        0.0001        0.0004        0.0065        0.0070       0.006903       0.02247
  30     15.07        0.0000        0.0003        0.0031        0.0034       0.003329       0.00923
  29     18.79        0.0000        0.0002        0.0014        0.0016       0.001583       0.00396
  28     23.16        0.0000        0.0001        0.0006        0.0007       0.000720       0.00167
  27     28.12        0.0000        0.0001        0.0003        0.0003       0.000317       0.00069
  26     33.73        0.0000        0.0000        0.0001        0.0001       0.000140       0.00027
  25     40.54        0.0000        0.0000        0.0000        0.0001       0.000057       0.00010
  24     48.69        0.0000        0.0000        0.0000        0.0000       0.000021       0.00004
  23     57.69        0.0000        0.0000        0.0000        0.0000       0.000008       0.00001
  22     68.43        0.0000        0.0000        0.0000        0.0000       0.000003       0.00000
  21     81.20        0.0000        0.0000        0.0000        0.0000       0.000001       0.00000
  20     96.49        0.0000        0.0000        0.0000        0.0000       0.000000       0.00000
  19     114.6        0.0000        0.0000        0.0000        0.0000       0.000000       0.00000
  18     136.5        0.0000        0.0000        0.0000        0.0000       0.000000       0.00000
  17     162.9        0.0000        0.0000        0.0000        0.0000       0.000000       0.00000
  16     196.4        0.0000        0.0000        0.0000        0.0000       0.000000       0.00000
  15     218.7        0.0000        0.0000        0.0000        0.0000       0.000000       0.00000
  14     243.0        0.0000        0.0000        0.0000        0.0000       0.000000       0.00000
  13     269.0        0.0000        0.0000        0.0000        0.0000       0.000000       0.00000
  12     297.5        0.0000        0.0000        0.0000        0.0000       0.000000       0.00000
  11     328.5        0.0000        0.0000        0.0000        0.0000       0.000000       0.00000
  10     361.9        0.0000        0.0000        0.0000        0.0000       0.000000       0.00000
   9     398.1        0.0000        0.0000        0.0000        0.0000       0.000000       0.00000
   8     437.6        0.0000        0.0000        0.0000        0.0000       0.000000       0.00000
   7     480.5        0.0000        0.0000        0.0000        0.0000       0.000000       0.00000
   6     533.0        0.0000        0.0000        0.0000        0.0000       0.000000       0.00000
   5     589.8        0.0000        0.0000        0.0000        0.0000       0.000000       0.00000
   4     651.6        0.0000        0.0000        0.0000        0.0000       0.000000       0.00000
   3     718.7        0.0000        0.0000        0.0000        0.0000       0.000000       0.00000
   2     792.3        0.0000        0.0000        0.0000        0.0000       0.000000       0.00000
   1     891.5        0.0000        0.0000        0.0000        0.0000       0.000000       0.00000
   0    1013.0        0.0000        0.0000        0.0000        0.0000       0.000000       0.00000



 Wavenumbers:   820. -  2600. cm-1, ATM      1
 LEVEL PRESSURE   UPWARD FLUX   DIFDOWN FLUX  DIRDOWN FLUX  DOWNWARD FLUX   NET FLUX    HEATING RATE
          mb          W/m2          W/m2          W/m2        W/m2          W/m2       degree/day
  51    .06700        0.5768        0.0000        6.0047        6.0047       5.427864       0.00000
  50    .07753        0.5768        0.0000        6.0008        6.0008       5.424011       3.08821
  49    .09103        0.5768        0.0000        5.9999        5.9999       5.423126       0.55358
  48    0.1069        0.5768        0.0000        5.9989        5.9989       5.422136       0.52652
  47    0.1255        0.5768        0.0000        5.9978        5.9978       5.421019       0.50649
  46    0.1487        0.5768        0.0000        5.9964        5.9964       5.419662       0.49457
  45    0.1794        0.5768        0.0000        5.9947        5.9947       5.417943       0.47199
  44    0.2165        0.5768        0.0000        5.9929        5.9929       5.416101       0.41910
  43    0.2613        0.5768        0.0000        5.9909        5.9909       5.414141       0.36932
  42    0.3336        0.5768        0.0000        5.9880        5.9880       5.411263       0.33556
  41    0.4307        0.5768        0.0000        5.9846        5.9846       5.407794       0.30164
  40    0.5894        0.5768        0.0000        5.9791        5.9791       5.402289       0.29276
  39     1.339        0.5768        0.0000        5.9536        5.9536       5.376802       0.28694
  38     1.782        0.5768        0.0000        5.9395        5.9395       5.362664       0.26917
  37     2.292        0.5768        0.0000        5.9237        5.9237       5.346913       0.26088
  36     2.964        0.5768        0.0000        5.9039        5.9039       5.327139       0.24822
  35     3.853        0.5768        0.0000        5.8793        5.8793       5.302483       0.23399
  34     5.035        0.5768        0.0000        5.8487        5.8487       5.271920       0.21833
  33     6.613        0.5768        0.0000        5.8108        5.8108       5.233955       0.20296
  32     8.786        0.5768        0.0000        5.7631        5.7631       5.186331       0.18495
  31     11.80        0.5768        0.0000        5.7039        5.7039       5.127074       0.16590
  30     15.07        0.5768        0.0000        5.6539        5.6539       5.077034       0.12919
  29     18.79        0.5768        0.0000        5.6127        5.6127       5.035896       0.09327
  28     23.16        0.5769        0.0000        5.5794        5.5794       5.002516       0.06455
  27     28.12        0.5769        0.0000        5.5518        5.5518       4.974944       0.04687
  26     33.73        0.5769        0.0000        5.5268        5.5268       4.949884       0.03768
  25     40.54        0.5769        0.0000        5.4993        5.4993       4.922430       0.03406
  24     48.69        0.5769        0.0000        5.4678        5.4678       4.890874       0.03266
  23     57.69        0.5770        0.0000        5.4340        5.4340       4.857068       0.03169
  22     68.43        0.5770        0.0000        5.3947        5.3948       4.817772       0.03089
  21     81.20        0.5770        0.0000        5.3497        5.3497       4.772709       0.02978
  20     96.49        0.5771        0.0000        5.2982        5.2982       4.721159       0.02845
  19     114.6        0.5771        0.0000        5.2389        5.2389       4.661790       0.02772
  18     136.5        0.5772        0.0000        5.1716        5.1717       4.594474       0.02588
  17     162.9        0.5773        0.0000        5.0890        5.0890       4.511755       0.02644
  16     196.4        0.5775        0.0000        4.9668        4.9668       4.389366       0.03081
  15     218.7        0.5776        0.0000        4.8585        4.8585       4.280834       0.04121
  14     243.0        0.5779        0.0000        4.7078        4.7079       4.129942       0.05233
  13     269.0        0.5783        0.0000        4.5343        4.5343       3.955948       0.05644
  12     297.5        0.5790        0.0000        4.3419        4.3420       3.762964       0.05724
  11     328.5        0.5799        0.0000        4.1281        4.1281       3.548243       0.05838
  10     361.9        0.5811        0.0000        3.8786        3.8787       3.297580       0.06342
   9     398.1        0.5826        0.0000        3.6159        3.6159       3.033299       0.06157
   8     437.6        0.5847        0.0000        3.3759        3.3759       2.791220       0.05176
   7     480.5        0.5871        0.0000        3.1957        3.1958       2.608637       0.03586
   6     533.0        0.5909        0.0000        3.0467        3.0467       2.455781       0.02459
   5     589.8        0.5965        0.0000        2.9023        2.9023       2.305812       0.02226
   4     651.6        0.6063        0.0000        2.7183        2.7184       2.112097       0.02649
   3     718.7        0.6231        0.0000        2.5058        2.5059       1.882780       0.02882
   2     792.3        0.6548        0.0000        2.2756        2.2757       1.620879       0.03004
   1     891.5        0.2122        0.5008        1.0135        1.5143       1.302156       0.02712
   0    1013.0        0.2568        0.4043        0.7990        1.2033       0.946535       0.02469

  Modules and versions used in this calculation:

       rrtmg_sw.1col.f90:  $Revision$                    rrtmg_sw_init.f90:  $Revision$        
     rrtmgsw_cldprop.f90:  $Revision$                  rrtmgsw_cldprmc.f90:  NOT USED          
     rrtmg_sw_reftra.f90:  $Revision$                  rrtmg_sw_spcvrt.f90:  NOT USED          
     rrtmg_sw_spcvmc.f90:  NOT USED                    rrtmgsw_setcoef.f90:  NOT USED          
     rrtmg_sw_taumol.f90:  $Revision$                  rrtmg_sw_vrtqdr.f90:  NOT USED          
                rrtatm.f:  NOT USED                             util_xxx.f:  NOT USED          
                 extra.f:  NOT USED                       rrtmg_sw_k_g.f90:  $Revision$        

