

 Wavenumbers:   820. - 50000. cm-1, ATM      1
 LEVEL PRESSURE   UPWARD FLUX   DIFDOWN FLUX  DIRDOWN FLUX  DOWNWARD FLUX   NET FLUX    HEATING RATE
          mb          W/m2          W/m2          W/m2        W/m2          W/m2       degree/day
  51    .06700      422.2820        0.0000      617.8126      617.8126     195.530593       0.00000
  50    .07753      422.2816        0.0013      617.7947      617.7960     195.514457      12.93319
  49    .09103      422.2811        0.0030      617.7778      617.7807     195.499653       9.25253
  48    0.1069      422.2806        0.0049      617.7581      617.7630     195.482401       9.18366
  47    0.1255      422.2800        0.0071      617.7340      617.7410     195.461068       9.67112
  46    0.1487      422.2793        0.0098      617.7009      617.7107     195.431401      10.81398
  45    0.1794      422.2785        0.0136      617.6521      617.6657     195.387200      12.13431
  44    0.2165      422.2776        0.0180      617.5895      617.6075     195.329920      13.03027
  43    0.2613      422.2767        0.0233      617.5089      617.5322     195.255463      14.03467
  42    0.3336      422.2755        0.0319      617.3641      617.3960     195.120488      15.73684
  41    0.4307      422.2743        0.0432      617.1591      617.2024     194.928031      16.73364
  40    0.5894      422.2734        0.0616      616.8005      616.8620     194.588663      18.04716
  39     1.339      422.2861        0.1443      614.9443      615.0886     192.802508      20.10886
  38     1.782      422.3055        0.1908      613.9670      614.1579     191.852367      18.08915
  37     2.292      422.3388        0.2437      613.0059      613.2496     190.910832      15.59429
  36     2.964      422.3988        0.3125      611.9577      612.2701     189.871348      13.04866
  35     3.853      422.5007        0.4026      610.8024      611.2050     188.704269      11.07580
  34     5.035      422.6585        0.5215      609.5327      610.0542     187.395732       9.34765
  33     6.613      422.8812        0.6793      608.1464      608.8258     185.944590       7.75781
  32     8.786      423.1710        0.8910      606.6250      607.5161     184.345043       6.21206
  31     11.80      423.5451        1.1923      604.8486      606.0410     182.495865       5.17712
  30     15.07      423.8996        1.5138      603.2440      604.7578     180.858130       4.22831
  29     18.79      424.2579        1.8755      601.6511      603.5266     179.268632       3.60388
  28     23.16      424.6279        2.2956      599.9927      602.2883     177.660352       3.10990
  27     28.12      424.9941        2.7737      598.2881      601.0617     176.067594       2.70758
  26     33.73      425.3207        3.3066      596.5951      599.9016     174.580923       2.23525
  25     40.54      425.6184        3.9480      594.7727      598.7207     173.102362       1.83432
  24     48.69      425.8833        4.7175      592.7865      597.5040     171.620751       1.53324
  23     57.69      426.0833        5.5585      590.7959      596.3544     170.271146       1.26505
  22     68.43      426.2227        6.5545      588.6191      595.1736     168.950936       1.03786
  21     81.20      426.2516        7.7351      586.2690      594.0040     167.752492       0.79191
  20     96.49      426.1588        9.1324      583.6961      592.8285     166.669654       0.59765
  19     114.6      425.9961       10.7754      580.7708      591.5463     165.550118       0.52274
  18     136.5      425.7624       12.6984      577.4359      590.1343     164.371884       0.45306
  17     162.9      425.4497       14.9537      573.5624      588.5162     163.066524       0.41725
  16     196.4      424.9643       17.8278      568.5907      586.4185     161.454246       0.40583
  15     218.7      424.6204       19.6848      565.0572      584.7420     160.121613       0.50595
  14     243.0      424.2409       21.6754      560.7495      582.4249     158.184051       0.67201
  13     269.0      423.8276       23.8007      555.3947      579.1954     155.367766       0.91359
  12     297.5      423.3871       26.0610      548.9964      575.0574     151.670283       1.09663
  11     328.5      422.9289       28.4623      542.0895      570.5518     147.622914       1.10047
  10     361.9      422.4620       31.0003      534.6242      565.6246     143.162598       1.12850
   9     398.1      421.9988       33.6792      526.4204      560.0996     138.100794       1.17929
   8     437.6      421.5643       36.4969      517.3907      553.8876     132.323260       1.23527
   7     480.5      421.1858       39.4512      507.7216      547.1727     125.986880       1.24444
   6     533.0      420.8834       42.9981      495.9006      538.8987     118.015325       1.28237
   5     589.8      420.8569       46.7139      483.0788      529.7928     108.935832       1.34769
   4     651.6      421.4555       50.5846      468.6907      519.2753      97.819807       1.52015
   3     718.7      423.1834       54.6010      453.2257      507.8268      84.643401       1.65591
   2     792.3      427.3994       58.7401      436.4928      495.2329      67.833505       1.92791
   1     891.5       90.8765      147.5615        0.0008      147.5622      56.685696       0.94863
   0    1013.0       91.0682      144.6172        0.0007      144.6179      53.549696       0.21775



 Wavenumbers:  2600. -  3250. cm-1, ATM      1
 LEVEL PRESSURE   UPWARD FLUX   DIFDOWN FLUX  DIRDOWN FLUX  DOWNWARD FLUX   NET FLUX    HEATING RATE
          mb          W/m2          W/m2          W/m2        W/m2          W/m2       degree/day
  51    .06700        1.9935        0.0000        5.4450        5.4450       3.451542       0.00000
  50    .07753        1.9935        0.0000        5.4450        5.4450       3.451534       0.00640
  49    .09103        1.9935        0.0000        5.4450        5.4450       3.451524       0.00627
  48    0.1069        1.9935        0.0000        5.4450        5.4450       3.451513       0.00613
  47    0.1255        1.9935        0.0000        5.4450        5.4450       3.451500       0.00599
  46    0.1487        1.9935        0.0000        5.4450        5.4450       3.451483       0.00608
  45    0.1794        1.9935        0.0000        5.4450        5.4450       3.451460       0.00625
  44    0.2165        1.9935        0.0000        5.4449        5.4449       3.451433       0.00612
  43    0.2613        1.9935        0.0000        5.4449        5.4449       3.451401       0.00600
  42    0.3336        1.9935        0.0000        5.4448        5.4448       3.451349       0.00617
  41    0.4307        1.9935        0.0000        5.4448        5.4448       3.451277       0.00620
  40    0.5894        1.9935        0.0000        5.4446        5.4446       3.451158       0.00637
  39     1.339        1.9935        0.0000        5.4439        5.4439       3.450450       0.00797
  38     1.782        1.9935        0.0000        5.4434        5.4434       3.449907       0.01034
  37     2.292        1.9935        0.0000        5.4427        5.4427       3.449191       0.01186
  36     2.964        1.9935        0.0000        5.4416        5.4416       3.448152       0.01304
  35     3.853        1.9935        0.0000        5.4402        5.4402       3.446675       0.01402
  34     5.035        1.9935        0.0000        5.4381        5.4381       3.444619       0.01469
  33     6.613        1.9935        0.0000        5.4353        5.4353       3.441837       0.01487
  32     8.786        1.9935        0.0000        5.4317        5.4317       3.438204       0.01411
  31     11.80        1.9935        0.0000        5.4269        5.4269       3.433422       0.01339
  30     15.07        1.9935        0.0000        5.4224        5.4224       3.428893       0.01169
  29     18.79        1.9935        0.0000        5.4180        5.4180       3.424476       0.01001
  28     23.16        1.9935        0.0000        5.4135        5.4135       3.419984       0.00869
  27     28.12        1.9935        0.0000        5.4088        5.4088       3.415327       0.00792
  26     33.73        1.9935        0.0000        5.4036        5.4036       3.410074       0.00790
  25     40.54        1.9935        0.0000        5.3966        5.3967       3.403112       0.00864
  24     48.69        1.9936        0.0000        5.3872        5.3872       3.393604       0.00984
  23     57.69        1.9936        0.0000        5.3754        5.3754       3.381777       0.01109
  22     68.43        1.9937        0.0000        5.3599        5.3599       3.366228       0.01222
  21     81.20        1.9938        0.0000        5.3401        5.3401       3.346307       0.01316
  20     96.49        1.9939        0.0000        5.3155        5.3155       3.321616       0.01363
  19     114.6        1.9941        0.0001        5.2853        5.2854       3.291248       0.01418
  18     136.5        1.9944        0.0001        5.2504        5.2505       3.256100       0.01352
  17     162.9        1.9947        0.0001        5.2111        5.2112       3.216409       0.01269
  16     196.4        1.9954        0.0001        5.1640        5.1641       3.168740       0.01200
  15     218.7        1.9960        0.0001        5.1331        5.1332       3.137200       0.01197
  14     243.0        1.9970        0.0001        5.0962        5.0963       3.099280       0.01315
  13     269.0        1.9986        0.0001        5.0511        5.0512       3.052566       0.01515
  12     297.5        2.0011        0.0001        4.9956        4.9957       2.994659       0.01717
  11     328.5        2.0045        0.0001        4.9304        4.9305       2.926032       0.01866
  10     361.9        2.0092        0.0002        4.8511        4.8513       2.842076       0.02124
   9     398.1        2.0157        0.0002        4.7507        4.7509       2.735168       0.02491
   8     437.6        2.0248        0.0002        4.6220        4.6222       2.597459       0.02944
   7     480.5        2.0374        0.0002        4.4625        4.4627       2.425270       0.03382
   6     533.0        2.0581        0.0002        4.2460        4.2462       2.188128       0.03815
   5     589.8        2.0899        0.0002        3.9954        3.9956       1.905669       0.04193
   4     651.6        2.1430        0.0002        3.7089        3.7091       1.566057       0.04644
   3     718.7        2.2320        0.0002        3.4018        3.4020       1.170083       0.04976
   2     792.3        2.3970        0.0002        3.0564        3.0567       0.659699       0.05854
   1     891.5        0.0777        0.4135        0.0000        0.4135       0.335837       0.02756
   0    1013.0        0.0883        0.3521        0.0000        0.3521       0.263807       0.00500



 Wavenumbers:  3250. -  4000. cm-1, ATM      1
 LEVEL PRESSURE   UPWARD FLUX   DIFDOWN FLUX  DIRDOWN FLUX  DOWNWARD FLUX   NET FLUX    HEATING RATE
          mb          W/m2          W/m2          W/m2        W/m2          W/m2       degree/day
  51    .06700        0.0715        0.0000        9.1795        9.1795       9.108035       0.00000
  50    .07753        0.0715        0.0000        9.1747        9.1747       9.103193       3.88148
  49    .09103        0.0715        0.0000        9.1713        9.1713       9.099805       2.11747
  48    0.1069        0.0715        0.0000        9.1688        9.1688       9.097280       1.34402
  47    0.1255        0.0715        0.0000        9.1665        9.1665       9.095021       1.02422
  46    0.1487        0.0715        0.0000        9.1641        9.1641       9.092579       0.88991
  45    0.1794        0.0715        0.0000        9.1612        9.1612       9.089701       0.79008
  44    0.2165        0.0715        0.0000        9.1583        9.1583       9.086781       0.66430
  43    0.2613        0.0715        0.0000        9.1553        9.1553       9.083808       0.56041
  42    0.3336        0.0715        0.0000        9.1511        9.1511       9.079629       0.48723
  41    0.4307        0.0715        0.0000        9.1464        9.1464       9.074861       0.41459
  40    0.5894        0.0715        0.0000        9.1393        9.1394       9.067855       0.37255
  39     1.339        0.0715        0.0000        9.1127        9.1127       9.041241       0.29962
  38     1.782        0.0715        0.0000        9.1011        9.1011       9.029653       0.22062
  37     2.292        0.0715        0.0000        9.0901        9.0901       9.018587       0.18329
  36     2.964        0.0715        0.0000        9.0776        9.0776       9.006157       0.15603
  35     3.853        0.0715        0.0000        9.0629        9.0629       8.991367       0.14036
  34     5.035        0.0715        0.0000        9.0441        9.0441       8.972628       0.13386
  33     6.613        0.0715        0.0000        9.0191        9.0191       8.947626       0.13366
  32     8.786        0.0715        0.0000        8.9843        8.9843       8.912843       0.13509
  31     11.80        0.0715        0.0000        8.9327        8.9327       8.861226       0.14451
  30     15.07        0.0715        0.0000        8.8758        8.8759       8.804381       0.14676
  29     18.79        0.0715        0.0000        8.8110        8.8110       8.739554       0.14698
  28     23.16        0.0715        0.0000        8.7365        8.7366       8.665109       0.14395
  27     28.12        0.0715        0.0000        8.6554        8.6555       8.583996       0.13789
  26     33.73        0.0715        0.0000        8.5719        8.5719       8.500496       0.12554
  25     40.54        0.0714        0.0001        8.4812        8.4812       8.409773       0.11255
  24     48.69        0.0714        0.0001        8.3838        8.3839       8.312471       0.10069
  23     57.69        0.0714        0.0001        8.2861        8.2862       8.214736       0.09161
  22     68.43        0.0714        0.0001        8.1751        8.1751       8.103739       0.08726
  21     81.20        0.0714        0.0001        8.0457        8.0458       7.974381       0.08548
  20     96.49        0.0714        0.0001        7.8949        7.8951       7.823677       0.08318
  19     114.6        0.0714        0.0001        7.7162        7.7163       7.644967       0.08344
  18     136.5        0.0713        0.0002        7.5193        7.5195       7.448122       0.07569
  17     162.9        0.0713        0.0002        7.2913        7.2915       7.220229       0.07284
  16     196.4        0.0713        0.0002        6.9660        6.9662       6.894951       0.08188
  15     218.7        0.0713        0.0002        6.6648        6.6650       6.593750       0.11435
  14     243.0        0.0713        0.0002        6.2619        6.2622       6.190926       0.13971
  13     269.0        0.0713        0.0003        5.7576        5.7579       5.686553       0.16362
  12     297.5        0.0715        0.0003        5.1719        5.1722       5.100707       0.17376
  11     328.5        0.0717        0.0002        4.5757        4.5760       4.504276       0.16217
  10     361.9        0.0721        0.0002        3.9995        3.9998       3.927651       0.14589
   9     398.1        0.0729        0.0002        3.4655        3.4657       3.392858       0.12459
   8     437.6        0.0741        0.0002        2.9740        2.9743       2.900185       0.10534
   7     480.5        0.0760        0.0002        2.5307        2.5309       2.454829       0.08747
   6     533.0        0.0799        0.0002        2.0614        2.0616       1.981707       0.07611
   5     589.8        0.0868        0.0002        1.6150        1.6151       1.528287       0.06730
   4     651.6        0.1015        0.0001        1.1565        1.1566       1.055133       0.06471
   3     718.7        0.1337        0.0001        0.7390        0.7391       0.605413       0.05652
   2     792.3        0.2200        0.0001        0.3985        0.3985       0.178550       0.04896
   1     891.5        0.0000        0.0083        0.0000        0.0083       0.008301       0.01449
   0    1013.0        0.0002        0.0009        0.0000        0.0009       0.000647       0.00053



 Wavenumbers:  4000. -  4650. cm-1, ATM      1
 LEVEL PRESSURE   UPWARD FLUX   DIFDOWN FLUX  DIRDOWN FLUX  DOWNWARD FLUX   NET FLUX    HEATING RATE
          mb          W/m2          W/m2          W/m2        W/m2          W/m2       degree/day
  51    .06700        6.3869        0.0000       10.7795       10.7795       4.392611       0.00000
  50    .07753        6.3869        0.0000       10.7795       10.7795       4.392610       0.00080
  49    .09103        6.3869        0.0000       10.7795       10.7795       4.392609       0.00078
  48    0.1069        6.3869        0.0000       10.7795       10.7795       4.392607       0.00077
  47    0.1255        6.3869        0.0000       10.7795       10.7795       4.392606       0.00075
  46    0.1487        6.3869        0.0000       10.7795       10.7795       4.392603       0.00076
  45    0.1794        6.3869        0.0000       10.7795       10.7795       4.392601       0.00078
  44    0.2165        6.3869        0.0000       10.7795       10.7795       4.392597       0.00076
  43    0.2613        6.3869        0.0000       10.7795       10.7795       4.392593       0.00075
  42    0.3336        6.3869        0.0000       10.7795       10.7795       4.392587       0.00077
  41    0.4307        6.3869        0.0000       10.7795       10.7795       4.392578       0.00078
  40    0.5894        6.3869        0.0000       10.7795       10.7795       4.392563       0.00080
  39     1.339        6.3869        0.0000       10.7794       10.7794       4.392473       0.00101
  38     1.782        6.3869        0.0000       10.7793       10.7793       4.392403       0.00133
  37     2.292        6.3869        0.0000       10.7792       10.7792       4.392309       0.00156
  36     2.964        6.3869        0.0000       10.7791       10.7791       4.392168       0.00177
  35     3.853        6.3869        0.0000       10.7789       10.7789       4.391960       0.00198
  34     5.035        6.3869        0.0000       10.7786       10.7786       4.391652       0.00220
  33     6.613        6.3869        0.0000       10.7781       10.7781       4.391199       0.00242
  32     8.786        6.3869        0.0000       10.7774       10.7775       4.390530       0.00260
  31     11.80        6.3869        0.0001       10.7763       10.7764       4.389478       0.00295
  30     15.07        6.3869        0.0001       10.7751       10.7752       4.388243       0.00319
  29     18.79        6.3869        0.0001       10.7736       10.7737       4.386748       0.00339
  28     23.16        6.3869        0.0001       10.7717       10.7718       4.384891       0.00359
  27     28.12        6.3870        0.0001       10.7695       10.7696       4.382640       0.00383
  26     33.73        6.3870        0.0002       10.7667       10.7668       4.379862       0.00418
  25     40.54        6.3870        0.0002       10.7629       10.7631       4.376089       0.00468
  24     48.69        6.3871        0.0002       10.7579       10.7582       4.371055       0.00521
  23     57.69        6.3872        0.0003       10.7520       10.7523       4.365078       0.00560
  22     68.43        6.3874        0.0003       10.7446       10.7449       4.357573       0.00590
  21     81.20        6.3876        0.0004       10.7355       10.7359       4.348311       0.00612
  20     96.49        6.3879        0.0005       10.7245       10.7249       4.337013       0.00624
  19     114.6        6.3884        0.0006       10.7107       10.7113       4.322846       0.00662
  18     136.5        6.3891        0.0007       10.6942       10.6949       4.305724       0.00658
  17     162.9        6.3902        0.0008       10.6740       10.6748       4.284651       0.00674
  16     196.4        6.3919        0.0010       10.6464       10.6473       4.255433       0.00735
  15     218.7        6.3934        0.0011       10.6255       10.6265       4.233108       0.00848
  14     243.0        6.3956        0.0012       10.5980       10.5992       4.203601       0.01023
  13     269.0        6.3989        0.0013       10.5611       10.5624       4.163495       0.01301
  12     297.5        6.4037        0.0014       10.5119       10.5134       4.109709       0.01595
  11     328.5        6.4102        0.0016       10.4499       10.4515       4.041239       0.01862
  10     361.9        6.4188        0.0017       10.3702       10.3719       3.953105       0.02230
   9     398.1        6.4296        0.0019       10.2678       10.2697       3.840039       0.02634
   8     437.6        6.4435        0.0021       10.1390       10.1411       3.697521       0.03047
   7     480.5        6.4615        0.0022        9.9877        9.9899       3.528484       0.03320
   6     533.0        6.4893        0.0025        9.7937        9.7961       3.306865       0.03565
   5     589.8        6.5299        0.0027        9.5752        9.5778       3.047928       0.03843
   4     651.6        6.5963        0.0029        9.2958        9.2987       2.702350       0.04726
   3     718.7        6.7101        0.0031        8.9267        8.9298       2.219720       0.06065
   2     792.3        6.9300        0.0033        8.4542        8.4575       1.527534       0.07939
   1     891.5        0.3047        1.3776        0.0000        1.3776       1.072877       0.03869
   0    1013.0        0.3219        1.2841        0.0000        1.2842       0.962218       0.00768



 Wavenumbers:  4650. -  5150. cm-1, ATM      1
 LEVEL PRESSURE   UPWARD FLUX   DIFDOWN FLUX  DIRDOWN FLUX  DOWNWARD FLUX   NET FLUX    HEATING RATE
          mb          W/m2          W/m2          W/m2        W/m2          W/m2       degree/day
  51    .06700        4.6220        0.0000       10.2033       10.2033       5.581351       0.00000
  50    .07753        4.6220        0.0000       10.2031       10.2031       5.581115       0.18901
  49    .09103        4.6220        0.0000       10.2028       10.2028       5.580820       0.18428
  48    0.1069        4.6220        0.0000       10.2025       10.2025       5.580483       0.17931
  47    0.1255        4.6220        0.0000       10.2021       10.2021       5.580099       0.17426
  46    0.1487        4.6220        0.0000       10.2016       10.2016       5.579618       0.17536
  45    0.1794        4.6220        0.0000       10.2010       10.2010       5.578967       0.17850
  44    0.2165        4.6220        0.0000       10.2002       10.2002       5.578208       0.17277
  43    0.2613        4.6220        0.0000       10.1993       10.1993       5.577322       0.16690
  42    0.3336        4.6220        0.0000       10.1979       10.1979       5.575890       0.16702
  41    0.4307        4.6220        0.0000       10.1960       10.1960       5.574049       0.16002
  40    0.5894        4.6220        0.0000       10.1932       10.1932       5.571176       0.15283
  39     1.339        4.6220        0.0000       10.1816       10.1816       5.559583       0.13051
  38     1.782        4.6220        0.0000       10.1760       10.1760       5.554054       0.10527
  37     2.292        4.6220        0.0000       10.1706       10.1706       5.548597       0.09039
  36     2.964        4.6220        0.0000       10.1646       10.1647       5.542672       0.07437
  35     3.853        4.6220        0.0000       10.1584       10.1584       5.536456       0.05900
  34     5.035        4.6220        0.0000       10.1521       10.1521       5.530116       0.04529
  33     6.613        4.6220        0.0000       10.1456       10.1456       5.523652       0.03456
  32     8.786        4.6220        0.0001       10.1386       10.1386       5.516630       0.02727
  31     11.80        4.6220        0.0001       10.1295       10.1296       5.507568       0.02537
  30     15.07        4.6221        0.0001       10.1196       10.1197       5.497659       0.02558
  29     18.79        4.6221        0.0001       10.1076       10.1077       5.485609       0.02732
  28     23.16        4.6222        0.0002       10.0923       10.0924       5.470245       0.02971
  27     28.12        4.6223        0.0002       10.0731       10.0733       5.451069       0.03260
  26     33.73        4.6224        0.0002       10.0500       10.0503       5.427865       0.03489
  25     40.54        4.6226        0.0003       10.0201       10.0204       5.397805       0.03729
  24     48.69        4.6229        0.0003        9.9820        9.9823       5.359412       0.03973
  23     57.69        4.6233        0.0004        9.9384        9.9388       5.315588       0.04108
  22     68.43        4.6238        0.0005        9.8858        9.8862       5.262461       0.04176
  21     81.20        4.6245        0.0006        9.8234        9.8240       5.199523       0.04159
  20     96.49        4.6255        0.0007        9.7518        9.7524       5.126950       0.04006
  19     114.6        4.6269        0.0008        9.6719        9.6727       5.045859       0.03786
  18     136.5        4.6288        0.0009        9.5858        9.5867       4.957987       0.03379
  17     162.9        4.6314        0.0011        9.4940        9.4952       4.863766       0.03012
  16     196.4        4.6354        0.0013        9.3883        9.3896       4.754170       0.02759
  15     218.7        4.6386        0.0015        9.3229        9.3244       4.685771       0.02597
  14     243.0        4.6427        0.0016        9.2520        9.2536       4.610871       0.02598
  13     269.0        4.6482        0.0018        9.1717        9.1734       4.525213       0.02779
  12     297.5        4.6559        0.0020        9.0763        9.0782       4.422339       0.03051
  11     328.5        4.6659        0.0021        8.9650        8.9671       4.301230       0.03293
  10     361.9        4.6788        0.0023        8.8349        8.8373       4.158493       0.03611
   9     398.1        4.6955        0.0025        8.6820        8.6846       3.989055       0.03948
   8     437.6        4.7173        0.0027        8.5028        8.5055       3.788254       0.04293
   7     480.5        4.7457        0.0030        8.2948        8.2978       3.552077       0.04638
   6     533.0        4.7891        0.0032        8.0209        8.0241       3.234953       0.05102
   5     589.8        4.8498        0.0034        7.7063        7.7098       2.860015       0.05565
   4     651.6        4.9400        0.0037        7.3412        7.3449       2.404945       0.06223
   3     718.7        5.0776        0.0039        6.9387        6.9426       1.864954       0.06786
   2     792.3        5.3009        0.0041        6.5066        6.5107       1.209769       0.07514
   1     891.5        0.2204        1.0246        0.0000        1.0246       0.804243       0.03451
   0    1013.0        0.2361        0.9417        0.0000        0.9417       0.705638       0.00685



 Wavenumbers:  5150. -  6150. cm-1, ATM      1
 LEVEL PRESSURE   UPWARD FLUX   DIFDOWN FLUX  DIRDOWN FLUX  DOWNWARD FLUX   NET FLUX    HEATING RATE
          mb          W/m2          W/m2          W/m2        W/m2          W/m2       degree/day
  51    .06700       10.9163        0.0000       25.5798       25.5798      14.663562       0.00000
  50    .07753       10.9163        0.0000       25.5798       25.5798      14.663522       0.03162
  49    .09103       10.9163        0.0000       25.5797       25.5797      14.663471       0.03211
  48    0.1069       10.9163        0.0000       25.5797       25.5797      14.663410       0.03262
  47    0.1255       10.9163        0.0000       25.5796       25.5796      14.663337       0.03312
  46    0.1487       10.9163        0.0000       25.5795       25.5795      14.663241       0.03489
  45    0.1794       10.9163        0.0000       25.5794       25.5794      14.663106       0.03713
  44    0.2165       10.9163        0.0000       25.5792       25.5792      14.662940       0.03770
  43    0.2613       10.9163        0.0000       25.5790       25.5790      14.662737       0.03827
  42    0.3336       10.9163        0.0000       25.5786       25.5786      14.662390       0.04044
  41    0.4307       10.9163        0.0000       25.5782       25.5782      14.661919       0.04098
  40    0.5894       10.9163        0.0000       25.5774       25.5774      14.661129       0.04199
  39     1.339       10.9162        0.0000       25.5735       25.5736      14.657325       0.04283
  38     1.782       10.9162        0.0001       25.5713       25.5714      14.655109       0.04218
  37     2.292       10.9162        0.0001       25.5688       25.5688      14.652601       0.04154
  36     2.964       10.9162        0.0001       25.5656       25.5657      14.649413       0.04001
  35     3.853       10.9163        0.0001       25.5615       25.5616      14.645361       0.03846
  34     5.035       10.9163        0.0002       25.5562       25.5564      14.640141       0.03729
  33     6.613       10.9163        0.0002       25.5494       25.5496      14.633367       0.03621
  32     8.786       10.9163        0.0003       25.5406       25.5409      14.624585       0.03411
  31     11.80       10.9163        0.0004       25.5287       25.5290      14.612702       0.03327
  30     15.07       10.9164        0.0005       25.5167       25.5172      14.600778       0.03079
  29     18.79       10.9165        0.0006       25.5042       25.5048      14.588303       0.02828
  28     23.16       10.9166        0.0007       25.4907       25.4914      14.574854       0.02601
  27     28.12       10.9167        0.0009       25.4764       25.4773      14.560659       0.02413
  26     33.73       10.9168        0.0011       25.4620       25.4631      14.546251       0.02166
  25     40.54       10.9171        0.0013       25.4463       25.4475      14.530461       0.01959
  24     48.69       10.9174        0.0016       25.4294       25.4309      14.513504       0.01755
  23     57.69       10.9178        0.0018       25.4126       25.4144      14.496619       0.01583
  22     68.43       10.9184        0.0022       25.3944       25.3966      14.478233       0.01445
  21     81.20       10.9191        0.0026       25.3744       25.3770      14.457947       0.01340
  20     96.49       10.9199        0.0031       25.3519       25.3550      14.435098       0.01261
  19     114.6       10.9210        0.0036       25.3262       25.3298      14.408848       0.01226
  18     136.5       10.9223        0.0043       25.2962       25.3005      14.378252       0.01177
  17     162.9       10.9239        0.0051       25.2521       25.2572      14.333347       0.01435
  16     196.4       10.9261        0.0062       25.1593       25.1655      14.239352       0.02366
  15     218.7       10.9277        0.0069       25.0159       25.0228      14.095043       0.05479
  14     243.0       10.9297        0.0076       24.7089       24.7165      13.786728       0.10693
  13     269.0       10.9323        0.0082       24.1619       24.1701      13.237789       0.17807
  12     297.5       10.9358        0.0089       23.4544       23.4633      12.527507       0.21066
  11     328.5       10.9404        0.0096       22.7355       22.7451      11.804713       0.19653
  10     361.9       10.9464        0.0103       21.9224       21.9327      10.986312       0.20706
   9     398.1       10.9546        0.0110       20.9939       21.0049      10.050306       0.21807
   8     437.6       10.9660        0.0117       19.9833       19.9950       9.028981       0.21837
   7     480.5       10.9819        0.0123       18.9483       18.9606       7.978752       0.20626
   6     533.0       11.0088        0.0131       17.7796       17.7926       6.783797       0.19223
   5     589.8       11.0528        0.0138       16.6726       16.6864       5.633603       0.17073
   4     651.6       11.1336        0.0146       15.6343       15.6489       4.515311       0.15293
   3     718.7       11.2827        0.0154       14.7738       14.7892       3.506528       0.12678
   2     792.3       11.5849        0.0163       14.0291       14.0454       2.460507       0.11997
   1     891.5        0.5416        2.3578        0.0000        2.3578       1.816221       0.05483
   0    1013.0        0.5603        2.2350        0.0000        2.2350       1.674709       0.00983



 Wavenumbers:  6150. -  7700. cm-1, ATM      1
 LEVEL PRESSURE   UPWARD FLUX   DIFDOWN FLUX  DIRDOWN FLUX  DOWNWARD FLUX   NET FLUX    HEATING RATE
          mb          W/m2          W/m2          W/m2        W/m2          W/m2       degree/day
  51    .06700       17.5775        0.0000       47.3109       47.3109      29.733334       0.00000
  50    .07753       17.5775        0.0000       47.3108       47.3108      29.733277       0.04553
  49    .09103       17.5775        0.0000       47.3107       47.3107      29.733204       0.04583
  48    0.1069       17.5775        0.0000       47.3106       47.3106      29.733117       0.04614
  47    0.1255       17.5775        0.0000       47.3105       47.3105      29.733015       0.04645
  46    0.1487       17.5775        0.0000       47.3104       47.3104      29.732881       0.04852
  45    0.1794       17.5775        0.0000       47.3102       47.3102      29.732695       0.05127
  44    0.2165       17.5775        0.0000       47.3100       47.3100      29.732468       0.05167
  43    0.2613       17.5775        0.0000       47.3097       47.3097      29.732191       0.05210
  42    0.3336       17.5775        0.0000       47.3092       47.3092      29.731722       0.05471
  41    0.4307       17.5775        0.0000       47.3085       47.3086      29.731087       0.05521
  40    0.5894       17.5775        0.0001       47.3074       47.3075      29.730028       0.05633
  39     1.339       17.5774        0.0002       47.3022       47.3024      29.724935       0.05733
  38     1.782       17.5774        0.0002       47.2991       47.2994      29.721965       0.05655
  37     2.292       17.5774        0.0003       47.2956       47.2959      29.718589       0.05591
  36     2.964       17.5773        0.0004       47.2912       47.2916      29.714271       0.05421
  35     3.853       17.5772        0.0005       47.2855       47.2860      29.708737       0.05252
  34     5.035       17.5771        0.0007       47.2780       47.2787      29.701556       0.05130
  33     6.613       17.5770        0.0009       47.2683       47.2692      29.692168       0.05019
  32     8.786       17.5769        0.0011       47.2556       47.2567      29.679868       0.04777
  31     11.80       17.5766        0.0015       47.2380       47.2396      29.662964       0.04733
  30     15.07       17.5764        0.0020       47.2201       47.2220      29.645676       0.04464
  29     18.79       17.5761        0.0025       47.2008       47.2033      29.627195       0.04190
  28     23.16       17.5757        0.0030       47.1795       47.1825      29.606804       0.03943
  27     28.12       17.5754        0.0037       47.1565       47.1602      29.584808       0.03739
  26     33.73       17.5749        0.0044       47.1324       47.1368      29.561884       0.03447
  25     40.54       17.5744        0.0053       47.1054       47.1107      29.536244       0.03181
  24     48.69       17.5738        0.0064       47.0754       47.0818      29.507987       0.02924
  23     57.69       17.5731        0.0075       47.0449       47.0525      29.479359       0.02683
  22     68.43       17.5723        0.0089       47.0110       47.0199      29.447615       0.02496
  21     81.20       17.5714        0.0106       46.9729       46.9835      29.412111       0.02346
  20     96.49       17.5702        0.0126       46.9294       46.9420      29.371757       0.02227
  19     114.6       17.5689        0.0149       46.8790       46.8940      29.325104       0.02178
  18     136.5       17.5673        0.0178       46.8200       46.8377      29.270452       0.02101
  17     162.9       17.5654        0.0211       46.7361       46.7572      29.191779       0.02515
  16     196.4       17.5632        0.0254       46.5703       46.5956      29.032450       0.04010
  15     218.7       17.5619        0.0282       46.3473       46.3755      28.813525       0.08312
  14     243.0       17.5610        0.0311       45.9299       45.9609      28.399955       0.14344
  13     269.0       17.5609        0.0340       45.1708       45.2048      27.643941       0.24525
  12     297.5       17.5624        0.0369       44.0115       44.0484      26.485981       0.34344
  11     328.5       17.5662        0.0398       42.7242       42.7641      25.197905       0.35022
  10     361.9       17.5733        0.0428       41.3539       41.3968      23.823452       0.34775
   9     398.1       17.5858        0.0458       39.7953       39.8410      22.255274       0.36535
   8     437.6       17.6068        0.0486       37.9948       38.0433      20.436526       0.38886
   7     480.5       17.6404        0.0512       36.0647       36.1159      18.475501       0.38514
   6     533.0       17.7038        0.0541       33.7773       33.8314      16.127651       0.37769
   5     589.8       17.8143        0.0568       31.4082       31.4650      13.650648       0.36767
   4     651.6       18.0284        0.0590       28.8834       28.9424      10.913970       0.37425
   3     718.7       18.4407        0.0609       26.4104       26.4713       8.030560       0.36236
   2     792.3       19.3310        0.0625       24.0056       24.0681       4.737181       0.37771
   1     891.5        0.7971        3.6867        0.0000        3.6867       2.889597       0.15722
   0    1013.0        0.8463        3.3757        0.0000        3.3757       2.529427       0.02501



 Wavenumbers:  7700. -  8050. cm-1, ATM      1
 LEVEL PRESSURE   UPWARD FLUX   DIFDOWN FLUX  DIRDOWN FLUX  DOWNWARD FLUX   NET FLUX    HEATING RATE
          mb          W/m2          W/m2          W/m2        W/m2          W/m2       degree/day
  51    .06700        7.9930        0.0000       11.1810       11.1810       3.187965       0.00000
  50    .07753        7.9930        0.0000       11.1809       11.1809       3.187942       0.01878
  49    .09103        7.9930        0.0000       11.1809       11.1809       3.187912       0.01841
  48    0.1069        7.9930        0.0000       11.1809       11.1809       3.187879       0.01802
  47    0.1255        7.9930        0.0000       11.1809       11.1809       3.187840       0.01764
  46    0.1487        7.9930        0.0000       11.1808       11.1808       3.187791       0.01790
  45    0.1794        7.9931        0.0000       11.1808       11.1808       3.187724       0.01842
  44    0.2165        7.9931        0.0000       11.1807       11.1807       3.187644       0.01807
  43    0.2613        7.9931        0.0000       11.1806       11.1806       3.187550       0.01773
  42    0.3336        7.9931        0.0000       11.1805       11.1805       3.187395       0.01814
  41    0.4307        7.9932        0.0000       11.1803       11.1804       3.187188       0.01794
  40    0.5894        7.9933        0.0000       11.1801       11.1801       3.186851       0.01792
  39     1.339        7.9936        0.0001       11.1788       11.1789       3.185257       0.01795
  38     1.782        7.9939        0.0001       11.1781       11.1782       3.184320       0.01783
  37     2.292        7.9941        0.0001       11.1772       11.1773       3.183236       0.01796
  36     2.964        7.9944        0.0002       11.1761       11.1763       3.181812       0.01787
  35     3.853        7.9949        0.0002       11.1746       11.1748       3.179931       0.01785
  34     5.035        7.9955        0.0003       11.1726       11.1729       3.177433       0.01785
  33     6.613        7.9963        0.0004       11.1700       11.1704       3.174096       0.01784
  32     8.786        7.9973        0.0005       11.1664       11.1669       3.169599       0.01746
  31     11.80        7.9988        0.0007       11.1613       11.1620       3.163169       0.01800
  30     15.07        8.0005        0.0009       11.1558       11.1567       3.156269       0.01781
  29     18.79        8.0023        0.0011       11.1497       11.1508       3.148480       0.01766
  28     23.16        8.0045        0.0014       11.1425       11.1439       3.139391       0.01758
  27     28.12        8.0070        0.0017       11.1343       11.1360       3.129009       0.01765
  26     33.73        8.0098        0.0020       11.1252       11.1272       3.117407       0.01744
  25     40.54        8.0132        0.0024       11.1142       11.1166       3.103416       0.01736
  24     48.69        8.0173        0.0029       11.1010       11.1039       3.086586       0.01742
  23     57.69        8.0219        0.0035       11.0866       11.0901       3.068149       0.01728
  22     68.43        8.0274        0.0041       11.0695       11.0736       3.046259       0.01721
  21     81.20        8.0339        0.0049       11.0494       11.0542       3.020279       0.01717
  20     96.49        8.0418        0.0058       11.0255       11.0313       2.989461       0.01701
  19     114.6        8.0513        0.0068       10.9975       11.0044       2.953063       0.01699
  18     136.5        8.0627        0.0081       10.9648       10.9729       2.910187       0.01649
  17     162.9        8.0764        0.0096       10.9263       10.9359       2.859479       0.01621
  16     196.4        8.0946        0.0116       10.8773       10.8889       2.794244       0.01642
  15     218.7        8.1068        0.0129       10.8455       10.8584       2.751666       0.01617
  14     243.0        8.1202        0.0143       10.8114       10.8257       2.705553       0.01599
  13     269.0        8.1350        0.0158       10.7749       10.7907       2.655686       0.01618
  12     297.5        8.1514        0.0174       10.7357       10.7531       2.601773       0.01599
  11     328.5        8.1695        0.0192       10.6937       10.7129       2.543418       0.01587
  10     361.9        8.1896        0.0211       10.6489       10.6700       2.480310       0.01597
   9     398.1        8.2121        0.0231       10.6008       10.6239       2.411827       0.01596
   8     437.6        8.2372        0.0253       10.5491       10.5744       2.337191       0.01596
   7     480.5        8.2655        0.0277       10.4934       10.5211       2.255666       0.01601
   6     533.0        8.3023        0.0306       10.4243       10.4549       2.152558       0.01659
   5     589.8        8.3453        0.0337       10.3479       10.3816       2.036287       0.01726
   4     651.6        8.3970        0.0370       10.2613       10.2984       1.901414       0.01844
   3     718.7        8.4604        0.0406       10.1618       10.2023       1.741954       0.02004
   2     792.3        8.5412        0.0443       10.0439       10.0882       1.546989       0.02236
   1     891.5        0.4450        1.8513        0.0000        1.8513       1.406371       0.01197
   0    1013.0        0.4540        1.8110        0.0000        1.8110       1.357020       0.00343



 Wavenumbers:  8050. - 12850. cm-1, ATM      1
 LEVEL PRESSURE   UPWARD FLUX   DIFDOWN FLUX  DIRDOWN FLUX  DOWNWARD FLUX   NET FLUX    HEATING RATE
          mb          W/m2          W/m2          W/m2        W/m2          W/m2       degree/day
  51    .06700      104.6329        0.0000      156.5418      156.5418      51.908854       0.00000
  50    .07753      104.6329        0.0000      156.5417      156.5417      51.908854       0.00000
  49    .09103      104.6329        0.0001      156.5417      156.5417      51.908854      -0.00000
  48    0.1069      104.6329        0.0001      156.5416      156.5417      51.908854       0.00000
  47    0.1255      104.6328        0.0002      156.5415      156.5417      51.908854      -0.00000
  46    0.1487      104.6328        0.0002      156.5414      156.5417      51.908854      -0.00000
  45    0.1794      104.6328        0.0003      156.5413      156.5416      51.908854       0.00000
  44    0.2165      104.6327        0.0004      156.5412      156.5416      51.908854      -0.00000
  43    0.2613      104.6327        0.0006      156.5410      156.5416      51.908854       0.00000
  42    0.3336      104.6326        0.0008      156.5407      156.5415      51.908854      -0.00000
  41    0.4307      104.6325        0.0011      156.5403      156.5414      51.908854       0.00000
  40    0.5894      104.6324        0.0015      156.5397      156.5412      51.908854       0.00000
  39     1.339      104.6316        0.0037      156.5367      156.5404      51.908854       0.00000
  38     1.782      104.6311        0.0050      156.5350      156.5400      51.908854      -0.00000
  37     2.292      104.6306        0.0065      156.5330      156.5395      51.908854       0.00000
  36     2.964      104.6299        0.0085      156.5303      156.5388      51.908854       0.00000
  35     3.853      104.6290        0.0110      156.5268      156.5379      51.908854       0.00000
  34     5.035      104.6278        0.0145      156.5222      156.5367      51.908854      -0.00000
  33     6.613      104.6262        0.0191      156.5160      156.5351      51.908854      -0.00000
  32     8.786      104.6240        0.0253      156.5076      156.5329      51.908854      -0.00000
  31     11.80      104.6209        0.0341      156.4957      156.5298      51.908854       0.00000
  30     15.07      104.6176        0.0437      156.4828      156.5264      51.908854       0.00000
  29     18.79      104.6138        0.0544      156.4682      156.5227      51.908854      -0.00000
  28     23.16      104.6094        0.0670      156.4512      156.5182      51.908854       0.00000
  27     28.12      104.6043        0.0815      156.4317      156.5132      51.908854       0.00000
  26     33.73      104.5987        0.0977      156.4099      156.5075      51.908854       0.00000
  25     40.54      104.5918        0.1172      156.3834      156.5007      51.908854       0.00000
  24     48.69      104.5835        0.1408      156.3515      156.4924      51.908854      -0.00000
  23     57.69      104.5744        0.1668      156.3164      156.4833      51.908854       0.00000
  22     68.43      104.5635        0.1978      156.2746      156.4724      51.908854       0.00000
  21     81.20      104.5505        0.2348      156.2246      156.4594      51.908854       0.00000
  20     96.49      104.5350        0.2790      156.1649      156.4439      51.908854      -0.00000
  19     114.6      104.5169        0.3315      156.0879      156.4194      51.902578       0.00293
  18     136.5      104.4952        0.3939      155.9962      156.3900      51.894795       0.00299
  17     162.9      104.4695        0.4683      155.8831      156.3514      51.881894       0.00412
  16     196.4      104.4362        0.5652      155.7199      156.2851      51.848883       0.00831
  15     218.7      104.4148        0.6288      155.5733      156.2021      51.787332       0.02337
  14     243.0      104.3928        0.6980      155.3367      156.0347      51.641945       0.05043
  13     269.0      104.3719        0.7729      154.9514      155.7243      51.352427       0.09392
  12     297.5      104.3551        0.8535      154.3896      155.2431      50.888000       0.13774
  11     328.5      104.3444        0.9405      153.7151      154.6556      50.311137       0.15685
  10     361.9      104.3438        1.0337      152.9087      153.9425      49.598740       0.18024
   9     398.1      104.3599        1.1336      151.8986      153.0322      48.672283       0.21584
   8     437.6      104.4044        1.2397      150.6031      151.8429      47.438501       0.26379
   7     480.5      104.4913        1.3520      149.0014      150.3534      45.862071       0.30960
   6     533.0      104.6730        1.4878      146.7375      148.2254      43.552388       0.37155
   5     589.8      105.0082        1.6301      143.8730      145.5030      40.494874       0.45384
   4     651.6      105.6696        1.7759      140.0955      141.8714      36.201779       0.58709
   3     718.7      106.9174        1.9236      135.5278      137.4514      30.534010       0.71228
   2     792.3      109.4195        2.0694      130.0690      132.1384      22.718948       0.89630
   1     891.5        5.1591       22.5003        0.0002       22.5006      17.341491       0.45760
   0    1013.0        5.3485       21.3342        0.0002       21.3344      15.985860       0.09413



 Wavenumbers: 12850. - 16000. cm-1, ATM      1
 LEVEL PRESSURE   UPWARD FLUX   DIFDOWN FLUX  DIRDOWN FLUX  DOWNWARD FLUX   NET FLUX    HEATING RATE
          mb          W/m2          W/m2          W/m2        W/m2          W/m2       degree/day
  51    .06700       74.9654        0.0000       98.0872       98.0872      23.121874       0.00000
  50    .07753       74.9654        0.0001       98.0864       98.0864      23.121083       0.63454
  49    .09103       74.9654        0.0002       98.0853       98.0854      23.120088       0.62147
  48    0.1069       74.9654        0.0003       98.0841       98.0843      23.118946       0.60815
  47    0.1255       74.9654        0.0004       98.0826       98.0830      23.117633       0.59513
  46    0.1487       74.9654        0.0005       98.0809       98.0814      23.115976       0.60393
  45    0.1794       74.9654        0.0007       98.0784       98.0792      23.113722       0.61878
  44    0.2165       74.9655        0.0010       98.0756       98.0766      23.111071       0.60320
  43    0.2613       74.9656        0.0012       98.0723       98.0736      23.107952       0.58784
  42    0.3336       74.9658        0.0017       98.0670       98.0687      23.102862       0.59350
  41    0.4307       74.9662        0.0023       98.0602       98.0625      23.096278       0.57243
  40    0.5894       74.9670        0.0033       98.0496       98.0529      23.085902       0.55177
  39     1.339       74.9735        0.0080       98.0043       98.0124      23.038865       0.52955
  38     1.782       74.9795        0.0108       97.9793       97.9901      23.010613       0.53787
  37     2.292       74.9884        0.0140       97.9498       97.9638      22.975417       0.58295
  36     2.964       75.0032        0.0183       97.9088       97.9271      22.923925       0.64637
  35     3.853       75.0269        0.0238       97.8503       97.8742      22.847234       0.72781
  34     5.035       75.0628        0.0312       97.7680       97.7992      22.736452       0.79138
  33     6.613       75.1128        0.0411       97.6562       97.6973      22.584501       0.81233
  32     8.786       75.1780        0.0544       97.5107       97.5651      22.387146       0.76645
  31     11.80       75.2628        0.0735       97.3179       97.3913      22.128536       0.72403
  30     15.07       75.3441        0.0939       97.1283       97.2222      21.878115       0.64654
  29     18.79       75.4271        0.1169       96.9300       97.0469      21.619793       0.58570
  28     23.16       75.5140        0.1438       96.7166       96.8603      21.346356       0.52874
  27     28.12       75.6015        0.1745       96.4935       96.6680      21.066500       0.47574
  26     33.73       75.6824        0.2089       96.2731       96.4819      20.799508       0.40143
  25     40.54       75.7607        0.2504       96.0408       96.2912      20.530509       0.33372
  24     48.69       75.8359        0.3004       95.7946       96.0950      20.259114       0.28085
  23     57.69       75.9002        0.3555       95.5573       95.9127      20.012555       0.23111
  22     68.43       75.9568        0.4210       95.3106       95.7316      19.774792       0.18691
  21     81.20       75.9970        0.4992       95.0643       95.5635      19.566515       0.13763
  20     96.49       76.0198        0.5925       94.8153       95.4078      19.388012       0.09852
  19     114.6       76.0440        0.7042       94.5411       95.2453      19.201296       0.08718
  18     136.5       76.0622        0.8366       94.2320       95.0686      19.006453       0.07492
  17     162.9       76.0744        0.9942       93.8753       94.8696      18.795132       0.06755
  16     196.4       76.0701        1.1987       93.4347       94.6333      18.563292       0.05836
  15     218.7       76.0601        1.3329       93.1513       94.4842      18.424081       0.05285
  14     243.0       76.0466        1.4788       92.8439       94.3228      18.276139       0.05131
  13     269.0       76.0297        1.6369       92.5111       94.1480      18.118324       0.05119
  12     297.5       76.0102        1.8077       92.1495       93.9572      17.946968       0.05082
  11     328.5       75.9903        1.9922       91.7554       93.7476      17.757310       0.05157
  10     361.9       75.9712        2.1908       91.3262       93.5170      17.545760       0.05352
   9     398.1       75.9550        2.4044       90.8575       93.2619      17.306902       0.05565
   8     437.6       75.9455        2.6336       90.3418       92.9754      17.029913       0.05922
   7     480.5       75.9464        2.8789       89.7728       92.6517      16.705296       0.06375
   6     533.0       75.9689        3.1804       89.0428       92.2233      16.254325       0.07255
   5     589.8       76.0320        3.5041       88.2038       91.7079      15.675937       0.08585
   4     651.6       76.1780        3.8494       87.1979       91.0473      14.869322       0.11031
   3     718.7       76.4413        4.2149       86.0161       90.2311      13.789800       0.13567
   2     792.3       76.9221        4.5969       84.5970       89.1940      12.271854       0.17409
   1     891.5       12.2188       23.2677        0.0001       23.2678      11.049044       0.10406
   0    1013.0       12.3697       22.8306        0.0001       22.8308      10.461048       0.04083



 Wavenumbers: 16000. - 22650. cm-1, ATM      1
 LEVEL PRESSURE   UPWARD FLUX   DIFDOWN FLUX  DIRDOWN FLUX  DOWNWARD FLUX   NET FLUX    HEATING RATE
          mb          W/m2          W/m2          W/m2        W/m2          W/m2       degree/day
  51    .06700      129.6910        0.0000      156.3892      156.3892      26.698269       0.00000
  50    .07753      129.6909        0.0004      156.3887      156.3891      26.698126       0.11436
  49    .09103      129.6909        0.0009      156.3879      156.3888      26.697918       0.12971
  48    0.1069      129.6909        0.0014      156.3871      156.3885      26.697641       0.14791
  47    0.1255      129.6908        0.0021      156.3861      156.3881      26.697269       0.16860
  46    0.1487      129.6909        0.0029      156.3847      156.3876      26.696721       0.19979
  45    0.1794      129.6909        0.0040      156.3828      156.3868      26.695864       0.23523
  44    0.2165      129.6911        0.0053      156.3805      156.3858      26.694701       0.26437
  43    0.2613      129.6913        0.0068      156.3776      156.3844      26.693125       0.29722
  42    0.3336      129.6919        0.0094      156.3726      156.3820      26.690127       0.34953
  41    0.4307      129.6928        0.0127      156.3657      156.3785      26.685608       0.39291
  40    0.5894      129.6950        0.0183      156.3537      156.3719      26.676990       0.45831
  39     1.339      129.7145        0.0444      156.2834      156.3278      26.613318       0.71683
  38     1.782      129.7330        0.0598      156.2324      156.2921      26.559078       1.03264
  37     2.292      129.7611        0.0775      156.1641      156.2416      26.480567       1.30035
  36     2.964      129.8079        0.1008      156.0605      156.1613      26.353381       1.59657
  35     3.853      129.8841        0.1316      155.9041      156.0357      26.151576       1.91517
  34     5.035      129.9993        0.1725      155.6774      155.8498      25.850517       2.15064
  33     6.613      130.1604        0.2270      155.3656      155.5926      25.432166       2.23650
  32     8.786      130.3701        0.3003      154.9577      155.2580      24.887859       2.11389
  31     11.80      130.6426        0.4051      154.4153      154.8203      24.177782       1.98799
  30     15.07      130.9029        0.5174      153.8804      154.3978      23.494824       1.76326
  29     18.79      131.1681        0.6440      153.3191      153.9631      22.794973       1.58678
  28     23.16      131.4445        0.7917      152.7126      153.5043      22.059740       1.42170
  27     28.12      131.7216        0.9604      152.0755      153.0358      21.314231       1.26732
  26     33.73      131.9757        1.1489      151.4409      152.5898      20.614106       1.05266
  25     40.54      132.2178        1.3764      150.7637      152.1400      19.922261       0.85831
  24     48.69      132.4467        1.6503      150.0338      151.6841      19.237460       0.70866
  23     57.69      132.6372        1.9508      149.3151      151.2660      18.628723       0.57060
  22     68.43      132.7985        2.3083      148.5476      150.8559      18.057392       0.44914
  21     81.20      132.9006        2.7338      147.7517      150.4855      17.584861       0.31224
  20     96.49      132.9388        3.2402      146.9127      150.1529      17.214114       0.20463
  19     114.6      132.9409        3.8397      145.9763      149.8160      16.875052       0.15832
  18     136.5      132.9145        4.5473      144.9088      149.4561      16.541576       0.12823
  17     162.9      132.8568        5.3858      143.6785      149.0644      16.207613       0.10675
  16     196.4      132.7250        6.4673      142.1651      148.6324      15.907333       0.07558
  15     218.7      132.6177        7.1738      141.2033      148.3772      15.759431       0.05615
  14     243.0      132.4915        7.9383      140.1753      148.1136      15.622066       0.04764
  13     269.0      132.3449        8.7627      139.0797      147.8424      15.497527       0.04040
  12     297.5      132.1770        9.6491      137.9141      147.5632      15.386136       0.03304
  11     328.5      131.9914       10.6015      136.6676      147.2691      15.277638       0.02950
  10     361.9      131.7877       11.6206      135.3392      146.9598      15.172133       0.02669
   9     398.1      131.5652       12.7104      133.9235      146.6339      15.068700       0.02410
   8     437.6      131.3246       13.8726      132.4163      146.2889      14.964219       0.02234
   7     480.5      131.0656       15.1092      130.8147      145.9239      14.858314       0.02080
   6     533.0      130.7471       16.6186      128.8599      145.4786      14.731497       0.02040
   5     589.8      130.4080       18.2302      126.7679      144.9982      14.590239       0.02097
   4     651.6      130.0547       19.9453      124.5274      144.4727      14.418080       0.02354
   3     718.7      129.6934       21.7651      122.1285      143.8936      14.200169       0.02739
   2     792.3      129.3413       23.6872      119.5548      143.2420      13.900743       0.03434
   1     891.5       48.5697       62.1554        0.0002       62.1556      13.585945       0.02679
   0    1013.0       48.5280       61.8425        0.0002       61.8427      13.314736       0.01883



 Wavenumbers: 22650. - 29000. cm-1, ATM      1
 LEVEL PRESSURE   UPWARD FLUX   DIFDOWN FLUX  DIRDOWN FLUX  DOWNWARD FLUX   NET FLUX    HEATING RATE
          mb          W/m2          W/m2          W/m2        W/m2          W/m2       degree/day
  51    .06700       53.7570        0.0000       59.0156       59.0156       5.258656       0.00000
  50    .07753       53.7568        0.0004       59.0151       59.0155       5.258656      -0.00000
  49    .09103       53.7567        0.0010       59.0144       59.0154       5.258656       0.00000
  48    0.1069       53.7566        0.0017       59.0136       59.0152       5.258656      -0.00000
  47    0.1255       53.7564        0.0024       59.0127       59.0150       5.258656       0.00000
  46    0.1487       53.7562        0.0033       59.0115       59.0148       5.258656      -0.00000
  45    0.1794       53.7559        0.0046       59.0099       59.0145       5.258656      -0.00000
  44    0.2165       53.7555        0.0061       59.0080       59.0142       5.258656       0.00000
  43    0.2613       53.7551        0.0079       59.0058       59.0138       5.258656      -0.00000
  42    0.3336       53.7544        0.0109       59.0022       59.0131       5.258656       0.00000
  41    0.4307       53.7535        0.0148       58.9973       59.0121       5.258656      -0.00000
  40    0.5894       53.7520        0.0213       58.9894       59.0106       5.258656       0.00000
  39     1.339       53.7448        0.0517       58.9518       59.0035       5.258656      -0.00000
  38     1.782       53.7407        0.0696       58.9297       58.9993       5.258656       0.00000
  37     2.292       53.7358        0.0903       58.9042       58.9945       5.258656       0.00000
  36     2.964       53.7294        0.1175       58.8706       58.9881       5.258656      -0.00000
  35     3.853       53.7210        0.1533       58.8264       58.9797       5.258656      -0.00000
  34     5.035       53.7099        0.2009       58.7676       58.9685       5.258656       0.00000
  33     6.613       53.6950        0.2645       58.6891       58.9536       5.258656      -0.00000
  32     8.786       53.6749        0.3501       58.5834       58.9335       5.258656       0.00000
  31     11.80       53.6462        0.4724       58.4324       58.9048       5.258656      -0.00000
  30     15.07       53.6154        0.6034       58.2706       58.8741       5.258656       0.00000
  29     18.79       53.5807        0.7511       58.0882       58.8394       5.258656       0.00000
  28     23.16       53.5403        0.9232       57.8757       58.7989       5.258656       0.00000
  27     28.12       53.4941        1.1194       57.6333       58.7528       5.258656      -0.00000
  26     33.73       53.4426        1.3382       57.3631       58.7012       5.258656      -0.00000
  25     40.54       53.3805        1.6013       57.0379       58.6392       5.258656       0.00000
  24     48.69       53.3060        1.9168       56.6479       58.5647       5.258656       0.00000
  23     57.69       53.2246        2.2612       56.2221       58.4832       5.258656      -0.00000
  22     68.43       53.1281        2.6682       55.7186       58.3868       5.258656      -0.00000
  21     81.20       53.0140        3.1488       55.1239       58.2727       5.258656       0.00000
  20     96.49       52.8792        3.7150       54.4228       58.1378       5.258656      -0.00000
  19     114.6       52.7207        4.3784       53.6010       57.9794       5.258656       0.00000
  18     136.5       52.5352        5.1520       52.6418       57.7938       5.258656       0.00000
  17     162.9       52.3174        6.0557       51.5203       57.5761       5.258656      -0.00000
  16     196.4       52.0401        7.1994       50.0994       57.2988       5.258656      -0.00000
  15     218.7       51.8611        7.9335       49.1863       57.1198       5.258656       0.00000
  14     243.0       51.6693        8.7166       48.2113       56.9279       5.258656       0.00000
  13     269.0       51.4644        9.5481       47.1749       56.7231       5.258656      -0.00000
  12     297.5       51.2466       10.4270       46.0783       56.5053       5.258656       0.00000
  11     328.5       51.0153       11.3544       44.9195       56.2739       5.258656      -0.00000
  10     361.9       50.7707       12.3275       43.7018       56.0294       5.258656       0.00000
   9     398.1       50.5126       13.3462       42.4250       55.7713       5.258656       0.00000
   8     437.6       50.2411       14.4082       41.0916       55.4998       5.258656      -0.00000
   7     480.5       49.9565       15.5107       39.7045       55.2151       5.258656       0.00000
   6     533.0       49.6147       16.8191       38.0543       54.8733       5.258656       0.00000
   5     589.8       49.2562       18.1718       36.3431       54.5149       5.258656       0.00000
   4     651.6       48.8821       19.5612       34.5795       54.1407       5.258656       0.00000
   3     718.7       48.4927       20.9812       32.7702       53.7514       5.258656      -0.00000
   2     792.3       48.0894       22.4225       30.9256       53.3480       5.258656       0.00000
   1     891.5       19.3460       24.6038        0.0001       24.6039       5.257831       0.00007
   0    1013.0       19.1631       24.4209        0.0000       24.4210       5.257831      -0.00000



 Wavenumbers: 29000. - 38000. cm-1, ATM      1
 LEVEL PRESSURE   UPWARD FLUX   DIFDOWN FLUX  DIRDOWN FLUX  DOWNWARD FLUX   NET FLUX    HEATING RATE
          mb          W/m2          W/m2          W/m2        W/m2          W/m2       degree/day
  51    .06700        8.1211        0.0000       20.8114       20.8114      12.690308       0.00000
  50    .07753        8.1209        0.0003       20.8070       20.8074      12.686502       3.05091
  49    .09103        8.1206        0.0007       20.8009       20.8016      12.680966       3.46012
  48    0.1069        8.1204        0.0012       20.7928       20.7939      12.673558       3.94344
  47    0.1255        8.1201        0.0017       20.7820       20.7837      12.663655       4.48936
  46    0.1487        8.1197        0.0023       20.7665       20.7688      12.649095       5.30726
  45    0.1794        8.1192        0.0032       20.7424       20.7457      12.626436       6.22062
  44    0.2165        8.1187        0.0043       20.7103       20.7146      12.595920       6.94178
  43    0.2613        8.1181        0.0055       20.6675       20.6730      12.554935       7.72547
  42    0.3336        8.1172        0.0076       20.5880       20.5955      12.478393       8.92402
  41    0.4307        8.1160        0.0102       20.4722       20.4825      12.366470       9.73147
  40    0.5894        8.1143        0.0145       20.2637       20.2782      12.163844      10.77541
  39     1.339        8.1102        0.0327       19.0984       19.1310      11.020803      12.86857
  38     1.782        8.1102        0.0421       18.4394       18.4814      10.371247      12.36650
  37     2.292        8.1121        0.0522       17.7714       17.8236       9.711425      10.92838
  36     2.964        8.1176        0.0646       17.0421       17.1067       8.989131       9.06696
  35     3.853        8.1288        0.0802       16.2678       16.3480       8.219251       7.30630
  34     5.035        8.1476        0.0999       15.4803       15.5802       7.432673       5.61899
  33     6.613        8.1751        0.1251       14.7157       14.8408       6.665733       4.10006
  32     8.786        8.2115        0.1581       13.9936       14.1517       5.940220       2.81763
  31     11.80        8.2588        0.2040       13.2835       13.4876       5.228761       1.99186
  30     15.07        8.3043        0.2516       12.7394       12.9910       4.686672       1.39957
  29     18.79        8.3511        0.3043       12.2666       12.5709       4.219788       1.05857
  28     23.16        8.4007        0.3642       11.8300       12.1942       3.793537       0.82423
  27     28.12        8.4512        0.4312       11.4279       11.8591       3.407922       0.65552
  26     33.73        8.4972        0.5050       11.0695       11.5745       3.077311       0.49708
  25     40.54        8.5399        0.5931       10.7209       11.3140       2.774113       0.37615
  24     48.69        8.5792        0.6976       10.3742       11.0718       2.492624       0.29130
  23     57.69        8.6100        0.8106       10.0549       10.8655       2.255505       0.22226
  22     68.43        8.6328        0.9431        9.7327       10.6758       2.042958       0.16709
  21     81.20        8.6390        1.0993        9.4134       10.5128       1.873722       0.11183
  20     96.49        8.6265        1.2829        9.0887       10.3716       1.745077       0.07100
  19     114.6        8.6028        1.4947        8.7388       10.2335       1.630731       0.05339
  18     136.5        8.5702        1.7365        8.3549       10.0914       1.521190       0.04212
  17     162.9        8.5286        2.0116        7.9311        9.9427       1.414129       0.03422
  16     196.4        8.4647        2.3515        7.4333        9.7848       1.320094       0.02367
  15     218.7        8.4201        2.5649        7.1295        9.6945       1.274320       0.01738
  14     243.0        8.3715        2.7875        6.8161        9.6036       1.232117       0.01464
  13     269.0        8.3185        3.0185        6.4943        9.5128       1.194285       0.01227
  12     297.5        8.2614        3.2567        6.1657        9.4224       1.160994       0.00987
  11     328.5        8.2012        3.5010        5.8295        9.3304       1.129181       0.00865
  10     361.9        8.1385        3.7489        5.4886        9.2375       1.098989       0.00764
   9     398.1        8.0733        3.9998        5.1440        9.1437       1.070439       0.00665
   8     437.6        8.0060        4.2520        4.7969        9.0490       1.042984       0.00587
   7     480.5        7.9368        4.5035        4.4504        8.9538       1.016990       0.00511
   6     533.0        7.8558        4.7883        4.0563        8.8446       0.988739       0.00454
   5     589.8        7.7736        5.0669        3.6682        8.7351       0.961481       0.00405
   4     651.6        7.6909        5.3353        3.2905        8.6259       0.934914       0.00363
   3     718.7        7.6081        5.5919        2.9252        8.5171       0.909000       0.00326
   2     792.3        7.5259        5.8332        2.5764        8.4096       0.883748       0.00290
   1     891.5        3.1437        4.0058        0.0000        4.0058       0.862145       0.00184
   0    1013.0        3.0883        3.9356        0.0000        3.9356       0.847342       0.00103



 Wavenumbers: 38000. - 50000. cm-1, ATM      1
 LEVEL PRESSURE   UPWARD FLUX   DIFDOWN FLUX  DIRDOWN FLUX  DOWNWARD FLUX   NET FLUX    HEATING RATE
          mb          W/m2          W/m2          W/m2        W/m2          W/m2       degree/day
  51    .06700        0.0061        0.0000        1.2836        1.2836       1.277518       0.00000
  50    .07753        0.0061        0.0001        1.2812        1.2812       1.275183       1.87150
  49    .09103        0.0060        0.0002        1.2777        1.2778       1.271851       2.08247
  48    0.1069        0.0059        0.0002        1.2731        1.2734       1.267473       2.33059
  47    0.1255        0.0058        0.0004        1.2672        1.2675       1.261717       2.60908
  46    0.1487        0.0057        0.0005        1.2586        1.2591       1.253391       3.03499
  45    0.1794        0.0055        0.0007        1.2455        1.2462       1.240623       3.50520
  44    0.2165        0.0054        0.0009        1.2282        1.2291       1.223697       3.85037
  43    0.2613        0.0052        0.0011        1.2054        1.2065       1.201348       4.21261
  42    0.3336        0.0049        0.0015        1.1639        1.1654       1.160524       4.75970
  41    0.4307        0.0045        0.0020        1.1051        1.1070       1.102565       5.03943
  40    0.5894        0.0039        0.0026        1.0039        1.0064       1.002524       5.32007
  39     1.339        0.0022        0.0035        0.5438        0.5473       0.545104       5.14971
  38     1.782        0.0016        0.0032        0.3635        0.3666       0.365006       3.42879
  37     2.292        0.0012        0.0027        0.2356        0.2383       0.237058       2.11916
  36     2.964        0.0009        0.0022        0.1455        0.1477       0.146786       1.13318
  35     3.853        0.0006        0.0017        0.0858        0.0875       0.086906       0.56828
  34     5.035        0.0004        0.0013        0.0488        0.0501       0.049701       0.26578
  33     6.613        0.0003        0.0010        0.0273        0.0282       0.027974       0.11615
  32     8.786        0.0002        0.0007        0.0144        0.0151       0.014928       0.05067
  31     11.80        0.0001        0.0004        0.0065        0.0070       0.006903       0.02247
  30     15.07        0.0000        0.0003        0.0031        0.0034       0.003329       0.00923
  29     18.79        0.0000        0.0002        0.0014        0.0016       0.001583       0.00396
  28     23.16        0.0000        0.0001        0.0006        0.0007       0.000720       0.00167
  27     28.12        0.0000        0.0001        0.0003        0.0003       0.000317       0.00069
  26     33.73        0.0000        0.0000        0.0001        0.0001       0.000140       0.00027
  25     40.54        0.0000        0.0000        0.0000        0.0001       0.000057       0.00010
  24     48.69        0.0000        0.0000        0.0000        0.0000       0.000021       0.00004
  23     57.69        0.0000        0.0000        0.0000        0.0000       0.000008       0.00001
  22     68.43        0.0000        0.0000        0.0000        0.0000       0.000003       0.00000
  21     81.20        0.0000        0.0000        0.0000        0.0000       0.000001       0.00000
  20     96.49        0.0000        0.0000        0.0000        0.0000       0.000000       0.00000
  19     114.6        0.0000        0.0000        0.0000        0.0000       0.000000       0.00000
  18     136.5        0.0000        0.0000        0.0000        0.0000       0.000000       0.00000
  17     162.9        0.0000        0.0000        0.0000        0.0000       0.000000       0.00000
  16     196.4        0.0000        0.0000        0.0000        0.0000       0.000000       0.00000
  15     218.7        0.0000        0.0000        0.0000        0.0000       0.000000       0.00000
  14     243.0        0.0000        0.0000        0.0000        0.0000       0.000000       0.00000
  13     269.0        0.0000        0.0000        0.0000        0.0000       0.000000       0.00000
  12     297.5        0.0000        0.0000        0.0000        0.0000       0.000000       0.00000
  11     328.5        0.0000        0.0000        0.0000        0.0000       0.000000       0.00000
  10     361.9        0.0000        0.0000        0.0000        0.0000       0.000000       0.00000
   9     398.1        0.0000        0.0000        0.0000        0.0000       0.000000       0.00000
   8     437.6        0.0000        0.0000        0.0000        0.0000       0.000000       0.00000
   7     480.5        0.0000        0.0000        0.0000        0.0000       0.000000       0.00000
   6     533.0        0.0000        0.0000        0.0000        0.0000       0.000000       0.00000
   5     589.8        0.0000        0.0000        0.0000        0.0000       0.000000       0.00000
   4     651.6        0.0000        0.0000        0.0000        0.0000       0.000000       0.00000
   3     718.7        0.0000        0.0000        0.0000        0.0000       0.000000       0.00000
   2     792.3        0.0000        0.0000        0.0000        0.0000       0.000000       0.00000
   1     891.5        0.0000        0.0000        0.0000        0.0000       0.000000       0.00000
   0    1013.0        0.0000        0.0000        0.0000        0.0000       0.000000       0.00000



 Wavenumbers:   820. -  2600. cm-1, ATM      1
 LEVEL PRESSURE   UPWARD FLUX   DIFDOWN FLUX  DIRDOWN FLUX  DOWNWARD FLUX   NET FLUX    HEATING RATE
          mb          W/m2          W/m2          W/m2        W/m2          W/m2       degree/day
  51    .06700        1.5479        0.0000        6.0047        6.0047       4.456714       0.00000
  50    .07753        1.5479        0.0000        6.0008        6.0008       4.452861       3.08825
  49    .09103        1.5479        0.0000        5.9999        5.9999       4.451975       0.55362
  48    0.1069        1.5479        0.0000        5.9989        5.9989       4.450986       0.52656
  47    0.1255        1.5479        0.0000        5.9978        5.9978       4.449869       0.50654
  46    0.1487        1.5479        0.0000        5.9964        5.9964       4.448512       0.49461
  45    0.1794        1.5479        0.0000        5.9947        5.9947       4.446792       0.47204
  44    0.2165        1.5479        0.0000        5.9929        5.9929       4.444950       0.41915
  43    0.2613        1.5479        0.0000        5.9909        5.9909       4.442990       0.36938
  42    0.3336        1.5479        0.0000        5.9880        5.9880       4.440111       0.33561
  41    0.4307        1.5479        0.0000        5.9846        5.9846       4.436642       0.30170
  40    0.5894        1.5479        0.0000        5.9791        5.9791       4.431135       0.29281
  39     1.339        1.5479        0.0000        5.9536        5.9536       4.405643       0.28700
  38     1.782        1.5480        0.0000        5.9395        5.9395       4.391502       0.26923
  37     2.292        1.5480        0.0000        5.9237        5.9237       4.375747       0.26094
  36     2.964        1.5480        0.0000        5.9039        5.9039       4.355969       0.24828
  35     3.853        1.5480        0.0000        5.8793        5.8793       4.331307       0.23405
  34     5.035        1.5480        0.0000        5.8487        5.8487       4.300736       0.21839
  33     6.613        1.5480        0.0000        5.8108        5.8108       4.262761       0.20302
  32     8.786        1.5480        0.0000        5.7631        5.7631       4.215123       0.18501
  31     11.80        1.5480        0.0000        5.7039        5.7039       4.155845       0.16596
  30     15.07        1.5481        0.0000        5.6539        5.6539       4.105783       0.12925
  29     18.79        1.5481        0.0000        5.6127        5.6127       4.064620       0.09333
  28     23.16        1.5482        0.0000        5.5794        5.5794       4.031212       0.06460
  27     28.12        1.5482        0.0000        5.5518        5.5518       4.003607       0.04693
  26     33.73        1.5483        0.0000        5.5268        5.5268       3.978510       0.03773
  25     40.54        1.5483        0.0000        5.4993        5.4993       3.951012       0.03411
  24     48.69        1.5484        0.0000        5.4678        5.4678       3.919404       0.03271
  23     57.69        1.5485        0.0000        5.4340        5.4340       3.885540       0.03174
  22     68.43        1.5486        0.0000        5.3947        5.3948       3.846174       0.03095
  21     81.20        1.5487        0.0000        5.3497        5.3497       3.801026       0.02983
  20     96.49        1.5489        0.0000        5.2982        5.2982       3.749369       0.02851
  19     114.6        1.5490        0.0000        5.2389        5.2389       3.689871       0.02778
  18     136.5        1.5493        0.0000        5.1716        5.1717       3.622391       0.02595
  17     162.9        1.5496        0.0000        5.0890        5.0891       3.539441       0.02651
  16     196.4        1.5502        0.0000        4.9668        4.9668       3.416647       0.03091
  15     218.7        1.5507        0.0000        4.8585        4.8585       3.307729       0.04135
  14     243.0        1.5517        0.0000        4.7078        4.7079       3.156215       0.05255
  13     269.0        1.5530        0.0000        4.5343        4.5343       2.981304       0.05674
  12     297.5        1.5551        0.0000        4.3419        4.3420       2.786855       0.05767
  11     328.5        1.5580        0.0000        4.1281        4.1281       2.570177       0.05891
  10     361.9        1.5618        0.0000        3.8786        3.8787       2.316920       0.06408
   9     398.1        1.5667        0.0000        3.6159        3.6160       2.049288       0.06235
   8     437.6        1.5730        0.0000        3.3759        3.3759       1.802870       0.05269
   7     480.5        1.5808        0.0000        3.1957        3.1958       1.614975       0.03690
   6     533.0        1.5927        0.0000        3.0467        3.0467       1.454062       0.02589
   5     589.8        1.6101        0.0001        2.9023        2.9023       1.292209       0.02402
   4     651.6        1.6405        0.0001        2.7183        2.7184       1.077877       0.02931
   3     718.7        1.6933        0.0001        2.5058        2.5059       0.812553       0.03334
   2     792.3        1.7964        0.0001        2.2756        2.2757       0.479329       0.03822
   1     891.5        0.0529        0.3087        0.0000        0.3087       0.255793       0.01902
   0    1013.0        0.0634        0.2528        0.0000        0.2528       0.189413       0.00461

  Modules and versions used in this calculation:

       rrtmg_sw.1col.f90:  $Revision$                    rrtmg_sw_init.f90:  $Revision$        
     rrtmgsw_cldprop.f90:  $Revision$                  rrtmgsw_cldprmc.f90:  NOT USED          
     rrtmg_sw_reftra.f90:  $Revision$                  rrtmg_sw_spcvrt.f90:  NOT USED          
     rrtmg_sw_spcvmc.f90:  NOT USED                    rrtmgsw_setcoef.f90:  NOT USED          
     rrtmg_sw_taumol.f90:  $Revision$                  rrtmg_sw_vrtqdr.f90:  NOT USED          
                rrtatm.f:  NOT USED                             util_xxx.f:  NOT USED          
                 extra.f:  NOT USED                       rrtmg_sw_k_g.f90:  $Revision$        

