

 Wavenumbers:   820. - 50000. cm-1, ATM      1
 LEVEL PRESSURE   UPWARD FLUX   DIFDOWN FLUX  DIRDOWN FLUX  DOWNWARD FLUX   NET FLUX    HEATING RATE
          mb          W/m2          W/m2          W/m2        W/m2          W/m2       degree/day
  51    .06700      405.7992        0.0000      617.8126      617.8126     212.013418       0.00000
  50    .07753      405.7987        0.0013      617.7947      617.7960     211.997285      12.93111
  49    .09103      405.7982        0.0030      617.7778      617.7807     211.982485       9.25021
  48    0.1069      405.7977        0.0048      617.7581      617.7629     211.965237       9.18107
  47    0.1255      405.7971        0.0070      617.7340      617.7410     211.943911       9.66820
  46    0.1487      405.7964        0.0098      617.7009      617.7106     211.914253      10.81056
  45    0.1794      405.7955        0.0135      617.6521      617.6656     211.870067      12.13032
  44    0.2165      405.7946        0.0179      617.5895      617.6074     211.812806      13.02582
  43    0.2613      405.7936        0.0231      617.5089      617.5320     211.738376      14.02970
  42    0.3336      405.7923        0.0317      617.3641      617.3958     211.603450      15.73102
  41    0.4307      405.7910        0.0430      617.1591      617.2021     211.411069      16.72713
  40    0.5894      405.7898        0.0612      616.8005      616.8616     211.071843      18.03959
  39     1.339      405.8009        0.1433      614.9443      615.0876     209.286729      20.09715
  38     1.782      405.8191        0.1895      613.9670      614.1565     208.337468      18.07239
  37     2.292      405.8507        0.2420      613.0059      613.2479     207.397200      15.57329
  36     2.964      405.9082        0.3103      611.9577      612.2679     206.359763      13.02297
  35     3.853      406.0062        0.3997      610.8024      611.2021     205.195924      11.04505
  34     5.035      406.1582        0.5177      609.5327      610.0504     203.892219       9.31313
  33     6.613      406.3729        0.6743      608.1464      608.8207     202.447802       7.72186
  32     8.786      406.6523        0.8843      606.6250      607.5094     200.857037       6.17796
  31     11.80      407.0126        1.1833      604.8486      606.0320     199.019382       5.14486
  30     15.07      407.3534        1.5023      603.2440      604.7462     197.392813       4.19948
  29     18.79      407.6973        1.8611      601.6511      603.5122     195.814848       3.57773
  28     23.16      408.0518        2.2778      599.9927      602.2705     194.218792       3.08626
  27     28.12      408.4016        2.7521      598.2881      601.0402     192.638556       2.68629
  26     33.73      408.7120        3.2807      596.5951      599.8758     191.163787       2.21736
  25     40.54      408.9925        3.9169      594.7727      598.6896     189.697151       1.81953
  24     48.69      409.2391        4.6802      592.7865      597.4666     188.227528       1.52083
  23     57.69      409.4213        5.5142      590.7959      596.3101     186.888777       1.25488
  22     68.43      409.5420        6.5019      588.6191      595.1210     185.578975       1.02968
  21     81.20      409.5520        7.6725      586.2690      593.9414     184.389438       0.78603
  20     96.49      409.4400        9.0578      583.6961      592.7540     183.313959       0.59359
  19     114.6      409.2557       10.6867      580.7708      591.4575     182.201762       0.51932
  18     136.5      408.9975       12.5927      577.4359      590.0286     181.031099       0.45015
  17     162.9      408.6565       14.8278      573.5624      588.3903     179.733770       0.41468
  16     196.4      408.1365       17.6755      568.5907      586.2662     178.129710       0.40376
  15     218.7      407.7705       19.5150      565.0572      584.5723     176.801804       0.50416
  14     243.0      407.3669       21.4866      560.7495      582.2362     174.869327       0.67025
  13     269.0      406.9272       23.5913      555.3947      578.9860     172.058762       0.91173
  12     297.5      406.4573       25.8291      548.9964      574.8255     168.368177       1.09459
  11     328.5      405.9661       28.2060      542.0895      570.2956     164.329414       1.09813
  10     361.9      405.4619       30.7177      534.6242      565.3419     159.880081       1.12573
   9     398.1      404.9558       33.3680      526.4204      559.7885     154.832713       1.17592
   8     437.6      404.4707       36.1550      517.3907      553.5457     149.074934       1.23105
   7     480.5      404.0318       39.0760      507.7216      546.7976     142.765799       1.23909
   6     533.0      403.6430       42.5818      495.9006      538.4824     134.839464       1.27510
   5     589.8      403.5009       46.2529      483.0788      529.3317     125.830818       1.33718
   4     651.6      403.9267       50.0751      468.6907      518.7658     114.839042       1.50316
   3     718.7      405.3812       54.0391      453.2257      507.2649     101.883711       1.62813
   2     792.3      409.0986       58.1217      436.4928      494.6146      85.515915       1.87720
   1     891.5      111.0448      184.5162        0.0617      184.5779      73.533075       1.01968
   0    1013.0      111.3861      180.3770        0.0579      180.4349      69.048761       0.31137



 Wavenumbers:  2600. -  3250. cm-1, ATM      1
 LEVEL PRESSURE   UPWARD FLUX   DIFDOWN FLUX  DIRDOWN FLUX  DOWNWARD FLUX   NET FLUX    HEATING RATE
          mb          W/m2          W/m2          W/m2        W/m2          W/m2       degree/day
  51    .06700        1.8616        0.0000        5.4450        5.4450       3.583437       0.00000
  50    .07753        1.8616        0.0000        5.4450        5.4450       3.583429       0.00640
  49    .09103        1.8616        0.0000        5.4450        5.4450       3.583419       0.00627
  48    0.1069        1.8616        0.0000        5.4450        5.4450       3.583408       0.00613
  47    0.1255        1.8616        0.0000        5.4450        5.4450       3.583394       0.00599
  46    0.1487        1.8616        0.0000        5.4450        5.4450       3.583378       0.00608
  45    0.1794        1.8616        0.0000        5.4450        5.4450       3.583355       0.00625
  44    0.2165        1.8616        0.0000        5.4449        5.4449       3.583328       0.00612
  43    0.2613        1.8616        0.0000        5.4449        5.4449       3.583296       0.00600
  42    0.3336        1.8616        0.0000        5.4448        5.4448       3.583243       0.00617
  41    0.4307        1.8616        0.0000        5.4448        5.4448       3.583172       0.00620
  40    0.5894        1.8616        0.0000        5.4446        5.4446       3.583052       0.00637
  39     1.339        1.8616        0.0000        5.4439        5.4439       3.582345       0.00797
  38     1.782        1.8616        0.0000        5.4434        5.4434       3.581802       0.01034
  37     2.292        1.8616        0.0000        5.4427        5.4427       3.581086       0.01186
  36     2.964        1.8616        0.0000        5.4416        5.4416       3.580047       0.01304
  35     3.853        1.8616        0.0000        5.4402        5.4402       3.578570       0.01402
  34     5.035        1.8616        0.0000        5.4381        5.4381       3.576514       0.01469
  33     6.613        1.8616        0.0000        5.4353        5.4353       3.573732       0.01487
  32     8.786        1.8616        0.0000        5.4317        5.4317       3.570099       0.01411
  31     11.80        1.8616        0.0000        5.4269        5.4269       3.565317       0.01339
  30     15.07        1.8616        0.0000        5.4224        5.4224       3.560788       0.01169
  29     18.79        1.8616        0.0000        5.4180        5.4180       3.556372       0.01001
  28     23.16        1.8616        0.0000        5.4135        5.4135       3.551880       0.00869
  27     28.12        1.8616        0.0000        5.4088        5.4088       3.547224       0.00791
  26     33.73        1.8616        0.0000        5.4036        5.4036       3.541972       0.00790
  25     40.54        1.8616        0.0000        5.3966        5.3967       3.535012       0.00863
  24     48.69        1.8617        0.0000        5.3872        5.3872       3.525507       0.00984
  23     57.69        1.8617        0.0000        5.3754        5.3754       3.513684       0.01108
  22     68.43        1.8618        0.0000        5.3599        5.3599       3.498140       0.01222
  21     81.20        1.8619        0.0000        5.3401        5.3401       3.478227       0.01316
  20     96.49        1.8620        0.0000        5.3155        5.3155       3.453547       0.01362
  19     114.6        1.8622        0.0001        5.2853        5.2854       3.423194       0.01417
  18     136.5        1.8624        0.0001        5.2504        5.2505       3.388067       0.01351
  17     162.9        1.8628        0.0001        5.2111        5.2112       3.348406       0.01268
  16     196.4        1.8633        0.0001        5.1640        5.1641       3.300787       0.01199
  15     218.7        1.8639        0.0001        5.1331        5.1332       3.269294       0.01196
  14     243.0        1.8649        0.0001        5.0962        5.0963       3.231453       0.01312
  13     269.0        1.8663        0.0001        5.0511        5.0512       3.184860       0.01511
  12     297.5        1.8686        0.0001        4.9956        4.9957       3.127139       0.01712
  11     328.5        1.8717        0.0001        4.9304        4.9305       3.058773       0.01859
  10     361.9        1.8761        0.0002        4.8511        4.8513       2.975178       0.02115
   9     398.1        1.8821        0.0002        4.7507        4.7508       2.868772       0.02479
   8     437.6        1.8904        0.0002        4.6220        4.6222       2.731768       0.02929
   7     480.5        1.9021        0.0002        4.4625        4.4627       2.560570       0.03362
   6     533.0        1.9212        0.0002        4.2460        4.2462       2.325064       0.03789
   5     589.8        1.9505        0.0002        3.9954        3.9956       2.045146       0.04155
   4     651.6        1.9992        0.0002        3.7089        3.7091       1.709831       0.04586
   3     718.7        2.0808        0.0002        3.4018        3.4020       1.321205       0.04884
   2     792.3        2.2318        0.0002        3.0564        3.0567       0.824887       0.05692
   1     891.5        0.1080        0.5833        0.0004        0.5837       0.475662       0.02972
   0    1013.0        0.1234        0.4918        0.0003        0.4921       0.368723       0.00743



 Wavenumbers:  3250. -  4000. cm-1, ATM      1
 LEVEL PRESSURE   UPWARD FLUX   DIFDOWN FLUX  DIRDOWN FLUX  DOWNWARD FLUX   NET FLUX    HEATING RATE
          mb          W/m2          W/m2          W/m2        W/m2          W/m2       degree/day
  51    .06700        0.0629        0.0000        9.1795        9.1795       9.116600       0.00000
  50    .07753        0.0629        0.0000        9.1747        9.1747       9.111757       3.88148
  49    .09103        0.0629        0.0000        9.1713        9.1713       9.108369       2.11747
  48    0.1069        0.0629        0.0000        9.1688        9.1688       9.105844       1.34402
  47    0.1255        0.0629        0.0000        9.1665        9.1665       9.103585       1.02422
  46    0.1487        0.0629        0.0000        9.1641        9.1641       9.101144       0.88991
  45    0.1794        0.0629        0.0000        9.1612        9.1612       9.098266       0.79008
  44    0.2165        0.0629        0.0000        9.1583        9.1583       9.095346       0.66430
  43    0.2613        0.0629        0.0000        9.1553        9.1553       9.092372       0.56041
  42    0.3336        0.0629        0.0000        9.1511        9.1511       9.088193       0.48723
  41    0.4307        0.0629        0.0000        9.1464        9.1464       9.083425       0.41459
  40    0.5894        0.0629        0.0000        9.1393        9.1394       9.076420       0.37255
  39     1.339        0.0629        0.0000        9.1127        9.1127       9.049806       0.29962
  38     1.782        0.0629        0.0000        9.1011        9.1011       9.038218       0.22062
  37     2.292        0.0629        0.0000        9.0901        9.0901       9.027151       0.18329
  36     2.964        0.0629        0.0000        9.0776        9.0776       9.014721       0.15603
  35     3.853        0.0629        0.0000        9.0629        9.0629       8.999931       0.14036
  34     5.035        0.0629        0.0000        9.0441        9.0441       8.981192       0.13386
  33     6.613        0.0629        0.0000        9.0191        9.0191       8.956191       0.13366
  32     8.786        0.0629        0.0000        8.9843        8.9843       8.921407       0.13509
  31     11.80        0.0629        0.0000        8.9327        8.9327       8.869791       0.14451
  30     15.07        0.0629        0.0000        8.8758        8.8759       8.812946       0.14676
  29     18.79        0.0629        0.0000        8.8110        8.8110       8.748119       0.14698
  28     23.16        0.0629        0.0000        8.7365        8.7366       8.673674       0.14395
  27     28.12        0.0629        0.0000        8.6554        8.6555       8.592561       0.13789
  26     33.73        0.0629        0.0000        8.5719        8.5719       8.509061       0.12554
  25     40.54        0.0629        0.0001        8.4812        8.4812       8.418337       0.11255
  24     48.69        0.0629        0.0001        8.3838        8.3839       8.321036       0.10069
  23     57.69        0.0629        0.0001        8.2861        8.2862       8.223300       0.09161
  22     68.43        0.0628        0.0001        8.1751        8.1751       8.112304       0.08726
  21     81.20        0.0628        0.0001        8.0457        8.0458       7.982945       0.08548
  20     96.49        0.0628        0.0001        7.8949        7.8951       7.832242       0.08318
  19     114.6        0.0628        0.0001        7.7162        7.7163       7.653532       0.08344
  18     136.5        0.0628        0.0002        7.5193        7.5195       7.456687       0.07569
  17     162.9        0.0627        0.0002        7.2913        7.2915       7.228794       0.07284
  16     196.4        0.0627        0.0002        6.9660        6.9662       6.903517       0.08188
  15     218.7        0.0627        0.0002        6.6648        6.6650       6.602317       0.11435
  14     243.0        0.0627        0.0002        6.2619        6.2622       6.199496       0.13971
  13     269.0        0.0627        0.0003        5.7576        5.7579       5.695133       0.16361
  12     297.5        0.0629        0.0003        5.1719        5.1722       5.109305       0.17375
  11     328.5        0.0631        0.0002        4.5757        4.5760       4.512907       0.16216
  10     361.9        0.0635        0.0002        3.9995        3.9998       3.936337       0.14588
   9     398.1        0.0641        0.0002        3.4655        3.4657       3.401632       0.12457
   8     437.6        0.0651        0.0002        2.9740        2.9743       2.909108       0.10530
   7     480.5        0.0669        0.0002        2.5307        2.5309       2.463991       0.08742
   6     533.0        0.0702        0.0002        2.0614        2.0616       1.991331       0.07604
   5     589.8        0.0764        0.0002        1.6150        1.6151       1.538756       0.06718
   4     651.6        0.0892        0.0001        1.1565        1.1566       1.067367       0.06446
   3     718.7        0.1176        0.0001        0.7390        0.7391       0.621550       0.05603
   2     792.3        0.1933        0.0001        0.3985        0.3985       0.205239       0.04775
   1     891.5        0.0000        0.0154        0.0000        0.0154       0.015347       0.01616
   0    1013.0        0.0004        0.0016        0.0000        0.0016       0.001195       0.00098



 Wavenumbers:  4000. -  4650. cm-1, ATM      1
 LEVEL PRESSURE   UPWARD FLUX   DIFDOWN FLUX  DIRDOWN FLUX  DOWNWARD FLUX   NET FLUX    HEATING RATE
          mb          W/m2          W/m2          W/m2        W/m2          W/m2       degree/day
  51    .06700        5.9912        0.0000       10.7795       10.7795       4.788358       0.00000
  50    .07753        5.9912        0.0000       10.7795       10.7795       4.788357       0.00080
  49    .09103        5.9912        0.0000       10.7795       10.7795       4.788356       0.00078
  48    0.1069        5.9912        0.0000       10.7795       10.7795       4.788355       0.00077
  47    0.1255        5.9912        0.0000       10.7795       10.7795       4.788353       0.00075
  46    0.1487        5.9912        0.0000       10.7795       10.7795       4.788351       0.00076
  45    0.1794        5.9912        0.0000       10.7795       10.7795       4.788348       0.00078
  44    0.2165        5.9912        0.0000       10.7795       10.7795       4.788345       0.00076
  43    0.2613        5.9912        0.0000       10.7795       10.7795       4.788341       0.00075
  42    0.3336        5.9912        0.0000       10.7795       10.7795       4.788334       0.00077
  41    0.4307        5.9912        0.0000       10.7795       10.7795       4.788325       0.00077
  40    0.5894        5.9912        0.0000       10.7795       10.7795       4.788310       0.00080
  39     1.339        5.9912        0.0000       10.7794       10.7794       4.788221       0.00101
  38     1.782        5.9912        0.0000       10.7793       10.7793       4.788151       0.00133
  37     2.292        5.9912        0.0000       10.7792       10.7792       4.788057       0.00156
  36     2.964        5.9912        0.0000       10.7791       10.7791       4.787916       0.00177
  35     3.853        5.9912        0.0000       10.7789       10.7789       4.787707       0.00198
  34     5.035        5.9912        0.0000       10.7786       10.7786       4.787400       0.00220
  33     6.613        5.9912        0.0000       10.7781       10.7781       4.786947       0.00242
  32     8.786        5.9912        0.0000       10.7774       10.7775       4.786278       0.00260
  31     11.80        5.9912        0.0001       10.7763       10.7764       4.785227       0.00294
  30     15.07        5.9912        0.0001       10.7751       10.7752       4.783992       0.00319
  29     18.79        5.9912        0.0001       10.7736       10.7737       4.782499       0.00339
  28     23.16        5.9912        0.0001       10.7717       10.7718       4.780643       0.00359
  27     28.12        5.9912        0.0001       10.7695       10.7696       4.778395       0.00382
  26     33.73        5.9912        0.0002       10.7667       10.7668       4.775620       0.00417
  25     40.54        5.9913        0.0002       10.7629       10.7631       4.771852       0.00467
  24     48.69        5.9913        0.0002       10.7579       10.7582       4.766825       0.00520
  23     57.69        5.9914        0.0003       10.7520       10.7523       4.760858       0.00559
  22     68.43        5.9916        0.0003       10.7446       10.7449       4.753367       0.00589
  21     81.20        5.9918        0.0004       10.7355       10.7359       4.744126       0.00611
  20     96.49        5.9921        0.0005       10.7245       10.7249       4.732858       0.00622
  19     114.6        5.9925        0.0006       10.7107       10.7113       4.718732       0.00660
  18     136.5        5.9932        0.0007       10.6942       10.6948       4.701668       0.00656
  17     162.9        5.9941        0.0008       10.6740       10.6748       4.680678       0.00671
  16     196.4        5.9957        0.0009       10.6464       10.6473       4.651595       0.00732
  15     218.7        5.9971        0.0010       10.6255       10.6265       4.629387       0.00843
  14     243.0        5.9992        0.0012       10.5980       10.5992       4.600046       0.01018
  13     269.0        6.0022        0.0013       10.5611       10.5624       4.560181       0.01293
  12     297.5        6.0066        0.0014       10.5119       10.5134       4.506743       0.01585
  11     328.5        6.0127        0.0016       10.4499       10.4514       4.438749       0.01849
  10     361.9        6.0206        0.0017       10.3702       10.3719       4.351238       0.02214
   9     398.1        6.0307        0.0019       10.2678       10.2696       4.238961       0.02616
   8     437.6        6.0436        0.0020       10.1390       10.1410       4.097467       0.03025
   7     480.5        6.0601        0.0022        9.9877        9.9899       3.929768       0.03294
   6     533.0        6.0858        0.0024        9.7937        9.7961       3.710258       0.03531
   5     589.8        6.1233        0.0026        9.5752        9.5778       3.454461       0.03797
   4     651.6        6.1845        0.0028        9.2958        9.2986       3.114163       0.04654
   3     718.7        6.2889        0.0030        8.9267        8.9298       2.640909       0.05947
   2     792.3        6.4896        0.0032        8.4542        8.4574       1.967868       0.07719
   1     891.5        0.4161        1.8936        0.0012        1.8948       1.478658       0.04163
   0    1013.0        0.4408        1.7569        0.0011        1.7579       1.317143       0.01121



 Wavenumbers:  4650. -  5150. cm-1, ATM      1
 LEVEL PRESSURE   UPWARD FLUX   DIFDOWN FLUX  DIRDOWN FLUX  DOWNWARD FLUX   NET FLUX    HEATING RATE
          mb          W/m2          W/m2          W/m2        W/m2          W/m2       degree/day
  51    .06700        4.3337        0.0000       10.2033       10.2033       5.869646       0.00000
  50    .07753        4.3337        0.0000       10.2031       10.2031       5.869410       0.18901
  49    .09103        4.3337        0.0000       10.2028       10.2028       5.869115       0.18428
  48    0.1069        4.3337        0.0000       10.2025       10.2025       5.868779       0.17931
  47    0.1255        4.3337        0.0000       10.2021       10.2021       5.868394       0.17426
  46    0.1487        4.3337        0.0000       10.2016       10.2016       5.867913       0.17536
  45    0.1794        4.3337        0.0000       10.2010       10.2010       5.867263       0.17850
  44    0.2165        4.3337        0.0000       10.2002       10.2002       5.866503       0.17277
  43    0.2613        4.3337        0.0000       10.1993       10.1993       5.865618       0.16690
  42    0.3336        4.3337        0.0000       10.1979       10.1979       5.864185       0.16702
  41    0.4307        4.3337        0.0000       10.1960       10.1960       5.862345       0.16002
  40    0.5894        4.3337        0.0000       10.1932       10.1932       5.859471       0.15283
  39     1.339        4.3337        0.0000       10.1816       10.1816       5.847879       0.13051
  38     1.782        4.3337        0.0000       10.1760       10.1760       5.842350       0.10527
  37     2.292        4.3337        0.0000       10.1706       10.1706       5.836892       0.09038
  36     2.964        4.3337        0.0000       10.1646       10.1647       5.830968       0.07437
  35     3.853        4.3337        0.0000       10.1584       10.1584       5.824752       0.05899
  34     5.035        4.3337        0.0000       10.1521       10.1521       5.818413       0.04528
  33     6.613        4.3337        0.0000       10.1456       10.1456       5.811950       0.03455
  32     8.786        4.3337        0.0001       10.1386       10.1386       5.804929       0.02727
  31     11.80        4.3337        0.0001       10.1295       10.1296       5.795869       0.02536
  30     15.07        4.3338        0.0001       10.1196       10.1197       5.785963       0.02557
  29     18.79        4.3338        0.0001       10.1076       10.1077       5.773918       0.02731
  28     23.16        4.3339        0.0002       10.0923       10.0924       5.758560       0.02970
  27     28.12        4.3339        0.0002       10.0731       10.0733       5.739393       0.03258
  26     33.73        4.3341        0.0002       10.0500       10.0503       5.716201       0.03487
  25     40.54        4.3343        0.0003       10.0201       10.0204       5.686158       0.03727
  24     48.69        4.3345        0.0003        9.9820        9.9823       5.647787       0.03971
  23     57.69        4.3349        0.0004        9.9384        9.9388       5.603993       0.04105
  22     68.43        4.3353        0.0005        9.8858        9.8862       5.550907       0.04173
  21     81.20        4.3360        0.0006        9.8234        9.8240       5.488025       0.04155
  20     96.49        4.3369        0.0007        9.7518        9.7524       5.415530       0.04001
  19     114.6        4.3382        0.0008        9.6719        9.6727       5.334544       0.03781
  18     136.5        4.3399        0.0009        9.5858        9.5867       5.246818       0.03373
  17     162.9        4.3423        0.0011        9.4940        9.4951       5.152798       0.03005
  16     196.4        4.3461        0.0013        9.3883        9.3896       5.043510       0.02751
  15     218.7        4.3490        0.0014        9.3229        9.3244       4.975351       0.02588
  14     243.0        4.3528        0.0016        9.2520        9.2536       4.900758       0.02587
  13     269.0        4.3579        0.0018        9.1717        9.1734       4.815509       0.02765
  12     297.5        4.3650        0.0019        9.0763        9.0782       4.713201       0.03034
  11     328.5        4.3743        0.0021        8.9650        8.9671       4.592826       0.03273
  10     361.9        4.3862        0.0023        8.8349        8.8372       4.451035       0.03587
   9     398.1        4.4017        0.0025        8.6820        8.6845       4.282825       0.03919
   8     437.6        4.4219        0.0027        8.5028        8.5055       4.083623       0.04259
   7     480.5        4.4482        0.0029        8.2948        8.2977       3.849536       0.04597
   6     533.0        4.4884        0.0031        8.0209        8.0240       3.535617       0.05050
   5     589.8        4.5445        0.0034        7.7063        7.7097       3.165173       0.05499
   4     651.6        4.6280        0.0036        7.3412        7.3448       2.716846       0.06131
   3     718.7        4.7552        0.0038        6.9387        6.9425       2.187308       0.06655
   2     792.3        4.9610        0.0040        6.5066        6.5106       1.549640       0.07313
   1     891.5        0.3026        1.4176        0.0009        1.4185       1.115918       0.03691
   0    1013.0        0.3253        1.2964        0.0008        1.2972       0.971972       0.00999



 Wavenumbers:  5150. -  6150. cm-1, ATM      1
 LEVEL PRESSURE   UPWARD FLUX   DIFDOWN FLUX  DIRDOWN FLUX  DOWNWARD FLUX   NET FLUX    HEATING RATE
          mb          W/m2          W/m2          W/m2        W/m2          W/m2       degree/day
  51    .06700       10.2448        0.0000       25.5798       25.5798      15.335027       0.00000
  50    .07753       10.2448        0.0000       25.5798       25.5798      15.334987       0.03162
  49    .09103       10.2448        0.0000       25.5797       25.5797      15.334936       0.03210
  48    0.1069       10.2448        0.0000       25.5797       25.5797      15.334875       0.03261
  47    0.1255       10.2448        0.0000       25.5796       25.5796      15.334802       0.03311
  46    0.1487       10.2448        0.0000       25.5795       25.5795      15.334706       0.03488
  45    0.1794       10.2448        0.0000       25.5794       25.5794      15.334571       0.03713
  44    0.2165       10.2448        0.0000       25.5792       25.5792      15.334405       0.03769
  43    0.2613       10.2448        0.0000       25.5790       25.5790      15.334202       0.03827
  42    0.3336       10.2448        0.0000       25.5786       25.5786      15.333855       0.04043
  41    0.4307       10.2448        0.0000       25.5782       25.5782      15.333384       0.04097
  40    0.5894       10.2448        0.0000       25.5774       25.5774      15.332594       0.04199
  39     1.339       10.2448        0.0000       25.5735       25.5736      15.328790       0.04283
  38     1.782       10.2448        0.0001       25.5713       25.5714      15.326575       0.04217
  37     2.292       10.2448        0.0001       25.5688       25.5688      15.324067       0.04153
  36     2.964       10.2448        0.0001       25.5656       25.5657      15.320881       0.04000
  35     3.853       10.2448        0.0001       25.5615       25.5616      15.316830       0.03844
  34     5.035       10.2448        0.0002       25.5562       25.5564      15.311612       0.03728
  33     6.613       10.2448        0.0002       25.5494       25.5496      15.304840       0.03620
  32     8.786       10.2448        0.0003       25.5406       25.5409      15.296063       0.03409
  31     11.80       10.2448        0.0004       25.5287       25.5290      15.284187       0.03325
  30     15.07       10.2449        0.0005       25.5167       25.5172      15.272270       0.03077
  29     18.79       10.2450        0.0006       25.5042       25.5048      15.259805       0.02826
  28     23.16       10.2450        0.0007       25.4907       25.4914      15.246367       0.02598
  27     28.12       10.2451        0.0009       25.4764       25.4773      15.232187       0.02411
  26     33.73       10.2453        0.0011       25.4620       25.4631      15.217797       0.02164
  25     40.54       10.2455        0.0013       25.4463       25.4475      15.202031       0.01956
  24     48.69       10.2458        0.0015       25.4294       25.4309      15.185107       0.01751
  23     57.69       10.2462        0.0018       25.4126       25.4144      15.168262       0.01579
  22     68.43       10.2466        0.0021       25.3944       25.3966      15.149927       0.01441
  21     81.20       10.2473        0.0025       25.3744       25.3770      15.129703       0.01336
  20     96.49       10.2480        0.0030       25.3519       25.3550      15.106932       0.01257
  19     114.6       10.2490        0.0036       25.3262       25.3298      15.080777       0.01221
  18     136.5       10.2502        0.0043       25.2962       25.3005      15.050297       0.01172
  17     162.9       10.2516        0.0051       25.2521       25.2572      15.005535       0.01431
  16     196.4       10.2537        0.0061       25.1593       25.1654      14.911736       0.02361
  15     218.7       10.2551        0.0068       25.0159       25.0227      14.767567       0.05474
  14     243.0       10.2569        0.0074       24.7089       24.7164      14.459419       0.10688
  13     269.0       10.2593        0.0081       24.1619       24.1700      13.910693       0.17800
  12     297.5       10.2625        0.0088       23.4544       23.4632      13.200695       0.21058
  11     328.5       10.2667        0.0095       22.7355       22.7449      12.478269       0.19643
  10     361.9       10.2722        0.0102       21.9224       21.9326      11.660353       0.20694
   9     398.1       10.2797        0.0108       20.9939       21.0047      10.725000       0.21792
   8     437.6       10.2902        0.0115       19.9833       19.9948       9.704585       0.21817
   7     480.5       10.3048        0.0121       18.9483       18.9604       8.655624       0.20601
   6     533.0       10.3296        0.0128       17.7796       17.7924       7.462840       0.19188
   5     589.8       10.3699        0.0135       16.6726       16.6861       6.316199       0.17020
   4     651.6       10.4441        0.0143       15.6343       15.6486       5.204498       0.15203
   3     718.7       10.5808        0.0151       14.7738       14.7889       4.208047       0.12523
   2     792.3       10.8571        0.0160       14.0291       14.0451       3.188043       0.11698
   1     891.5        0.7353        3.2263        0.0020        3.2282       2.492914       0.05915
   0    1013.0        0.7629        3.0407        0.0018        3.0425       2.279642       0.01481



 Wavenumbers:  6150. -  7700. cm-1, ATM      1
 LEVEL PRESSURE   UPWARD FLUX   DIFDOWN FLUX  DIRDOWN FLUX  DOWNWARD FLUX   NET FLUX    HEATING RATE
          mb          W/m2          W/m2          W/m2        W/m2          W/m2       degree/day
  51    .06700       16.4691        0.0000       47.3109       47.3109      30.841737       0.00000
  50    .07753       16.4691        0.0000       47.3108       47.3108      30.841681       0.04553
  49    .09103       16.4691        0.0000       47.3107       47.3107      30.841607       0.04583
  48    0.1069       16.4691        0.0000       47.3106       47.3106      30.841521       0.04614
  47    0.1255       16.4691        0.0000       47.3105       47.3105      30.841418       0.04645
  46    0.1487       16.4691        0.0000       47.3104       47.3104      30.841285       0.04852
  45    0.1794       16.4691        0.0000       47.3102       47.3102      30.841098       0.05127
  44    0.2165       16.4691        0.0000       47.3100       47.3100      30.840871       0.05167
  43    0.2613       16.4691        0.0000       47.3097       47.3097      30.840595       0.05210
  42    0.3336       16.4691        0.0000       47.3092       47.3092      30.840126       0.05471
  41    0.4307       16.4691        0.0000       47.3085       47.3086      30.839491       0.05521
  40    0.5894       16.4691        0.0001       47.3074       47.3075      30.838431       0.05633
  39     1.339       16.4690        0.0002       47.3022       47.3024      30.833339       0.05733
  38     1.782       16.4690        0.0002       47.2991       47.2994      30.830369       0.05655
  37     2.292       16.4689        0.0003       47.2956       47.2959      30.826993       0.05591
  36     2.964       16.4689        0.0004       47.2912       47.2916      30.822675       0.05421
  35     3.853       16.4688        0.0005       47.2855       47.2860      30.817140       0.05252
  34     5.035       16.4687        0.0006       47.2780       47.2787      30.809960       0.05129
  33     6.613       16.4686        0.0009       47.2683       47.2692      30.800572       0.05019
  32     8.786       16.4684        0.0011       47.2556       47.2567      30.788272       0.04777
  31     11.80       16.4682        0.0015       47.2380       47.2396      30.771368       0.04733
  30     15.07       16.4679        0.0020       47.2201       47.2220      30.754080       0.04463
  29     18.79       16.4676        0.0024       47.2008       47.2032      30.735599       0.04190
  28     23.16       16.4673        0.0030       47.1795       47.1825      30.715208       0.03943
  27     28.12       16.4669        0.0036       47.1565       47.1601      30.693213       0.03739
  26     33.73       16.4665        0.0044       47.1324       47.1368      30.670289       0.03447
  25     40.54       16.4660        0.0052       47.1054       47.1106      30.644650       0.03181
  24     48.69       16.4653        0.0063       47.0754       47.0817      30.616393       0.02924
  23     57.69       16.4646        0.0074       47.0449       47.0524      30.587767       0.02683
  22     68.43       16.4638        0.0088       47.0110       47.0198      30.556024       0.02495
  21     81.20       16.4628        0.0105       46.9729       46.9833      30.520522       0.02346
  20     96.49       16.4616        0.0124       46.9294       46.9418      30.480170       0.02227
  19     114.6       16.4603        0.0148       46.8790       46.8938      30.433521       0.02178
  18     136.5       16.4586        0.0175       46.8200       46.8375      30.378875       0.02101
  17     162.9       16.4567        0.0208       46.7361       46.7569      30.300212       0.02514
  16     196.4       16.4544        0.0251       46.5703       46.5953      30.140909       0.04010
  15     218.7       16.4531        0.0278       46.3473       46.3751      29.922017       0.08311
  14     243.0       16.4520        0.0307       45.9299       45.9605      29.508514       0.14342
  13     269.0       16.4517        0.0336       45.1708       45.2043      28.752642       0.24520
  12     297.5       16.4529        0.0364       44.0115       44.0479      27.594967       0.34335
  11     328.5       16.4561        0.0393       42.7242       42.7635      26.307369       0.35009
  10     361.9       16.4625        0.0422       41.3539       41.3962      24.933685       0.34756
   9     398.1       16.4737        0.0451       39.7953       39.8404      23.366725       0.36507
   8     437.6       16.4927        0.0478       37.9948       38.0426      21.549928       0.38844
   7     480.5       16.5232        0.0504       36.0647       36.1152      19.591935       0.38454
   6     533.0       16.5808        0.0532       33.7773       33.8305      17.249691       0.37679
   5     589.8       16.6816        0.0558       31.4082       31.4640      14.782400       0.36623
   4     651.6       16.8767        0.0579       28.8834       28.9413      12.064589       0.37167
   3     718.7       17.2518        0.0598       26.4104       26.4701       9.218332       0.35770
   2     792.3       18.0572        0.0613       24.0056       24.0669       6.009717       0.36799
   1     891.5        1.0875        5.0902        0.0032        5.0934       4.005879       0.17052
   0    1013.0        1.1594        4.6214        0.0028        4.6242       3.464772       0.03757



 Wavenumbers:  7700. -  8050. cm-1, ATM      1
 LEVEL PRESSURE   UPWARD FLUX   DIFDOWN FLUX  DIRDOWN FLUX  DOWNWARD FLUX   NET FLUX    HEATING RATE
          mb          W/m2          W/m2          W/m2        W/m2          W/m2       degree/day
  51    .06700        7.5209        0.0000       11.1810       11.1810       3.660104       0.00000
  50    .07753        7.5209        0.0000       11.1809       11.1809       3.660080       0.01851
  49    .09103        7.5209        0.0000       11.1809       11.1809       3.660051       0.01814
  48    0.1069        7.5209        0.0000       11.1809       11.1809       3.660018       0.01776
  47    0.1255        7.5209        0.0000       11.1809       11.1809       3.659980       0.01738
  46    0.1487        7.5209        0.0000       11.1808       11.1808       3.659931       0.01763
  45    0.1794        7.5209        0.0000       11.1808       11.1808       3.659865       0.01814
  44    0.2165        7.5209        0.0000       11.1807       11.1807       3.659787       0.01780
  43    0.2613        7.5210        0.0000       11.1806       11.1806       3.659694       0.01746
  42    0.3336        7.5210        0.0000       11.1805       11.1805       3.659541       0.01787
  41    0.4307        7.5210        0.0000       11.1803       11.1804       3.659338       0.01767
  40    0.5894        7.5211        0.0000       11.1801       11.1801       3.659006       0.01766
  39     1.339        7.5215        0.0001       11.1788       11.1789       3.657435       0.01768
  38     1.782        7.5217        0.0001       11.1781       11.1782       3.656512       0.01757
  37     2.292        7.5219        0.0001       11.1772       11.1773       3.655444       0.01769
  36     2.964        7.5222        0.0002       11.1761       11.1762       3.654042       0.01761
  35     3.853        7.5226        0.0002       11.1746       11.1748       3.652189       0.01758
  34     5.035        7.5232        0.0003       11.1726       11.1729       3.649728       0.01758
  33     6.613        7.5239        0.0004       11.1700       11.1703       3.646440       0.01758
  32     8.786        7.5249        0.0005       11.1664       11.1669       3.642010       0.01720
  31     11.80        7.5263        0.0007       11.1613       11.1620       3.635676       0.01773
  30     15.07        7.5278        0.0009       11.1558       11.1567       3.628880       0.01755
  29     18.79        7.5296        0.0011       11.1497       11.1508       3.621209       0.01739
  28     23.16        7.5316        0.0014       11.1425       11.1439       3.612257       0.01731
  27     28.12        7.5339        0.0017       11.1343       11.1360       3.602033       0.01738
  26     33.73        7.5366        0.0020       11.1252       11.1272       3.590609       0.01718
  25     40.54        7.5398        0.0024       11.1142       11.1166       3.576833       0.01709
  24     48.69        7.5436        0.0029       11.1010       11.1039       3.560265       0.01715
  23     57.69        7.5479        0.0034       11.0866       11.0900       3.542116       0.01701
  22     68.43        7.5530        0.0040       11.0695       11.0736       3.520572       0.01694
  21     81.20        7.5591        0.0048       11.0494       11.0541       3.495007       0.01689
  20     96.49        7.5665        0.0056       11.0255       11.0312       3.464688       0.01673
  19     114.6        7.5754        0.0067       10.9975       11.0042       3.428891       0.01671
  18     136.5        7.5860        0.0080       10.9648       10.9727       3.386734       0.01621
  17     162.9        7.5988        0.0094       10.9263       10.9357       3.336896       0.01593
  16     196.4        7.6158        0.0114       10.8773       10.8886       3.272810       0.01613
  15     218.7        7.6272        0.0126       10.8455       10.8582       3.231000       0.01587
  14     243.0        7.6397        0.0140       10.8114       10.8254       3.185736       0.01570
  13     269.0        7.6535        0.0155       10.7749       10.7904       3.136806       0.01587
  12     297.5        7.6689        0.0171       10.7357       10.7528       3.083928       0.01568
  11     328.5        7.6858        0.0188       10.6937       10.7125       3.026720       0.01555
  10     361.9        7.7046        0.0207       10.6489       10.6695       2.964885       0.01565
   9     398.1        7.7256        0.0227       10.6008       10.6234       2.897818       0.01563
   8     437.6        7.7491        0.0248       10.5491       10.5739       2.824770       0.01562
   7     480.5        7.7755        0.0271       10.4934       10.5206       2.745025       0.01566
   6     533.0        7.8100        0.0300       10.4243       10.4542       2.644240       0.01621
   5     589.8        7.8502        0.0330       10.3479       10.3809       2.530676       0.01686
   4     651.6        7.8986        0.0363       10.2613       10.2976       2.399053       0.01800
   3     718.7        7.9579        0.0397       10.1618       10.2015       2.243580       0.01954
   2     792.3        8.0336        0.0434       10.0439       10.0873       2.053700       0.02178
   1     891.5        0.6031        2.5086        0.0015        2.5101       1.906965       0.01249
   0    1013.0        0.6155        2.4534        0.0014        2.4548       1.839301       0.00470



 Wavenumbers:  8050. - 12850. cm-1, ATM      1
 LEVEL PRESSURE   UPWARD FLUX   DIFDOWN FLUX  DIRDOWN FLUX  DOWNWARD FLUX   NET FLUX    HEATING RATE
          mb          W/m2          W/m2          W/m2        W/m2          W/m2       degree/day
  51    .06700       98.2748        0.0000      156.5418      156.5418      58.266989       0.00000
  50    .07753       98.2747        0.0000      156.5417      156.5417      58.266989      -0.00000
  49    .09103       98.2747        0.0001      156.5417      156.5417      58.266989       0.00000
  48    0.1069       98.2747        0.0001      156.5416      156.5417      58.266989      -0.00000
  47    0.1255       98.2747        0.0002      156.5415      156.5417      58.266989       0.00000
  46    0.1487       98.2747        0.0002      156.5414      156.5417      58.266989       0.00000
  45    0.1794       98.2746        0.0003      156.5413      156.5416      58.266989       0.00000
  44    0.2165       98.2746        0.0004      156.5412      156.5416      58.266989      -0.00000
  43    0.2613       98.2746        0.0006      156.5410      156.5415      58.266989       0.00000
  42    0.3336       98.2745        0.0008      156.5407      156.5415      58.266989      -0.00000
  41    0.4307       98.2744        0.0010      156.5403      156.5414      58.266989      -0.00000
  40    0.5894       98.2742        0.0015      156.5397      156.5412      58.266989       0.00000
  39     1.339       98.2734        0.0036      156.5367      156.5404      58.266989      -0.00000
  38     1.782       98.2729        0.0049      156.5350      156.5399      58.266989      -0.00000
  37     2.292       98.2724        0.0064      156.5330      156.5393      58.266989       0.00000
  36     2.964       98.2716        0.0083      156.5303      156.5386      58.266989       0.00000
  35     3.853       98.2707        0.0108      156.5268      156.5377      58.266989       0.00000
  34     5.035       98.2694        0.0142      156.5222      156.5364      58.266989       0.00000
  33     6.613       98.2677        0.0187      156.5160      156.5347      58.266989       0.00000
  32     8.786       98.2654        0.0248      156.5076      156.5324      58.266989      -0.00000
  31     11.80       98.2621        0.0335      156.4957      156.5291      58.266989       0.00000
  30     15.07       98.2586        0.0428      156.4828      156.5256      58.266989       0.00000
  29     18.79       98.2546        0.0534      156.4682      156.5216      58.266989       0.00000
  28     23.16       98.2499        0.0657      156.4512      156.5169      58.266989      -0.00000
  27     28.12       98.2446        0.0799      156.4317      156.5116      58.266989       0.00000
  26     33.73       98.2386        0.0957      156.4099      156.5056      58.266989       0.00000
  25     40.54       98.2314        0.1149      156.3834      156.4984      58.266989       0.00000
  24     48.69       98.2226        0.1381      156.3515      156.4896      58.266989      -0.00000
  23     57.69       98.2130        0.1636      156.3164      156.4800      58.266989      -0.00000
  22     68.43       98.2015        0.1939      156.2746      156.4685      58.266989       0.00000
  21     81.20       98.1878        0.2302      156.2246      156.4548      58.266989      -0.00000
  20     96.49       98.1714        0.2735      156.1649      156.4384      58.266989       0.00000
  19     114.6       98.1522        0.3250      156.0879      156.4129      58.260728       0.00292
  18     136.5       98.1293        0.3861      155.9962      156.3823      58.252964       0.00299
  17     162.9       98.1021        0.4591      155.8831      156.3422      58.240089       0.00412
  16     196.4       98.0669        0.5541      155.7199      156.2740      58.207126       0.00830
  15     218.7       98.0441        0.6165      155.5733      156.1898      58.145645       0.02334
  14     243.0       98.0206        0.6843      155.3367      156.0210      58.000433       0.05036
  13     269.0       97.9978        0.7577      154.9514      155.7091      57.711335       0.09378
  12     297.5       97.9785        0.8367      154.3896      155.2263      57.247809       0.13748
  11     328.5       97.9645        0.9219      153.7151      154.6370      56.672488       0.15643
  10     361.9       97.9594        1.0133      152.9087      153.9220      55.962592       0.17961
   9     398.1       97.9695        1.1110      151.8986      153.0096      55.040132       0.21491
   8     437.6       98.0054        1.2150      150.6031      151.8182      53.812759       0.26242
   7     480.5       98.0800        1.3249      149.0014      150.3263      52.246268       0.30765
   6     533.0       98.2407        1.4578      146.7375      148.1954      49.954687       0.36864
   5     589.8       98.5422        1.5969      143.8730      145.4699      46.927749       0.44930
   4     651.6       99.1432        1.7394      140.0955      141.8349      42.691709       0.57929
   3     718.7      100.2818        1.8836      135.5278      137.4114      37.129548       0.69901
   2     792.3      102.5665        2.0258      130.0690      132.0949      29.528318       0.87178
   1     891.5        7.0115       30.7509        0.0182       30.7691      23.757547       0.49106
   0    1013.0        7.2853       29.0395        0.0168       29.0563      21.770959       0.13794



 Wavenumbers: 12850. - 16000. cm-1, ATM      1
 LEVEL PRESSURE   UPWARD FLUX   DIFDOWN FLUX  DIRDOWN FLUX  DOWNWARD FLUX   NET FLUX    HEATING RATE
          mb          W/m2          W/m2          W/m2        W/m2          W/m2       degree/day
  51    .06700       71.7365        0.0000       98.0872       98.0872      26.350743       0.00000
  50    .07753       71.7365        0.0001       98.0864       98.0864      26.349952       0.63388
  49    .09103       71.7365        0.0002       98.0853       98.0854      26.348959       0.62072
  48    0.1069       71.7365        0.0003       98.0841       98.0843      26.347818       0.60730
  47    0.1255       71.7365        0.0004       98.0826       98.0830      26.346507       0.59416
  46    0.1487       71.7365        0.0005       98.0809       98.0814      26.344854       0.60278
  45    0.1794       71.7365        0.0007       98.0784       98.0792      26.342605       0.61743
  44    0.2165       71.7366        0.0009       98.0756       98.0766      26.339960       0.60168
  43    0.2613       71.7367        0.0012       98.0723       98.0736      26.336850       0.58614
  42    0.3336       71.7369        0.0017       98.0670       98.0687      26.331777       0.59150
  41    0.4307       71.7372        0.0023       98.0602       98.0625      26.325219       0.57017
  40    0.5894       71.7380        0.0033       98.0496       98.0528      26.314893       0.54914
  39     1.339       71.7440        0.0079       98.0043       98.0123      26.268221       0.52544
  38     1.782       71.7497        0.0107       97.9793       97.9899      26.240281       0.53194
  37     2.292       71.7581        0.0138       97.9498       97.9636      26.205535       0.57548
  36     2.964       71.7720        0.0180       97.9088       97.9268      26.154774       0.63720
  35     3.853       71.7946        0.0235       97.8503       97.8738      26.079243       0.71680
  34     5.035       71.8286        0.0308       97.7680       97.7988      25.970194       0.77900
  33     6.613       71.8761        0.0405       97.6562       97.6967      25.820657       0.79943
  32     8.786       71.9379        0.0536       97.5107       97.5643      25.626452       0.75422
  31     11.80       72.0183        0.0724       97.3179       97.3902      25.371967       0.71248
  30     15.07       72.0953        0.0925       97.1283       97.2208      25.125531       0.63625
  29     18.79       72.1739        0.1152       96.9300       97.0452      24.871313       0.57639
  28     23.16       72.2560        0.1416       96.7166       96.8582      24.602209       0.52036
  27     28.12       72.3386        0.1719       96.4935       96.6654      24.326771       0.46823
  26     33.73       72.4149        0.2057       96.2731       96.4788      24.063953       0.39515
  25     40.54       72.4883        0.2466       96.0408       96.2874      23.799105       0.32857
  24     48.69       72.5587        0.2959       95.7946       96.0905      23.531850       0.27657
  23     57.69       72.6184        0.3501       95.5573       95.9074      23.289004       0.22763
  22     68.43       72.6705        0.4147       95.3106       95.7253      23.054762       0.18415
  21     81.20       72.7066        0.4917       95.0643       95.5560      22.849442       0.13567
  20     96.49       72.7255        0.5835       94.8153       95.3988      22.673321       0.09721
  19     114.6       72.7454        0.6935       94.5411       95.2346      22.489128       0.08601
  18     136.5       72.7590        0.8238       94.2320       95.0559      22.296843       0.07394
  17     162.9       72.7662        0.9790       93.8753       94.8543      22.088185       0.06670
  16     196.4       72.7560        1.1803       93.4347       94.6149      21.858963       0.05770
  15     218.7       72.7425        1.3124       93.1513       94.4637      21.721193       0.05231
  14     243.0       72.7252        1.4560       92.8439       94.2999      21.574728       0.05080
  13     269.0       72.7042        1.6115       92.5111       94.1227      21.418452       0.05070
  12     297.5       72.6803        1.7796       92.1495       93.9291      21.248761       0.05033
  11     328.5       72.6555        1.9612       91.7554       93.7166      21.061018       0.05105
  10     361.9       72.6310        2.1566       91.3262       93.4828      20.851726       0.05295
   9     398.1       72.6086        2.3667       90.8575       93.2243      20.615607       0.05501
   8     437.6       72.5919        2.5922       90.3418       92.9340      20.342079       0.05848
   7     480.5       72.5844        2.8335       89.7728       92.6063      20.021904       0.06288
   6     533.0       72.5951        3.1301       89.0428       92.1729      19.577756       0.07145
   5     589.8       72.6430        3.4484       88.2038       91.6522      19.009159       0.08440
   4     651.6       72.7679        3.7878       87.1979       90.9858      18.217919       0.10820
   3     718.7       73.0017        4.1472       86.0161       90.1633      17.161663       0.13274
   2     792.3       73.4382        4.5225       84.5970       89.1196      15.681356       0.16977
   1     891.5       15.8471       30.2099        0.0123       30.2222      14.375121       0.11115
   0    1013.0       16.0530       29.6165        0.0119       29.6284      13.575423       0.05553



 Wavenumbers: 16000. - 22650. cm-1, ATM      1
 LEVEL PRESSURE   UPWARD FLUX   DIFDOWN FLUX  DIRDOWN FLUX  DOWNWARD FLUX   NET FLUX    HEATING RATE
          mb          W/m2          W/m2          W/m2        W/m2          W/m2       degree/day
  51    .06700      127.1052        0.0000      156.3892      156.3892      29.284092       0.00000
  50    .07753      127.1051        0.0004      156.3887      156.3891      29.283951       0.11337
  49    .09103      127.1051        0.0009      156.3879      156.3888      29.283745       0.12859
  48    0.1069      127.1050        0.0014      156.3871      156.3885      29.283469       0.14664
  47    0.1255      127.1050        0.0020      156.3861      156.3881      29.283101       0.16715
  46    0.1487      127.1050        0.0028      156.3847      156.3876      29.282557       0.19806
  45    0.1794      127.1050        0.0039      156.3828      156.3868      29.281708       0.23321
  44    0.2165      127.1052        0.0052      156.3805      156.3857      29.280556       0.26210
  43    0.2613      127.1054        0.0068      156.3776      156.3844      29.278992       0.29466
  42    0.3336      127.1059        0.0093      156.3726      156.3819      29.276020       0.34652
  41    0.4307      127.1068        0.0126      156.3657      156.3784      29.271540       0.38952
  40    0.5894      127.1088        0.0181      156.3537      156.3718      29.262996       0.45436
  39     1.339      127.1276        0.0441      156.2834      156.3275      29.199873       0.71065
  38     1.782      127.1456        0.0593      156.2324      156.2917      29.146101       1.02374
  37     2.292      127.1728        0.0770      156.1641      156.2411      29.068267       1.28914
  36     2.964      127.2184        0.1001      156.0605      156.1606      28.942179       1.58278
  35     3.853      127.2926        0.1307      155.9041      156.0347      28.742118       1.89862
  34     5.035      127.4049        0.1712      155.6774      155.8486      28.443665       2.13203
  33     6.613      127.5620        0.2253      155.3656      155.5909      28.028946       2.21709
  32     8.786      127.7664        0.2981      154.9577      155.2558      27.489378       2.09548
  31     11.80      128.0319        0.4021      154.4153      154.8174      26.785514       1.97060
  30     15.07      128.2854        0.5136      153.8804      154.3940      26.108561       1.74776
  29     18.79      128.5435        0.6393      153.3191      153.9584      25.414894       1.57276
  28     23.16      128.8123        0.7860      152.7126      153.4985      24.686193       1.40907
  27     28.12      129.0815        0.9533      152.0755      153.0288      23.947344       1.25599
  26     33.73      129.3278        1.1404      151.4409      152.5814      23.253508       1.04320
  25     40.54      129.5620        1.3662      150.7637      152.1299      22.567913       0.85056
  24     48.69      129.7826        1.6381      150.0338      151.6720      21.889334       0.70222
  23     57.69      129.9653        1.9364      149.3151      151.2515      21.286161       0.56538
  22     68.43      130.1186        2.2911      148.5476      150.8387      20.720080       0.44502
  21     81.20      130.2132        2.7134      147.7517      150.4651      20.251915       0.30936
  20     96.49      130.2440        3.2160      146.9127      150.1286      19.884613       0.20272
  19     114.6      130.2384        3.8108      145.9763      149.7871      19.548692       0.15685
  18     136.5      130.2034        4.5129      144.9088      149.4217      19.218324       0.12703
  17     162.9      130.1359        5.3448      143.6785      149.0234      18.887494       0.10575
  16     196.4      129.9927        6.4177      142.1651      148.5828      18.590053       0.07487
  15     218.7      129.8783        7.1186      141.2033      148.3219      18.443559       0.05562
  14     243.0      129.7447        7.8768      140.1753      148.0522      18.307512       0.04719
  13     269.0      129.5901        8.6946      139.0797      147.7742      18.184179       0.04001
  12     297.5      129.4138        9.5736      137.9141      147.4877      18.073880       0.03271
  11     328.5      129.2192       10.5181      136.6676      147.1857      17.966462       0.02921
  10     361.9      129.0058       11.5287      135.3392      146.8679      17.862027       0.02642
   9     398.1      128.7730       12.6092      133.9235      146.5327      17.759666       0.02385
   8     437.6      128.5213       13.7614      132.4163      146.1776      17.656300       0.02210
   7     480.5      128.2503       14.9872      130.8147      145.8018      17.551564       0.02057
   6     533.0      127.9169       16.4832      128.8599      145.3431      17.426209       0.02017
   5     589.8      127.5615       18.0802      126.7679      144.8482      17.286668       0.02071
   4     651.6      127.1902       19.7795      124.5274      144.3069      17.116742       0.02324
   3     718.7      126.8088       21.5821      122.1285      143.7106      16.901848       0.02701
   2     792.3      126.4337       23.4857      119.5548      143.0405      16.606828       0.03384
   1     891.5       58.1241       74.3774        0.0173       74.3947      16.270585       0.02861
   0    1013.0       58.0789       73.9970        0.0167       74.0137      15.934793       0.02332



 Wavenumbers: 22650. - 29000. cm-1, ATM      1
 LEVEL PRESSURE   UPWARD FLUX   DIFDOWN FLUX  DIRDOWN FLUX  DOWNWARD FLUX   NET FLUX    HEATING RATE
          mb          W/m2          W/m2          W/m2        W/m2          W/m2       degree/day
  51    .06700       52.7629        0.0000       59.0156       59.0156       6.252744       0.00000
  50    .07753       52.7628        0.0004       59.0151       59.0155       6.252744      -0.00000
  49    .09103       52.7626        0.0010       59.0144       59.0154       6.252744       0.00000
  48    0.1069       52.7625        0.0016       59.0136       59.0152       6.252744      -0.00000
  47    0.1255       52.7623        0.0024       59.0127       59.0150       6.252744       0.00000
  46    0.1487       52.7621        0.0033       59.0115       59.0148       6.252744       0.00000
  45    0.1794       52.7618        0.0046       59.0099       59.0145       6.252744      -0.00000
  44    0.2165       52.7614        0.0061       59.0080       59.0141       6.252744       0.00000
  43    0.2613       52.7610        0.0079       59.0058       59.0137       6.252744       0.00000
  42    0.3336       52.7602        0.0108       59.0022       59.0130       6.252744      -0.00000
  41    0.4307       52.7593        0.0147       58.9973       59.0120       6.252744       0.00000
  40    0.5894       52.7577        0.0211       58.9894       59.0105       6.252744       0.00000
  39     1.339       52.7504        0.0514       58.9518       59.0031       6.252744      -0.00000
  38     1.782       52.7461        0.0691       58.9297       58.9988       6.252744       0.00000
  37     2.292       52.7411        0.0897       58.9042       58.9938       6.252744       0.00000
  36     2.964       52.7345        0.1166       58.8706       58.9873       6.252744       0.00000
  35     3.853       52.7259        0.1522       58.8264       58.9786       6.252744       0.00000
  34     5.035       52.7144        0.1995       58.7676       58.9671       6.252744      -0.00000
  33     6.613       52.6990        0.2627       58.6891       58.9517       6.252744       0.00000
  32     8.786       52.6783        0.3477       58.5834       58.9311       6.252744       0.00000
  31     11.80       52.6488        0.4691       58.4324       58.9015       6.252744       0.00000
  30     15.07       52.6171        0.5992       58.2706       58.8698       6.252744      -0.00000
  29     18.79       52.5813        0.7458       58.0882       58.8340       6.252744       0.00000
  28     23.16       52.5396        0.9167       57.8757       58.7924       6.252744      -0.00000
  27     28.12       52.4920        1.1114       57.6333       58.7448       6.252744       0.00000
  26     33.73       52.4389        1.3286       57.3631       58.6917       6.252744      -0.00000
  25     40.54       52.3750        1.5898       57.0379       58.6277       6.252744      -0.00000
  24     48.69       52.2981        1.9030       56.6479       58.5509       6.252744       0.00000
  23     57.69       52.2141        2.2448       56.2221       58.4669       6.252744      -0.00000
  22     68.43       52.1147        2.6488       55.7186       58.3674       6.252744       0.00000
  21     81.20       51.9969        3.1257       55.1239       58.2496       6.252744       0.00000
  20     96.49       51.8577        3.6877       54.4228       58.1105       6.252744      -0.00000
  19     114.6       51.6941        4.3458       53.6010       57.9468       6.252744       0.00000
  18     136.5       51.5024        5.1134       52.6418       57.7552       6.252744       0.00000
  17     162.9       51.2773        6.0097       51.5203       57.5301       6.252744       0.00000
  16     196.4       50.9905        7.1438       50.0994       57.2433       6.252744       0.00000
  15     218.7       50.8052        7.8717       49.1863       57.0580       6.252744       0.00000
  14     243.0       50.6065        8.6480       48.2113       56.8593       6.252744      -0.00000
  13     269.0       50.3942        9.4720       47.1749       56.6470       6.252744       0.00000
  12     297.5       50.1683       10.3428       46.0783       56.4211       6.252744      -0.00000
  11     328.5       49.9282       11.2614       44.9195       56.1810       6.252744      -0.00000
  10     361.9       49.6742       12.2251       43.7018       55.9269       6.252744      -0.00000
   9     398.1       49.4058       13.2335       42.4250       55.6586       6.252744       0.00000
   8     437.6       49.1233       14.2844       41.0916       55.3760       6.252744      -0.00000
   7     480.5       48.8267       15.3750       39.7045       55.0794       6.252744       0.00000
   6     533.0       48.4700       16.6685       38.0543       54.7228       6.252744      -0.00000
   5     589.8       48.0955       18.0052       36.3431       54.3482       6.252744       0.00000
   4     651.6       47.7039       19.3771       34.5795       53.9566       6.252744      -0.00000
   3     718.7       47.2955       20.7781       32.7702       53.5483       6.252744      -0.00000
   2     792.3       46.8716       22.1988       30.9256       53.1243       6.252744       0.00000
   1     891.5       23.0050       29.2529        0.0043       29.2571       6.252163       0.00005
   0    1013.0       22.7875       29.0358        0.0039       29.0397       6.252163      -0.00000



 Wavenumbers: 29000. - 38000. cm-1, ATM      1
 LEVEL PRESSURE   UPWARD FLUX   DIFDOWN FLUX  DIRDOWN FLUX  DOWNWARD FLUX   NET FLUX    HEATING RATE
          mb          W/m2          W/m2          W/m2        W/m2          W/m2       degree/day
  51    .06700        7.9844        0.0000       20.8114       20.8114      12.826967       0.00000
  50    .07753        7.9842        0.0003       20.8070       20.8074      12.823161       3.05076
  49    .09103        7.9840        0.0007       20.8009       20.8016      12.817626       3.45994
  48    0.1069        7.9837        0.0012       20.7928       20.7939      12.810218       3.94324
  47    0.1255        7.9834        0.0017       20.7820       20.7837      12.800316       4.48913
  46    0.1487        7.9830        0.0023       20.7665       20.7688      12.785756       5.30698
  45    0.1794        7.9826        0.0032       20.7424       20.7457      12.763098       6.22029
  44    0.2165        7.9820        0.0043       20.7103       20.7146      12.732584       6.94140
  43    0.2613        7.9814        0.0055       20.6675       20.6730      12.691601       7.72504
  42    0.3336        7.9805        0.0076       20.5880       20.5955      12.615064       8.92350
  41    0.4307        7.9793        0.0102       20.4722       20.4824      12.503148       9.73087
  40    0.5894        7.9776        0.0145       20.2637       20.2781      12.300535      10.77470
  39     1.339        7.9733        0.0326       19.0984       19.1309      11.157596      12.86742
  38     1.782        7.9732        0.0419       18.4394       18.4813      10.508126      12.36486
  37     2.292        7.9750        0.0520       17.7714       17.8234       9.848426      10.92635
  36     2.964        7.9802        0.0644       17.0421       17.1065       9.126328       9.06451
  35     3.853        7.9910        0.0799       16.2678       16.3477       8.356754       7.30340
  34     5.035        8.0092        0.0995       15.4803       15.5798       7.570627       5.61576
  33     6.613        8.0360        0.1246       14.7157       14.8403       6.804313       4.09672
  32     8.786        8.0714        0.1574       13.9936       14.1510       6.079617       2.81446
  31     11.80        8.1174        0.2031       13.2835       13.4866       5.369236       1.98884
  30     15.07        8.1616        0.2504       12.7394       12.9898       4.828204       1.39684
  29     18.79        8.2070        0.3028       12.2666       12.5694       4.362428       1.05606
  28     23.16        8.2550        0.3623       11.8300       12.1924       3.937375       0.82191
  27     28.12        8.3038        0.4289       11.4279       11.8568       3.553016       0.65338
  26     33.73        8.3481        0.5023       11.0695       11.5717       3.223628       0.49524
  25     40.54        8.3891        0.5899       10.7209       11.3107       2.921685       0.37459
  24     48.69        8.4263        0.6936       10.3742       11.0678       2.641489       0.28996
  23     57.69        8.4552        0.8059       10.0549       10.8608       2.405568       0.22114
  22     68.43        8.4760        0.9374        9.7327       10.6702       2.194192       0.16617
  21     81.20        8.4800        1.0926        9.4134       10.5060       2.025965       0.11116
  20     96.49        8.4654        1.2748        9.0887       10.3635       1.898143       0.07055
  19     114.6        8.4392        1.4850        8.7388       10.2238       1.784580       0.05303
  18     136.5        8.4039        1.7248        8.3549       10.0797       1.675843       0.04181
  17     162.9        8.3591        1.9976        7.9311        9.9287       1.569627       0.03395
  16     196.4        8.2914        2.3345        7.4333        9.7678       1.476397       0.02347
  15     218.7        8.2444        2.5459        7.1295        9.6754       1.431041       0.01722
  14     243.0        8.1931        2.7663        6.8161        9.5823       1.389244       0.01450
  13     269.0        8.1374        2.9948        6.4943        9.4892       1.351795       0.01215
  12     297.5        8.0772        3.2303        6.1657        9.3961       1.318858       0.00977
  11     328.5        8.0139        3.4718        5.8295        9.3013       1.287402       0.00855
  10     361.9        7.9477        3.7166        5.4886        9.2053       1.257567       0.00755
   9     398.1        7.8787        3.9641        5.1440        9.1081       1.229375       0.00657
   8     437.6        7.8074        4.2127        4.7969        9.0097       1.202283       0.00579
   7     480.5        7.7340        4.4602        4.4504        8.9106       1.176653       0.00503
   6     533.0        7.6476        4.7402        4.0563        8.7964       1.148824       0.00448
   5     589.8        7.5596        5.0134        3.6682        8.6816       1.122003       0.00398
   4     651.6        7.4707        5.2760        3.2905        8.5666       1.095892       0.00357
   3     718.7        7.3810        5.5263        2.9252        8.4515       1.070456       0.00320
   2     792.3        7.2914        5.7606        2.5764        8.3371       1.045705       0.00284
   1     891.5        3.7301        4.7528        0.0003        4.7532       1.023072       0.00193
   0    1013.0        3.6644        4.6696        0.0003        4.6698       1.005408       0.00123



 Wavenumbers: 38000. - 50000. cm-1, ATM      1
 LEVEL PRESSURE   UPWARD FLUX   DIFDOWN FLUX  DIRDOWN FLUX  DOWNWARD FLUX   NET FLUX    HEATING RATE
          mb          W/m2          W/m2          W/m2        W/m2          W/m2       degree/day
  51    .06700        0.0061        0.0000        1.2836        1.2836       1.277518       0.00000
  50    .07753        0.0061        0.0001        1.2812        1.2812       1.275183       1.87150
  49    .09103        0.0060        0.0002        1.2777        1.2778       1.271851       2.08247
  48    0.1069        0.0059        0.0002        1.2731        1.2734       1.267473       2.33059
  47    0.1255        0.0058        0.0004        1.2672        1.2675       1.261717       2.60908
  46    0.1487        0.0057        0.0005        1.2586        1.2591       1.253391       3.03499
  45    0.1794        0.0055        0.0007        1.2455        1.2462       1.240623       3.50520
  44    0.2165        0.0054        0.0009        1.2282        1.2291       1.223697       3.85037
  43    0.2613        0.0052        0.0011        1.2054        1.2065       1.201348       4.21261
  42    0.3336        0.0049        0.0015        1.1639        1.1654       1.160524       4.75970
  41    0.4307        0.0045        0.0020        1.1051        1.1070       1.102565       5.03943
  40    0.5894        0.0039        0.0026        1.0039        1.0064       1.002524       5.32007
  39     1.339        0.0022        0.0035        0.5438        0.5473       0.545104       5.14971
  38     1.782        0.0016        0.0032        0.3635        0.3666       0.365006       3.42879
  37     2.292        0.0012        0.0027        0.2356        0.2383       0.237058       2.11916
  36     2.964        0.0009        0.0022        0.1455        0.1477       0.146786       1.13318
  35     3.853        0.0006        0.0017        0.0858        0.0875       0.086906       0.56828
  34     5.035        0.0004        0.0013        0.0488        0.0501       0.049701       0.26578
  33     6.613        0.0003        0.0010        0.0273        0.0282       0.027974       0.11615
  32     8.786        0.0002        0.0007        0.0144        0.0151       0.014928       0.05067
  31     11.80        0.0001        0.0004        0.0065        0.0070       0.006903       0.02247
  30     15.07        0.0000        0.0003        0.0031        0.0034       0.003329       0.00923
  29     18.79        0.0000        0.0002        0.0014        0.0016       0.001583       0.00396
  28     23.16        0.0000        0.0001        0.0006        0.0007       0.000720       0.00167
  27     28.12        0.0000        0.0001        0.0003        0.0003       0.000317       0.00069
  26     33.73        0.0000        0.0000        0.0001        0.0001       0.000140       0.00027
  25     40.54        0.0000        0.0000        0.0000        0.0001       0.000057       0.00010
  24     48.69        0.0000        0.0000        0.0000        0.0000       0.000021       0.00004
  23     57.69        0.0000        0.0000        0.0000        0.0000       0.000008       0.00001
  22     68.43        0.0000        0.0000        0.0000        0.0000       0.000003       0.00000
  21     81.20        0.0000        0.0000        0.0000        0.0000       0.000001       0.00000
  20     96.49        0.0000        0.0000        0.0000        0.0000       0.000000       0.00000
  19     114.6        0.0000        0.0000        0.0000        0.0000       0.000000       0.00000
  18     136.5        0.0000        0.0000        0.0000        0.0000       0.000000       0.00000
  17     162.9        0.0000        0.0000        0.0000        0.0000       0.000000       0.00000
  16     196.4        0.0000        0.0000        0.0000        0.0000       0.000000       0.00000
  15     218.7        0.0000        0.0000        0.0000        0.0000       0.000000       0.00000
  14     243.0        0.0000        0.0000        0.0000        0.0000       0.000000       0.00000
  13     269.0        0.0000        0.0000        0.0000        0.0000       0.000000       0.00000
  12     297.5        0.0000        0.0000        0.0000        0.0000       0.000000       0.00000
  11     328.5        0.0000        0.0000        0.0000        0.0000       0.000000       0.00000
  10     361.9        0.0000        0.0000        0.0000        0.0000       0.000000       0.00000
   9     398.1        0.0000        0.0000        0.0000        0.0000       0.000000       0.00000
   8     437.6        0.0000        0.0000        0.0000        0.0000       0.000000       0.00000
   7     480.5        0.0000        0.0000        0.0000        0.0000       0.000000       0.00000
   6     533.0        0.0000        0.0000        0.0000        0.0000       0.000000       0.00000
   5     589.8        0.0000        0.0000        0.0000        0.0000       0.000000       0.00000
   4     651.6        0.0000        0.0000        0.0000        0.0000       0.000000       0.00000
   3     718.7        0.0000        0.0000        0.0000        0.0000       0.000000       0.00000
   2     792.3        0.0000        0.0000        0.0000        0.0000       0.000000       0.00000
   1     891.5        0.0000        0.0000        0.0000        0.0000       0.000000       0.00000
   0    1013.0        0.0000        0.0000        0.0000        0.0000       0.000000       0.00000



 Wavenumbers:   820. -  2600. cm-1, ATM      1
 LEVEL PRESSURE   UPWARD FLUX   DIFDOWN FLUX  DIRDOWN FLUX  DOWNWARD FLUX   NET FLUX    HEATING RATE
          mb          W/m2          W/m2          W/m2        W/m2          W/m2       degree/day
  51    .06700        1.4452        0.0000        6.0047        6.0047       4.559456       0.00000
  50    .07753        1.4452        0.0000        6.0008        6.0008       4.555603       3.08825
  49    .09103        1.4452        0.0000        5.9999        5.9999       4.554718       0.55361
  48    0.1069        1.4452        0.0000        5.9989        5.9989       4.553728       0.52656
  47    0.1255        1.4452        0.0000        5.9978        5.9978       4.552611       0.50653
  46    0.1487        1.4452        0.0000        5.9964        5.9964       4.551254       0.49461
  45    0.1794        1.4452        0.0000        5.9947        5.9947       4.549535       0.47204
  44    0.2165        1.4452        0.0000        5.9929        5.9929       4.547692       0.41914
  43    0.2613        1.4452        0.0000        5.9909        5.9909       4.545733       0.36937
  42    0.3336        1.4452        0.0000        5.9880        5.9880       4.542854       0.33561
  41    0.4307        1.4452        0.0000        5.9846        5.9846       4.539384       0.30169
  40    0.5894        1.4452        0.0000        5.9791        5.9791       4.533878       0.29281
  39     1.339        1.4452        0.0000        5.9536        5.9536       4.508386       0.28699
  38     1.782        1.4452        0.0000        5.9395        5.9395       4.494245       0.26922
  37     2.292        1.4452        0.0000        5.9237        5.9237       4.478491       0.26093
  36     2.964        1.4452        0.0000        5.9039        5.9039       4.458713       0.24827
  35     3.853        1.4452        0.0000        5.8793        5.8793       4.434052       0.23404
  34     5.035        1.4452        0.0000        5.8487        5.8487       4.403482       0.21838
  33     6.613        1.4453        0.0000        5.8108        5.8108       4.365508       0.20301
  32     8.786        1.4453        0.0000        5.7631        5.7631       4.317872       0.18500
  31     11.80        1.4453        0.0000        5.7039        5.7039       4.258596       0.16595
  30     15.07        1.4453        0.0000        5.6539        5.6539       4.208536       0.12924
  29     18.79        1.4454        0.0000        5.6127        5.6127       4.167377       0.09332
  28     23.16        1.4454        0.0000        5.5794        5.5794       4.133971       0.06460
  27     28.12        1.4454        0.0000        5.5518        5.5518       4.106370       0.04692
  26     33.73        1.4455        0.0000        5.5268        5.5268       4.081277       0.03773
  25     40.54        1.4455        0.0000        5.4993        5.4993       4.053784       0.03411
  24     48.69        1.4456        0.0000        5.4678        5.4678       4.022182       0.03270
  23     57.69        1.4457        0.0000        5.4340        5.4340       3.988324       0.03174
  22     68.43        1.4458        0.0000        5.3947        5.3948       3.948966       0.03094
  21     81.20        1.4459        0.0000        5.3497        5.3497       3.903827       0.02983
  20     96.49        1.4460        0.0000        5.2982        5.2982       3.852182       0.02850
  19     114.6        1.4462        0.0000        5.2389        5.2389       3.792698       0.02778
  18     136.5        1.4464        0.0000        5.1716        5.1717       3.725236       0.02594
  17     162.9        1.4467        0.0000        5.0890        5.0891       3.642312       0.02651
  16     196.4        1.4473        0.0000        4.9668        4.9668       3.519564       0.03090
  15     218.7        1.4478        0.0000        4.8585        4.8585       3.410688       0.04134
  14     243.0        1.4486        0.0000        4.7078        4.7079       3.259243       0.05253
  13     269.0        1.4499        0.0000        4.5343        4.5343       3.084434       0.05671
  12     297.5        1.4518        0.0000        4.3419        4.3420       2.890147       0.05762
  11     328.5        1.4545        0.0000        4.1281        4.1281       2.673686       0.05885
  10     361.9        1.4580        0.0000        3.8786        3.8787       2.420716       0.06400
   9     398.1        1.4625        0.0000        3.6159        3.6160       2.153455       0.06227
   8     437.6        1.4684        0.0000        3.3759        3.3759       1.907519       0.05258
   7     480.5        1.4756        0.0000        3.1957        3.1958       1.720216       0.03679
   6     533.0        1.4865        0.0000        3.0467        3.0467       1.560203       0.02574
   5     589.8        1.5026        0.0001        2.9023        2.9023       1.399686       0.02383
   4     651.6        1.5307        0.0001        2.7183        2.7184       1.187690       0.02899
   3     718.7        1.5793        0.0001        2.5058        2.5059       0.926521       0.03282
   2     792.3        1.6738        0.0001        2.2756        2.2757       0.601868       0.03723
   1     891.5        0.0744        0.4373        0.0003        0.4376       0.363243       0.02031
   0    1013.0        0.0894        0.3565        0.0002        0.3567       0.267267       0.00666

  Modules and versions used in this calculation:

       rrtmg_sw.1col.f90:  $Revision$                    rrtmg_sw_init.f90:  $Revision$        
     rrtmgsw_cldprop.f90:  $Revision$                  rrtmgsw_cldprmc.f90:  NOT USED          
     rrtmg_sw_reftra.f90:  $Revision$                  rrtmg_sw_spcvrt.f90:  NOT USED          
     rrtmg_sw_spcvmc.f90:  NOT USED                    rrtmgsw_setcoef.f90:  NOT USED          
     rrtmg_sw_taumol.f90:  $Revision$                  rrtmg_sw_vrtqdr.f90:  NOT USED          
                rrtatm.f:  NOT USED                             util_xxx.f:  NOT USED          
                 extra.f:  NOT USED                       rrtmg_sw_k_g.f90:  $Revision$        

