

 Wavenumbers:   820. - 50000. cm-1, ATM      1
 LEVEL PRESSURE   UPWARD FLUX   DIFDOWN FLUX  DIRDOWN FLUX  DOWNWARD FLUX   NET FLUX    HEATING RATE
          mb          W/m2          W/m2          W/m2        W/m2          W/m2       degree/day
  51    .06700      309.1150        0.0000      617.8126      617.8126     308.697593       0.00000
  50    .07753      309.1145        0.0013      617.7947      617.7960     308.681471      12.92134
  49    .09103      309.1140        0.0029      617.7778      617.7806     308.666689       9.23943
  48    0.1069      309.1133        0.0047      617.7581      617.7628     308.649464       9.16908
  47    0.1255      309.1126        0.0068      617.7340      617.7408     308.628167       9.65484
  46    0.1487      309.1118        0.0095      617.7009      617.7104     308.598552      10.79503
  45    0.1794      309.1108        0.0131      617.6521      617.6652     308.554431      12.11230
  44    0.2165      309.1097        0.0174      617.5895      617.6069     308.497258      13.00582
  43    0.2613      309.1085        0.0225      617.5089      617.5314     308.422946      14.00747
  42    0.3336      309.1067        0.0309      617.3641      617.3950     308.288243      15.70513
  41    0.4307      309.1048        0.0418      617.1591      617.2010     308.096193      16.69825
  40    0.5894      309.1024        0.0596      616.8005      616.8600     307.757596      18.00616
  39     1.339      309.1067        0.1395      614.9443      615.0837     305.977041      20.04582
  38     1.782      309.1197        0.1843      613.9670      614.1513     305.031619      17.99932
  37     2.292      309.1443        0.2353      613.0059      613.2411     304.096871      15.48185
  36     2.964      309.1908        0.3015      611.9577      612.2591     303.068335      12.91123
  35     3.853      309.2720        0.3882      610.8024      611.1906     301.918579      10.91139
  34     5.035      309.3995        0.5026      609.5327      610.0353     300.635870       9.16314
  33     6.613      309.5802        0.6544      608.1464      608.8009     299.220675       7.56564
  32     8.786      309.8150        0.8580      606.6250      607.4831     297.668075       6.02973
  31     11.80      310.1159        1.1478      604.8486      605.9964     295.880522       5.00459
  30     15.07      310.3982        1.4568      603.2440      604.7008     294.302524       4.07408
  29     18.79      310.6807        1.8043      601.6511      603.4555     292.774739       3.46396
  28     23.16      310.9688        2.2080      599.9927      602.2007     291.231896       2.98336
  27     28.12      311.2490        2.6671      598.2881      600.9552     289.706199       2.59358
  26     33.73      311.4905        3.1788      596.5951      599.7739     288.283335       2.13931
  25     40.54      311.6984        3.7945      594.7727      598.5672     286.868812       1.75488
  24     48.69      311.8676        4.5329      592.7865      597.3194     285.451732       1.46646
  23     57.69      311.9747        5.3395      590.7959      596.1354     284.160737       1.21011
  22     68.43      312.0166        6.2945      588.6191      594.9136     282.897016       0.99345
  21     81.20      311.9474        7.4259      586.2690      593.6949     281.747421       0.75963
  20     96.49      311.7548        8.7644      583.6961      592.4605     280.705658       0.57498
  19     114.6      311.4806       10.3372      580.7708      591.1080     279.627429       0.50346
  18     136.5      311.1201       12.1766      577.4359      589.6125     278.492430       0.43643
  17     162.9      310.6608       14.3321      573.5624      587.8945     277.233680       0.40235
  16     196.4      309.9957       17.0759      568.5907      585.6666     275.670940       0.39336
  15     218.7      309.5362       18.8470      565.0572      583.9042     274.367932       0.49470
  14     243.0      309.0301       20.7438      560.7495      581.4934     272.463232       0.66061
  13     269.0      308.4765       22.7672      555.3947      578.1618     269.685331       0.90114
  12     297.5      307.8772       24.9168      548.9964      573.9132     266.035989       1.08236
  11     328.5      307.2374       27.1979      542.0895      569.2875     262.050104       1.08375
  10     361.9      306.5605       29.6060      534.6242      564.2303     257.669746       1.10827
   9     398.1      305.8501       32.1443      526.4204      558.5648     252.714618       1.15443
   8     437.6      305.1164       34.8104      517.3907      552.2010     247.084633       1.20373
   7     480.5      304.3693       37.6010      507.7216      545.3226     240.953260       1.20418
   6     533.0      303.5223       40.9453      495.9006      536.8459     233.323682       1.22736
   5     589.8      302.7388       44.4412      483.0788      527.5200     224.781217       1.26798
   4     651.6      302.1582       48.0739      468.6907      516.7646     214.606404       1.39143
   3     718.7      301.9640       51.8336      453.2257      505.0593     203.095349       1.44662
   2     792.3      302.6325       55.6969      436.4928      492.1897     189.557243       1.55267
   1     891.5      210.1056      211.9891      171.5133      383.5024     173.396815       1.37517
   0    1013.0      211.4163      208.6222      160.9387      369.5609     158.144581       1.05904



 Wavenumbers:  2600. -  3250. cm-1, ATM      1
 LEVEL PRESSURE   UPWARD FLUX   DIFDOWN FLUX  DIRDOWN FLUX  DOWNWARD FLUX   NET FLUX    HEATING RATE
          mb          W/m2          W/m2          W/m2        W/m2          W/m2       degree/day
  51    .06700        0.9275        0.0000        5.4450        5.4450       4.517512       0.00000
  50    .07753        0.9275        0.0000        5.4450        5.4450       4.517504       0.00640
  49    .09103        0.9275        0.0000        5.4450        5.4450       4.517494       0.00627
  48    0.1069        0.9275        0.0000        5.4450        5.4450       4.517482       0.00613
  47    0.1255        0.9275        0.0000        5.4450        5.4450       4.517469       0.00599
  46    0.1487        0.9275        0.0000        5.4450        5.4450       4.517452       0.00608
  45    0.1794        0.9275        0.0000        5.4450        5.4450       4.517429       0.00625
  44    0.2165        0.9275        0.0000        5.4449        5.4449       4.517402       0.00612
  43    0.2613        0.9275        0.0000        5.4449        5.4449       4.517371       0.00600
  42    0.3336        0.9275        0.0000        5.4448        5.4448       4.517318       0.00617
  41    0.4307        0.9275        0.0000        5.4448        5.4448       4.517246       0.00620
  40    0.5894        0.9275        0.0000        5.4446        5.4446       4.517127       0.00637
  39     1.339        0.9275        0.0000        5.4439        5.4439       4.516419       0.00797
  38     1.782        0.9275        0.0000        5.4434        5.4434       4.515876       0.01034
  37     2.292        0.9275        0.0000        5.4427        5.4427       4.515160       0.01186
  36     2.964        0.9275        0.0000        5.4416        5.4416       4.514122       0.01304
  35     3.853        0.9275        0.0000        5.4402        5.4402       4.512644       0.01402
  34     5.035        0.9275        0.0000        5.4381        5.4381       4.510589       0.01468
  33     6.613        0.9275        0.0000        5.4353        5.4353       4.507807       0.01487
  32     8.786        0.9275        0.0000        5.4317        5.4317       4.504175       0.01411
  31     11.80        0.9275        0.0000        5.4269        5.4269       4.499394       0.01338
  30     15.07        0.9275        0.0000        5.4224        5.4224       4.494867       0.01169
  29     18.79        0.9275        0.0000        5.4180        5.4180       4.490454       0.01001
  28     23.16        0.9275        0.0000        5.4135        5.4135       4.485966       0.00868
  27     28.12        0.9275        0.0000        5.4088        5.4088       4.481315       0.00791
  26     33.73        0.9275        0.0000        5.4036        5.4036       4.476071       0.00789
  25     40.54        0.9275        0.0000        5.3966        5.3967       4.469123       0.00862
  24     48.69        0.9275        0.0000        5.3872        5.3872       4.459637       0.00982
  23     57.69        0.9276        0.0000        5.3754        5.3754       4.447840       0.01106
  22     68.43        0.9276        0.0000        5.3599        5.3599       4.432333       0.01219
  21     81.20        0.9276        0.0000        5.3401        5.3401       4.412472       0.01312
  20     96.49        0.9277        0.0000        5.3155        5.3155       4.387866       0.01358
  19     114.6        0.9277        0.0000        5.2853        5.2854       4.357614       0.01413
  18     136.5        0.9278        0.0001        5.2504        5.2505       4.322629       0.01345
  17     162.9        0.9280        0.0001        5.2111        5.2112       4.283173       0.01261
  16     196.4        0.9282        0.0001        5.1640        5.1641       4.235892       0.01190
  15     218.7        0.9285        0.0001        5.1331        5.1332       4.204726       0.01183
  14     243.0        0.9289        0.0001        5.0962        5.0963       4.167428       0.01294
  13     269.0        0.9295        0.0001        5.0511        5.0512       4.121670       0.01484
  12     297.5        0.9305        0.0001        4.9956        4.9957       4.065218       0.01674
  11     328.5        0.9319        0.0001        4.9304        4.9305       3.998633       0.01810
  10     361.9        0.9337        0.0001        4.8511        4.8512       3.917500       0.02053
   9     398.1        0.9363        0.0001        4.7507        4.7508       3.814517       0.02399
   8     437.6        0.9399        0.0002        4.6220        4.6222       3.682310       0.02827
   7     480.5        0.9448        0.0002        4.4625        4.4626       3.517828       0.03230
   6     533.0        0.9528        0.0002        4.2460        4.2462       3.293384       0.03611
   5     589.8        0.9650        0.0002        3.9954        3.9956       3.030566       0.03901
   4     651.6        0.9850        0.0002        3.7089        3.7090       2.723997       0.04192
   3     718.7        1.0179        0.0002        3.4018        3.4020       2.384104       0.04272
   2     792.3        1.0769        0.0002        3.0564        3.0566       1.979701       0.04638
   1     891.5        0.3741        0.8116        1.0700        1.8816       1.507456       0.04019
   0    1013.0        0.4318        0.6719        0.8636        1.5355       1.103669       0.02804



 Wavenumbers:  3250. -  4000. cm-1, ATM      1
 LEVEL PRESSURE   UPWARD FLUX   DIFDOWN FLUX  DIRDOWN FLUX  DOWNWARD FLUX   NET FLUX    HEATING RATE
          mb          W/m2          W/m2          W/m2        W/m2          W/m2       degree/day
  51    .06700        0.0174        0.0000        9.1795        9.1795       9.162104       0.00000
  50    .07753        0.0174        0.0000        9.1747        9.1747       9.157262       3.88148
  49    .09103        0.0174        0.0000        9.1713        9.1713       9.153874       2.11747
  48    0.1069        0.0174        0.0000        9.1688        9.1688       9.151349       1.34402
  47    0.1255        0.0174        0.0000        9.1665        9.1665       9.149090       1.02422
  46    0.1487        0.0174        0.0000        9.1641        9.1641       9.146648       0.88991
  45    0.1794        0.0174        0.0000        9.1612        9.1612       9.143771       0.79008
  44    0.2165        0.0174        0.0000        9.1583        9.1583       9.140850       0.66430
  43    0.2613        0.0174        0.0000        9.1553        9.1553       9.137877       0.56041
  42    0.3336        0.0174        0.0000        9.1511        9.1511       9.133698       0.48723
  41    0.4307        0.0174        0.0000        9.1464        9.1464       9.128930       0.41459
  40    0.5894        0.0174        0.0000        9.1393        9.1394       9.121924       0.37255
  39     1.339        0.0174        0.0000        9.1127        9.1127       9.095311       0.29962
  38     1.782        0.0174        0.0000        9.1011        9.1011       9.083723       0.22062
  37     2.292        0.0174        0.0000        9.0901        9.0901       9.072656       0.18329
  36     2.964        0.0174        0.0000        9.0776        9.0776       9.060226       0.15603
  35     3.853        0.0174        0.0000        9.0629        9.0629       9.045436       0.14036
  34     5.035        0.0174        0.0000        9.0441        9.0441       9.026697       0.13386
  33     6.613        0.0174        0.0000        9.0191        9.0191       9.001695       0.13366
  32     8.786        0.0174        0.0000        8.9843        8.9843       8.966912       0.13509
  31     11.80        0.0174        0.0000        8.9327        8.9327       8.915295       0.14451
  30     15.07        0.0174        0.0000        8.8758        8.8759       8.858451       0.14676
  29     18.79        0.0174        0.0000        8.8110        8.8110       8.793623       0.14698
  28     23.16        0.0174        0.0000        8.7365        8.7366       8.719178       0.14395
  27     28.12        0.0174        0.0000        8.6554        8.6555       8.638065       0.13789
  26     33.73        0.0174        0.0000        8.5719        8.5719       8.554566       0.12554
  25     40.54        0.0174        0.0001        8.4812        8.4812       8.463842       0.11255
  24     48.69        0.0174        0.0001        8.3838        8.3839       8.366541       0.10069
  23     57.69        0.0173        0.0001        8.2861        8.2862       8.268805       0.09161
  22     68.43        0.0173        0.0001        8.1751        8.1751       8.157809       0.08726
  21     81.20        0.0173        0.0001        8.0457        8.0458       8.028451       0.08548
  20     96.49        0.0173        0.0001        7.8949        7.8950       7.877747       0.08318
  19     114.6        0.0173        0.0001        7.7162        7.7163       7.699038       0.08344
  18     136.5        0.0173        0.0002        7.5193        7.5195       7.502194       0.07569
  17     162.9        0.0172        0.0002        7.2913        7.2915       7.274302       0.07284
  16     196.4        0.0172        0.0002        6.9660        6.9662       6.949028       0.08188
  15     218.7        0.0172        0.0002        6.6648        6.6650       6.647837       0.11435
  14     243.0        0.0172        0.0002        6.2619        6.2622       6.245035       0.13970
  13     269.0        0.0172        0.0003        5.7576        5.7579       5.740718       0.16360
  12     297.5        0.0172        0.0003        5.1719        5.1722       5.154991       0.17372
  11     328.5        0.0172        0.0002        4.5757        4.5760       4.558767       0.16211
  10     361.9        0.0173        0.0002        3.9995        3.9998       3.982484       0.14581
   9     398.1        0.0175        0.0002        3.4655        3.4657       3.448253       0.12446
   8     437.6        0.0177        0.0002        2.9740        2.9743       2.956514       0.10514
   7     480.5        0.0182        0.0002        2.5307        2.5309       2.512669       0.08717
   6     533.0        0.0191        0.0002        2.0614        2.0616       2.042463       0.07564
   5     589.8        0.0208        0.0002        1.6150        1.6151       1.594370       0.06651
   4     651.6        0.0242        0.0001        1.1565        1.1566       1.132350       0.06318
   3     718.7        0.0319        0.0001        0.7390        0.7391       0.707196       0.05343
   2     792.3        0.0523        0.0001        0.3985        0.3985       0.346207       0.04140
   1     891.5        0.0002        0.0325        0.0472        0.0797       0.079489       0.02270
   0    1013.0        0.0020        0.0034        0.0039        0.0073       0.005226       0.00516



 Wavenumbers:  4000. -  4650. cm-1, ATM      1
 LEVEL PRESSURE   UPWARD FLUX   DIFDOWN FLUX  DIRDOWN FLUX  DOWNWARD FLUX   NET FLUX    HEATING RATE
          mb          W/m2          W/m2          W/m2        W/m2          W/m2       degree/day
  51    .06700        3.2235        0.0000       10.7795       10.7795       7.556056       0.00000
  50    .07753        3.2235        0.0000       10.7795       10.7795       7.556055       0.00080
  49    .09103        3.2235        0.0000       10.7795       10.7795       7.556054       0.00078
  48    0.1069        3.2235        0.0000       10.7795       10.7795       7.556053       0.00076
  47    0.1255        3.2235        0.0000       10.7795       10.7795       7.556051       0.00075
  46    0.1487        3.2235        0.0000       10.7795       10.7795       7.556049       0.00076
  45    0.1794        3.2235        0.0000       10.7795       10.7795       7.556046       0.00078
  44    0.2165        3.2235        0.0000       10.7795       10.7795       7.556043       0.00076
  43    0.2613        3.2235        0.0000       10.7795       10.7795       7.556039       0.00075
  42    0.3336        3.2235        0.0000       10.7795       10.7795       7.556032       0.00077
  41    0.4307        3.2235        0.0000       10.7795       10.7795       7.556023       0.00077
  40    0.5894        3.2235        0.0000       10.7795       10.7795       7.556008       0.00080
  39     1.339        3.2235        0.0000       10.7794       10.7794       7.555919       0.00101
  38     1.782        3.2235        0.0000       10.7793       10.7793       7.555849       0.00133
  37     2.292        3.2235        0.0000       10.7792       10.7792       7.555755       0.00156
  36     2.964        3.2235        0.0000       10.7791       10.7791       7.555614       0.00176
  35     3.853        3.2235        0.0000       10.7789       10.7789       7.555406       0.00197
  34     5.035        3.2235        0.0000       10.7786       10.7786       7.555099       0.00219
  33     6.613        3.2235        0.0000       10.7781       10.7781       7.554648       0.00242
  32     8.786        3.2235        0.0000       10.7774       10.7774       7.553981       0.00259
  31     11.80        3.2235        0.0001       10.7763       10.7764       7.552933       0.00293
  30     15.07        3.2235        0.0001       10.7751       10.7752       7.551703       0.00317
  29     18.79        3.2234        0.0001       10.7736       10.7737       7.550217       0.00337
  28     23.16        3.2234        0.0001       10.7717       10.7718       7.548371       0.00357
  27     28.12        3.2234        0.0001       10.7695       10.7696       7.546137       0.00380
  26     33.73        3.2234        0.0001       10.7667       10.7668       7.543382       0.00414
  25     40.54        3.2234        0.0002       10.7629       10.7631       7.539646       0.00464
  24     48.69        3.2235        0.0002       10.7579       10.7581       7.534668       0.00515
  23     57.69        3.2235        0.0002       10.7520       10.7522       7.528767       0.00553
  22     68.43        3.2235        0.0003       10.7446       10.7449       7.521373       0.00581
  21     81.20        3.2236        0.0003       10.7355       10.7359       7.512269       0.00602
  20     96.49        3.2237        0.0004       10.7245       10.7249       7.501193       0.00611
  19     114.6        3.2239        0.0005       10.7107       10.7112       7.487348       0.00646
  18     136.5        3.2241        0.0006       10.6942       10.6948       7.470673       0.00641
  17     162.9        3.2245        0.0007       10.6740       10.6747       7.450239       0.00653
  16     196.4        3.2251        0.0008       10.6464       10.6472       7.422072       0.00709
  15     218.7        3.2257        0.0009       10.6255       10.6264       7.400660       0.00813
  14     243.0        3.2266        0.0010       10.5980       10.5991       7.372456       0.00978
  13     269.0        3.2280        0.0011       10.5611       10.5622       7.334246       0.01240
  12     297.5        3.2300        0.0012       10.5119       10.5132       7.283204       0.01514
  11     328.5        3.2327        0.0014       10.4499       10.4512       7.218481       0.01760
  10     361.9        3.2364        0.0015       10.3702       10.3717       7.135257       0.02106
   9     398.1        3.2410        0.0016       10.2678       10.2694       7.028401       0.02490
   8     437.6        3.2468        0.0018       10.1390       10.1408       6.893906       0.02876
   7     480.5        3.2543        0.0019        9.9877        9.9896       6.735305       0.03115
   6     533.0        3.2657        0.0021        9.7937        9.7958       6.530041       0.03302
   5     589.8        3.2821        0.0023        9.5752        9.5774       6.295289       0.03484
   4     651.6        3.3083        0.0024        9.2958        9.2982       5.989911       0.04176
   3     718.7        3.3517        0.0026        8.9267        8.9293       5.577587       0.05182
   2     792.3        3.4315        0.0028        8.4542        8.4570       5.025510       0.06332
   1     891.5        1.3845        2.5182        3.2298        5.7480       4.363462       0.05634
   0    1013.0        1.4747        2.3152        2.9322        5.2474       3.772670       0.04102



 Wavenumbers:  4650. -  5150. cm-1, ATM      1
 LEVEL PRESSURE   UPWARD FLUX   DIFDOWN FLUX  DIRDOWN FLUX  DOWNWARD FLUX   NET FLUX    HEATING RATE
          mb          W/m2          W/m2          W/m2        W/m2          W/m2       degree/day
  51    .06700        2.3096        0.0000       10.2033       10.2033       7.893695       0.00000
  50    .07753        2.3096        0.0000       10.2031       10.2031       7.893459       0.18901
  49    .09103        2.3096        0.0000       10.2028       10.2028       7.893164       0.18428
  48    0.1069        2.3096        0.0000       10.2025       10.2025       7.892828       0.17931
  47    0.1255        2.3096        0.0000       10.2021       10.2021       7.892443       0.17426
  46    0.1487        2.3096        0.0000       10.2016       10.2016       7.891962       0.17536
  45    0.1794        2.3096        0.0000       10.2010       10.2010       7.891312       0.17850
  44    0.2165        2.3096        0.0000       10.2002       10.2002       7.890552       0.17277
  43    0.2613        2.3096        0.0000       10.1993       10.1993       7.889667       0.16690
  42    0.3336        2.3096        0.0000       10.1979       10.1979       7.888234       0.16702
  41    0.4307        2.3096        0.0000       10.1960       10.1960       7.886394       0.16002
  40    0.5894        2.3096        0.0000       10.1932       10.1932       7.883520       0.15283
  39     1.339        2.3096        0.0000       10.1816       10.1816       7.871929       0.13050
  38     1.782        2.3096        0.0000       10.1760       10.1760       7.866400       0.10526
  37     2.292        2.3096        0.0000       10.1706       10.1706       7.860943       0.09037
  36     2.964        2.3096        0.0000       10.1646       10.1647       7.855020       0.07435
  35     3.853        2.3096        0.0000       10.1584       10.1584       7.848806       0.05898
  34     5.035        2.3096        0.0000       10.1521       10.1521       7.842470       0.04526
  33     6.613        2.3096        0.0000       10.1456       10.1456       7.836012       0.03452
  32     8.786        2.3096        0.0001       10.1386       10.1386       7.829000       0.02723
  31     11.80        2.3096        0.0001       10.1295       10.1296       7.819958       0.02532
  30     15.07        2.3096        0.0001       10.1196       10.1197       7.810075       0.02551
  29     18.79        2.3096        0.0001       10.1076       10.1077       7.798062       0.02724
  28     23.16        2.3097        0.0001       10.0923       10.0924       7.782750       0.02961
  27     28.12        2.3097        0.0002       10.0731       10.0733       7.763644       0.03248
  26     33.73        2.3097        0.0002       10.0500       10.0502       7.740534       0.03475
  25     40.54        2.3098        0.0003       10.0201       10.0204       7.710606       0.03713
  24     48.69        2.3099        0.0003        9.9820        9.9823       7.672399       0.03954
  23     57.69        2.3100        0.0004        9.9384        9.9388       7.628814       0.04085
  22     68.43        2.3102        0.0004        9.8858        9.8862       7.576015       0.04151
  21     81.20        2.3104        0.0005        9.8234        9.8239       7.513530       0.04129
  20     96.49        2.3108        0.0006        9.7518        9.7524       7.441579       0.03971
  19     114.6        2.3113        0.0007        9.6719        9.6726       7.361340       0.03747
  18     136.5        2.3120        0.0008        9.5858        9.5866       7.274638       0.03334
  17     162.9        2.3130        0.0010        9.4940        9.4950       7.182035       0.02960
  16     196.4        2.3145        0.0012        9.3883        9.3894       7.074909       0.02696
  15     218.7        2.3158        0.0013        9.3229        9.3242       7.008440       0.02524
  14     243.0        2.3174        0.0014        9.2520        9.2534       6.936015       0.02512
  13     269.0        2.3196        0.0016        9.1717        9.1732       6.853649       0.02672
  12     297.5        2.3227        0.0017        9.0763        9.0780       6.755325       0.02916
  11     328.5        2.3267        0.0019        8.9650        8.9668       6.640122       0.03132
  10     361.9        2.3320        0.0020        8.8349        8.8369       6.504992       0.03419
   9     398.1        2.3388        0.0022        8.6820        8.6842       6.345434       0.03717
   8     437.6        2.3477        0.0024        8.5028        8.5052       6.157496       0.04018
   7     480.5        2.3593        0.0026        8.2948        8.2974       5.938098       0.04309
   6     533.0        2.3770        0.0028        8.0209        8.0237       5.646682       0.04688
   5     589.8        2.4016        0.0030        7.7063        7.7093       5.307710       0.05031
   4     651.6        2.4380        0.0031        7.3412        7.3444       4.906395       0.05488
   3     718.7        2.4929        0.0033        6.9387        6.9420       4.449105       0.05747
   2     792.3        2.5798        0.0034        6.5066        6.5100       3.930218       0.05951
   1     891.5        1.0189        1.9072        2.4596        4.3668       3.347938       0.04955
   0    1013.0        1.1035        1.7287        2.1971        3.9258       2.822294       0.03650



 Wavenumbers:  5150. -  6150. cm-1, ATM      1
 LEVEL PRESSURE   UPWARD FLUX   DIFDOWN FLUX  DIRDOWN FLUX  DOWNWARD FLUX   NET FLUX    HEATING RATE
          mb          W/m2          W/m2          W/m2        W/m2          W/m2       degree/day
  51    .06700        5.6082        0.0000       25.5798       25.5798      19.971622       0.00000
  50    .07753        5.6082        0.0000       25.5798       25.5798      19.971583       0.03159
  49    .09103        5.6082        0.0000       25.5797       25.5797      19.971532       0.03207
  48    0.1069        5.6082        0.0000       25.5797       25.5797      19.971470       0.03258
  47    0.1255        5.6082        0.0000       25.5796       25.5796      19.971397       0.03308
  46    0.1487        5.6082        0.0000       25.5795       25.5795      19.971302       0.03485
  45    0.1794        5.6082        0.0000       25.5794       25.5794      19.971167       0.03710
  44    0.2165        5.6082        0.0000       25.5792       25.5792      19.971001       0.03766
  43    0.2613        5.6082        0.0000       25.5790       25.5790      19.970798       0.03824
  42    0.3336        5.6082        0.0000       25.5786       25.5786      19.970452       0.04040
  41    0.4307        5.6082        0.0000       25.5782       25.5782      19.969981       0.04094
  40    0.5894        5.6082        0.0000       25.5774       25.5774      19.969192       0.04195
  39     1.339        5.6082        0.0000       25.5735       25.5736      19.965392       0.04278
  38     1.782        5.6082        0.0000       25.5713       25.5714      19.963180       0.04212
  37     2.292        5.6082        0.0001       25.5688       25.5688      19.960676       0.04147
  36     2.964        5.6082        0.0001       25.5656       25.5657      19.957496       0.03992
  35     3.853        5.6081        0.0001       25.5615       25.5616      19.953454       0.03836
  34     5.035        5.6081        0.0001       25.5562       25.5564      19.948249       0.03718
  33     6.613        5.6081        0.0002       25.5494       25.5496      19.941498       0.03609
  32     8.786        5.6081        0.0002       25.5406       25.5409      19.932749       0.03398
  31     11.80        5.6081        0.0003       25.5287       25.5290      19.920919       0.03312
  30     15.07        5.6081        0.0004       25.5167       25.5171      19.909057       0.03063
  29     18.79        5.6080        0.0005       25.5042       25.5047      19.896657       0.02811
  28     23.16        5.6080        0.0007       25.4907       25.4913      19.883302       0.02582
  27     28.12        5.6080        0.0008       25.4764       25.4772      19.869221       0.02394
  26     33.73        5.6080        0.0010       25.4620       25.4630      19.854955       0.02145
  25     40.54        5.6080        0.0011       25.4463       25.4474      19.839359       0.01935
  24     48.69        5.6081        0.0014       25.4294       25.4307      19.822664       0.01728
  23     57.69        5.6082        0.0016       25.4126       25.4142      19.806093       0.01553
  22     68.43        5.6083        0.0019       25.3944       25.3964      19.788106       0.01414
  21     81.20        5.6084        0.0023       25.3744       25.3767      19.768318       0.01308
  20     96.49        5.6086        0.0027       25.3519       25.3547      19.746083       0.01227
  19     114.6        5.6088        0.0032       25.3262       25.3294      19.720588       0.01190
  18     136.5        5.6091        0.0038       25.2962       25.3000      19.690914       0.01141
  17     162.9        5.6095        0.0046       25.2521       25.2567      19.647147       0.01399
  16     196.4        5.6101        0.0055       25.1593       25.1648      19.554703       0.02327
  15     218.7        5.6105        0.0061       25.0159       25.0220      19.411496       0.05437
  14     243.0        5.6111        0.0067       24.7089       24.7156      19.104517       0.10647
  13     269.0        5.6119        0.0073       24.1619       24.1691      18.557258       0.17753
  12     297.5        5.6130        0.0079       23.4544       23.4623      17.849220       0.21000
  11     328.5        5.6146        0.0085       22.7355       22.7439      17.129337       0.19573
  10     361.9        5.6167        0.0091       21.9224       21.9315      16.314766       0.20609
   9     398.1        5.6196        0.0096       20.9939       21.0035      15.383906       0.21687
   8     437.6        5.6237        0.0101       19.9833       19.9935      14.369750       0.21683
   7     480.5        5.6294        0.0106       18.9483       18.9589      13.329499       0.20430
   6     533.0        5.6392        0.0112       17.7796       17.7908      12.151602       0.18949
   5     589.8        5.6550        0.0118       16.6726       16.6843      11.029300       0.16659
   4     651.6        5.6840        0.0123       15.6343       15.6466       9.962629       0.14587
   3     718.7        5.7368        0.0130       14.7738       14.7867       9.049899       0.11470
   2     792.3        5.8411        0.0137       14.0291       14.0428       8.201663       0.09728
   1     891.5        2.4114        4.2601        5.4204        9.6805       7.269048       0.07936
   0    1013.0        2.5169        3.9712        4.9880        8.9592       6.442286       0.05741



 Wavenumbers:  6150. -  7700. cm-1, ATM      1
 LEVEL PRESSURE   UPWARD FLUX   DIFDOWN FLUX  DIRDOWN FLUX  DOWNWARD FLUX   NET FLUX    HEATING RATE
          mb          W/m2          W/m2          W/m2        W/m2          W/m2       degree/day
  51    .06700        8.7483        0.0000       47.3109       47.3109      38.562568       0.00000
  50    .07753        8.7483        0.0000       47.3108       47.3108      38.562512       0.04553
  49    .09103        8.7483        0.0000       47.3107       47.3107      38.562438       0.04583
  48    0.1069        8.7483        0.0000       47.3106       47.3106      38.562352       0.04614
  47    0.1255        8.7483        0.0000       47.3105       47.3105      38.562249       0.04645
  46    0.1487        8.7483        0.0000       47.3104       47.3104      38.562116       0.04852
  45    0.1794        8.7483        0.0000       47.3102       47.3102      38.561929       0.05127
  44    0.2165        8.7483        0.0000       47.3100       47.3100      38.561702       0.05167
  43    0.2613        8.7483        0.0000       47.3097       47.3097      38.561426       0.05210
  42    0.3336        8.7483        0.0000       47.3092       47.3092      38.560957       0.05471
  41    0.4307        8.7483        0.0000       47.3085       47.3086      38.560322       0.05521
  40    0.5894        8.7482        0.0001       47.3074       47.3075      38.559262       0.05633
  39     1.339        8.7482        0.0002       47.3022       47.3023      38.554170       0.05733
  38     1.782        8.7481        0.0002       47.2991       47.2993      38.551200       0.05655
  37     2.292        8.7481        0.0003       47.2956       47.2959      38.547824       0.05591
  36     2.964        8.7480        0.0003       47.2912       47.2915      38.543506       0.05421
  35     3.853        8.7479        0.0004       47.2855       47.2859      38.537971       0.05252
  34     5.035        8.7478        0.0006       47.2780       47.2786      38.530791       0.05129
  33     6.613        8.7477        0.0008       47.2683       47.2691      38.521403       0.05019
  32     8.786        8.7475        0.0010       47.2556       47.2566      38.509104       0.04777
  31     11.80        8.7472        0.0014       47.2380       47.2394      38.492201       0.04732
  30     15.07        8.7469        0.0018       47.2201       47.2218      38.474913       0.04463
  29     18.79        8.7466        0.0022       47.2008       47.2030      38.456434       0.04190
  28     23.16        8.7462        0.0027       47.1795       47.1822      38.436044       0.03943
  27     28.12        8.7457        0.0033       47.1565       47.1598      38.414052       0.03739
  26     33.73        8.7452        0.0040       47.1324       47.1364      38.391131       0.03446
  25     40.54        8.7446        0.0048       47.1054       47.1101      38.365496       0.03180
  24     48.69        8.7439        0.0057       47.0754       47.0811      38.337245       0.02924
  23     57.69        8.7431        0.0068       47.0449       47.0517      38.308625       0.02683
  22     68.43        8.7421        0.0080       47.0110       47.0190      38.276891       0.02495
  21     81.20        8.7410        0.0095       46.9729       46.9824      38.241402       0.02345
  20     96.49        8.7396        0.0113       46.9294       46.9407      38.201068       0.02226
  19     114.6        8.7380        0.0134       46.8790       46.8924      38.154444       0.02177
  18     136.5        8.7361        0.0159       46.8200       46.8359      38.099836       0.02100
  17     162.9        8.7338        0.0189       46.7361       46.7550      38.021241       0.02512
  16     196.4        8.7309        0.0228       46.5703       46.5930      37.862113       0.04005
  15     218.7        8.7291        0.0253       46.3473       46.3726      37.643441       0.08302
  14     243.0        8.7273        0.0279       45.9299       45.9577      37.230384       0.14326
  13     269.0        8.7258        0.0304       45.1708       45.2012      36.475452       0.24490
  12     297.5        8.7247        0.0329       44.0115       44.0444      35.319666       0.34279
  11     328.5        8.7245        0.0355       42.7242       42.7597      34.035228       0.34924
  10     361.9        8.7254        0.0380       41.3539       41.3920      32.666608       0.34627
   9     398.1        8.7281        0.0405       39.7953       39.8358      31.107676       0.36320
   8     437.6        8.7338        0.0428       37.9948       38.0375      29.303702       0.38570
   7     480.5        8.7440        0.0449       36.0647       36.1096      27.365591       0.38064
   6     533.0        8.7644        0.0471       33.7773       33.8244      25.060013       0.37089
   5     589.8        8.8013        0.0490       31.4082       31.4572      22.655941       0.35684
   4     651.6        8.8740        0.0505       28.8834       28.9339      20.059936       0.35501
   3     718.7        9.0127        0.0517       26.4104       26.4621      17.449337       0.32808
   2     792.3        9.3006        0.0526       24.0056       24.0582      14.757632       0.30871
   1     891.5        3.6153        6.8578        8.7986       15.6563      12.041029       0.23117
   0    1013.0        3.8887        6.1276        7.7132       13.8408       9.952098       0.14505



 Wavenumbers:  7700. -  8050. cm-1, ATM      1
 LEVEL PRESSURE   UPWARD FLUX   DIFDOWN FLUX  DIRDOWN FLUX  DOWNWARD FLUX   NET FLUX    HEATING RATE
          mb          W/m2          W/m2          W/m2        W/m2          W/m2       degree/day
  51    .06700        4.2393        0.0000       11.1810       11.1810       6.941624       0.00000
  50    .07753        4.2393        0.0000       11.1809       11.1809       6.941604       0.01656
  49    .09103        4.2393        0.0000       11.1809       11.1809       6.941578       0.01623
  48    0.1069        4.2393        0.0000       11.1809       11.1809       6.941548       0.01589
  47    0.1255        4.2394        0.0000       11.1809       11.1809       6.941513       0.01555
  46    0.1487        4.2394        0.0000       11.1808       11.1808       6.941470       0.01578
  45    0.1794        4.2394        0.0000       11.1808       11.1808       6.941411       0.01624
  44    0.2165        4.2394        0.0000       11.1807       11.1807       6.941341       0.01593
  43    0.2613        4.2394        0.0000       11.1806       11.1806       6.941258       0.01563
  42    0.3336        4.2394        0.0000       11.1805       11.1805       6.941121       0.01599
  41    0.4307        4.2394        0.0000       11.1803       11.1804       6.940939       0.01582
  40    0.5894        4.2395        0.0000       11.1801       11.1801       6.940642       0.01580
  39     1.339        4.2396        0.0001       11.1788       11.1789       6.939236       0.01582
  38     1.782        4.2397        0.0001       11.1781       11.1782       6.938411       0.01572
  37     2.292        4.2399        0.0001       11.1772       11.1773       6.937455       0.01583
  36     2.964        4.2400        0.0001       11.1761       11.1762       6.936201       0.01575
  35     3.853        4.2402        0.0002       11.1746       11.1748       6.934543       0.01573
  34     5.035        4.2405        0.0003       11.1726       11.1729       6.932342       0.01573
  33     6.613        4.2409        0.0003       11.1700       11.1703       6.929402       0.01572
  32     8.786        4.2414        0.0004       11.1664       11.1668       6.925442       0.01538
  31     11.80        4.2421        0.0006       11.1613       11.1619       6.919782       0.01585
  30     15.07        4.2429        0.0008       11.1558       11.1566       6.913711       0.01567
  29     18.79        4.2438        0.0010       11.1497       11.1506       6.906860       0.01553
  28     23.16        4.2448        0.0012       11.1425       11.1437       6.898871       0.01545
  27     28.12        4.2460        0.0014       11.1343       11.1358       6.889752       0.01550
  26     33.73        4.2473        0.0017       11.1252       11.1269       6.879570       0.01531
  25     40.54        4.2490        0.0021       11.1142       11.1163       6.867301       0.01522
  24     48.69        4.2509        0.0025       11.1010       11.1035       6.852558       0.01526
  23     57.69        4.2531        0.0029       11.0866       11.0895       6.836428       0.01512
  22     68.43        4.2557        0.0035       11.0695       11.0730       6.817304       0.01503
  21     81.20        4.2588        0.0041       11.0494       11.0535       6.794646       0.01497
  20     96.49        4.2626        0.0049       11.0255       11.0304       6.767823       0.01480
  19     114.6        4.2671        0.0058       10.9975       11.0033       6.736221       0.01476
  18     136.5        4.2725        0.0068       10.9648       10.9716       6.699100       0.01427
  17     162.9        4.2791        0.0081       10.9263       10.9344       6.655350       0.01398
  16     196.4        4.2877        0.0098       10.8773       10.8870       6.599307       0.01411
  15     218.7        4.2935        0.0109       10.8455       10.8564       6.562875       0.01383
  14     243.0        4.2999        0.0120       10.8114       10.8235       6.523551       0.01364
  13     269.0        4.3070        0.0133       10.7749       10.7882       6.481180       0.01374
  12     297.5        4.3148        0.0147       10.7357       10.7504       6.435554       0.01353
  11     328.5        4.3235        0.0162       10.6937       10.7099       6.386383       0.01337
  10     361.9        4.3331        0.0177       10.6489       10.6666       6.333456       0.01339
   9     398.1        4.3439        0.0195       10.6008       10.6202       6.276312       0.01331
   8     437.6        4.3560        0.0213       10.5491       10.5704       6.214377       0.01324
   7     480.5        4.3696        0.0233       10.4934       10.5167       6.147112       0.01321
   6     533.0        4.3874        0.0257       10.4243       10.4500       6.062599       0.01360
   5     589.8        4.4081        0.0283       10.3479       10.3761       5.968005       0.01404
   4     651.6        4.4332        0.0310       10.2613       10.2924       5.859160       0.01488
   3     718.7        4.4641        0.0340       10.1618       10.1957       5.731645       0.01603
   2     792.3        4.5035        0.0371       10.0439       10.0810       5.577446       0.01768
   1     891.5        1.9759        3.2713        4.0875        7.3588       5.382972       0.01655
   0    1013.0        2.0170        3.2000        3.9829        7.1829       5.165897       0.01507



 Wavenumbers:  8050. - 12850. cm-1, ATM      1
 LEVEL PRESSURE   UPWARD FLUX   DIFDOWN FLUX  DIRDOWN FLUX  DOWNWARD FLUX   NET FLUX    HEATING RATE
          mb          W/m2          W/m2          W/m2        W/m2          W/m2       degree/day
  51    .06700       54.2445        0.0000      156.5418      156.5418     102.297273       0.00000
  50    .07753       54.2445        0.0000      156.5417      156.5417     102.297273       0.00000
  49    .09103       54.2444        0.0001      156.5417      156.5417     102.297273       0.00000
  48    0.1069       54.2444        0.0001      156.5416      156.5417     102.297273      -0.00000
  47    0.1255       54.2444        0.0001      156.5415      156.5417     102.297273       0.00000
  46    0.1487       54.2444        0.0002      156.5414      156.5416     102.297273      -0.00000
  45    0.1794       54.2443        0.0003      156.5413      156.5416     102.297273       0.00000
  44    0.2165       54.2443        0.0004      156.5412      156.5415     102.297273      -0.00000
  43    0.2613       54.2442        0.0005      156.5410      156.5415     102.297273       0.00000
  42    0.3336       54.2441        0.0007      156.5407      156.5414     102.297273      -0.00000
  41    0.4307       54.2439        0.0009      156.5403      156.5412     102.297273       0.00000
  40    0.5894       54.2437        0.0013      156.5397      156.5410     102.297273       0.00000
  39     1.339       54.2426        0.0031      156.5367      156.5399     102.297273      -0.00000
  38     1.782       54.2419        0.0042      156.5350      156.5392     102.297273      -0.00000
  37     2.292       54.2412        0.0055      156.5330      156.5385     102.297273      -0.00000
  36     2.964       54.2402        0.0071      156.5303      156.5375     102.297273       0.00000
  35     3.853       54.2389        0.0093      156.5268      156.5362     102.297273       0.00000
  34     5.035       54.2372        0.0122      156.5222      156.5344     102.297273      -0.00000
  33     6.613       54.2348        0.0161      156.5160      156.5321     102.297273      -0.00000
  32     8.786       54.2317        0.0213      156.5076      156.5290     102.297273       0.00000
  31     11.80       54.2272        0.0288      156.4957      156.5245     102.297273       0.00000
  30     15.07       54.2224        0.0369      156.4828      156.5197     102.297273       0.00000
  29     18.79       54.2169        0.0460      156.4682      156.5142     102.297273       0.00000
  28     23.16       54.2106        0.0566      156.4512      156.5078     102.297273       0.00000
  27     28.12       54.2033        0.0688      156.4317      156.5005     102.297273      -0.00000
  26     33.73       54.1951        0.0825      156.4099      156.4924     102.297273       0.00000
  25     40.54       54.1852        0.0990      156.3834      156.4825     102.297273       0.00000
  24     48.69       54.1732        0.1190      156.3515      156.4705     102.297273       0.00000
  23     57.69       54.1601        0.1409      156.3164      156.4574     102.297273      -0.00000
  22     68.43       54.1444        0.1671      156.2746      156.4417     102.297273       0.00000
  21     81.20       54.1257        0.1984      156.2246      156.4229     102.297273       0.00000
  20     96.49       54.1033        0.2356      156.1649      156.4006     102.297273       0.00000
  19     114.6       54.0768        0.2800      156.0879      156.3679     102.291123       0.00287
  18     136.5       54.0453        0.3327      155.9962      156.3288     102.283488       0.00294
  17     162.9       54.0078        0.3955      155.8831      156.2786     102.270793       0.00406
  16     196.4       53.9590        0.4772      155.7199      156.1972     102.238161       0.00821
  15     218.7       53.9271        0.5310      155.5733      156.1043     102.177156       0.02316
  14     243.0       53.8929        0.5893      155.3367      155.9260     102.033126       0.04995
  13     269.0       53.8570        0.6524      154.9514      155.6038     101.746871       0.09286
  12     297.5       53.8204        0.7202      154.3896      155.1099     101.289440       0.13567
  11     328.5       53.7839        0.7933      153.7151      154.5084     100.724561       0.15359
  10     361.9       53.7488        0.8716      152.9087      153.7804     100.031620       0.17532
   9     398.1       53.7176        0.9553      151.8986      152.8539      99.136259       0.20860
   8     437.6       53.6948        1.0440      150.6031      151.6472      97.952322       0.25313
   7     480.5       53.6858        1.1376      149.0014      150.1390      96.453188       0.29442
   6     533.0       53.7036        1.2503      146.7375      147.9878      94.284196       0.34892
   5     589.8       53.7767        1.3677      143.8730      145.2407      91.463961       0.41862
   4     651.6       53.9703        1.4871      140.0955      141.5826      87.612343       0.52672
   3     718.7       54.3782        1.6070      135.5278      137.1348      82.756646       0.61023
   2     792.3       55.2313        1.7242      130.0690      131.7933      76.561983       0.71046
   1     891.5       22.9724       41.1900       50.6026       91.7926      68.820237       0.65879
   0    1013.0       23.9753       38.6964       46.8006       85.4969      61.521567       0.50678



 Wavenumbers: 12850. - 16000. cm-1, ATM      1
 LEVEL PRESSURE   UPWARD FLUX   DIFDOWN FLUX  DIRDOWN FLUX  DOWNWARD FLUX   NET FLUX    HEATING RATE
          mb          W/m2          W/m2          W/m2        W/m2          W/m2       degree/day
  51    .06700       54.3044        0.0000       98.0872       98.0872      43.782821       0.00000
  50    .07753       54.3044        0.0001       98.0864       98.0864      43.782034       0.63023
  49    .09103       54.3044        0.0001       98.0853       98.0854      43.781048       0.61658
  48    0.1069       54.3044        0.0002       98.0841       98.0843      43.779916       0.60258
  47    0.1255       54.3044        0.0003       98.0826       98.0830      43.778617       0.58877
  46    0.1487       54.3043        0.0005       98.0809       98.0813      43.776981       0.59640
  45    0.1794       54.3043        0.0006       98.0784       98.0791      43.774759       0.60992
  44    0.2165       54.3043        0.0009       98.0756       98.0765      43.772151       0.59323
  43    0.2613       54.3044        0.0011       98.0723       98.0735      43.769092       0.57663
  42    0.3336       54.3044        0.0015       98.0670       98.0685      43.764115       0.58032
  41    0.4307       54.3046        0.0021       98.0602       98.0623      43.757702       0.55761
  40    0.5894       54.3049        0.0030       98.0496       98.0526      43.747651       0.53448
  39     1.339       54.3086        0.0073       98.0043       98.0116      43.703018       0.50249
  38     1.782       54.3123        0.0098       97.9793       97.9891      43.676815       0.49887
  37     2.292       54.3179        0.0127       97.9498       97.9625      43.644584       0.53383
  36     2.964       54.3274        0.0165       97.9088       97.9253      43.597898       0.58604
  35     3.853       54.3431        0.0216       97.8503       97.8719      43.528839       0.65538
  34     5.035       54.3668        0.0283       97.7680       97.7963      43.429458       0.70993
  33     6.613       54.4000        0.0372       97.6562       97.6934      43.293385       0.72745
  32     8.786       54.4432        0.0493       97.5107       97.5599      43.116749       0.68599
  31     11.80       54.4990        0.0665       97.3179       97.3843      42.885275       0.64805
  30     15.07       54.5522        0.0849       97.1283       97.2132      42.661074       0.57884
  29     18.79       54.6060        0.1057       96.9300       97.0357      42.429749       0.52449
  28     23.16       54.6617        0.1300       96.7166       96.8466      42.184819       0.47362
  27     28.12       54.7172        0.1577       96.4935       96.6512      41.934025       0.42633
  26     33.73       54.7674        0.1888       96.2731       96.4618      41.694493       0.36014
  25     40.54       54.8142        0.2262       96.0408       96.2670      41.452807       0.29984
  24     48.69       54.8573        0.2714       95.7946       96.0660      41.208657       0.25266
  23     57.69       54.8918        0.3210       95.5573       95.8783      40.986548       0.20819
  22     68.43       54.9187        0.3801       95.3106       95.6907      40.771992       0.16867
  21     81.20       54.9317        0.4506       95.0643       95.5150      40.583240       0.12472
  20     96.49       54.9294        0.5347       94.8153       95.3499      40.420521       0.08981
  19     114.6       54.9263        0.6353       94.5411       95.1763      40.250031       0.07961
  18     136.5       54.9148        0.7544       94.2320       94.9865      40.071723       0.06856
  17     162.9       54.8939        0.8963       93.8753       94.7716      39.877727       0.06201
  16     196.4       54.8516        1.0801       93.4347       94.5148      39.663167       0.05401
  15     218.7       54.8185        1.2008       93.1513       94.3521      39.533610       0.04919
  14     243.0       54.7801        1.3319       92.8439       94.1758      39.395675       0.04784
  13     269.0       54.7365        1.4738       92.5111       93.9850      39.248422       0.04777
  12     297.5       54.6880        1.6272       92.1495       93.7766      39.088668       0.04738
  11     328.5       54.6356        1.7927       91.7554       93.5481      38.912484       0.04790
  10     361.9       54.5801        1.9708       91.3262       93.2970      38.716947       0.04947
   9     398.1       54.5222        2.1623       90.8575       93.0198      38.497653       0.05109
   8     437.6       54.4639        2.3676       90.3418       92.7094      38.245504       0.05391
   7     480.5       54.4072        2.5873       89.7728       92.3601      37.952872       0.05747
   6     533.0       54.3487        2.8570       89.0428       91.8998      37.551142       0.06463
   5     589.8       54.3067        3.1463       88.2038       91.3501      37.043456       0.07536
   4     651.6       54.3048        3.4546       87.1979       90.6526      36.347803       0.09513
   3     718.7       54.3603        3.7805       86.0161       89.7967      35.436356       0.11454
   2     792.3       54.5268        4.1204       84.5970       88.7174      34.190623       0.14287
   1     891.5       37.0754       35.3110       34.1613       69.4723      32.396925       0.15264
   0    1013.0       37.5864       34.7786       32.9931       67.7717      30.185291       0.15357



 Wavenumbers: 16000. - 22650. cm-1, ATM      1
 LEVEL PRESSURE   UPWARD FLUX   DIFDOWN FLUX  DIRDOWN FLUX  DOWNWARD FLUX   NET FLUX    HEATING RATE
          mb          W/m2          W/m2          W/m2        W/m2          W/m2       degree/day
  51    .06700      117.8340        0.0000      156.3892      156.3892      38.555260       0.00000
  50    .07753      117.8339        0.0004      156.3887      156.3890      38.555123       0.10976
  49    .09103      117.8339        0.0008      156.3879      156.3888      38.554924       0.12449
  48    0.1069      117.8338        0.0014      156.3871      156.3885      38.554657       0.14196
  47    0.1255      117.8337        0.0020      156.3861      156.3880      38.554300       0.16181
  46    0.1487      117.8337        0.0028      156.3847      156.3875      38.553774       0.19175
  45    0.1794      117.8337        0.0038      156.3828      156.3867      38.552952       0.22577
  44    0.2165      117.8337        0.0051      156.3805      156.3856      38.551836       0.25374
  43    0.2613      117.8339        0.0066      156.3776      156.3842      38.550323       0.28526
  42    0.3336      117.8342        0.0090      156.3726      156.3817      38.547446       0.33546
  41    0.4307      117.8349        0.0123      156.3657      156.3780      38.543108       0.37710
  40    0.5894      117.8365        0.0177      156.3537      156.3713      38.534837       0.43986
  39     1.339      117.8526        0.0429      156.2834      156.3264      38.473728       0.68797
  38     1.782      117.8685        0.0578      156.2324      156.2901      38.421673       0.99105
  37     2.292      117.8927        0.0750      156.1641      156.2391      38.346326       1.24795
  36     2.964      117.9337        0.0975      156.0605      156.1580      38.224269       1.53218
  35     3.853      118.0007        0.1273      155.9041      156.0314      38.030612       1.83784
  34     5.035      118.1024        0.1668      155.6774      155.8442      37.741730       2.06365
  33     6.613      118.2448        0.2195      155.3656      155.5851      37.340346       2.14580
  32     8.786      118.4299        0.2904      154.9577      155.2481      36.818188       2.02787
  31     11.80      118.6698        0.3917      154.4153      154.8070      36.137138       1.90673
  30     15.07      118.8984        0.5003      153.8804      154.3806      35.482241       1.69082
  29     18.79      119.1305        0.6227      153.3191      153.9418      34.811290       1.52125
  28     23.16      119.3714        0.7654      152.7126      153.4780      34.106582       1.36268
  27     28.12      119.6117        0.9284      152.0755      153.0039      33.392198       1.21441
  26     33.73      119.8299        1.1105      151.4409      152.5514      32.721467       1.00846
  25     40.54      120.0351        1.3303      150.7637      152.0939      32.058833       0.82207
  24     48.69      120.2256        1.5948      150.0338      151.6287      31.403113       0.67857
  23     57.69      120.3798        1.8850      149.3151      151.2002      30.820377       0.54623
  22     68.43      120.5042        2.2301      148.5476      150.7777      30.273587       0.42985
  21     81.20      120.5711        2.6409      147.7517      150.3926      29.821467       0.29875
  20     96.49      120.5755        3.1296      146.9127      150.0423      29.466822       0.19574
  19     114.6      120.5419        3.7080      145.9763      149.6843      29.142364       0.15150
  18     136.5      120.4760        4.3905      144.9088      149.2993      28.823337       0.12267
  17     162.9      120.3736        5.1990      143.6785      148.8776      28.503940       0.10209
  16     196.4      120.1896        6.2414      142.1651      148.4064      28.216860       0.07226
  15     218.7      120.0499        6.9220      141.2033      148.1254      28.075509       0.05367
  14     243.0      119.8894        7.6583      140.1753      147.8337      27.944276       0.04552
  13     269.0      119.7065        8.4522      139.0797      147.5318      27.825366       0.03857
  12     297.5      119.5002        9.3053      137.9141      147.2193      27.719104       0.03152
  11     328.5      119.2734       10.2215      136.6676      146.8891      27.615710       0.02811
  10     361.9      119.0255       11.2017      135.3392      146.5408      27.515298       0.02541
   9     398.1      118.7556       12.2492      133.9235      146.1726      27.417032       0.02289
   8     437.6      118.4640       13.3657      132.4163      145.7820      27.317999       0.02117
   7     480.5      118.1499       14.5531      130.8147      145.3678      27.217905       0.01966
   6     533.0      117.7629       16.0015      128.8599      144.8614      27.098500       0.01921
   5     589.8      117.3485       17.5467      126.7679      144.3147      26.966153       0.01964
   4     651.6      116.9113       19.1898      124.5274      143.7172      26.805907       0.02191
   3     718.7      116.4556       20.9315      122.1285      143.0600      26.604431       0.02532
   2     792.3      115.9947       22.7692      119.5548      142.3240      26.329354       0.03155
   1     891.5       96.7300       74.5217       48.0855      122.6071      25.877119       0.03848
   0    1013.0       96.4486       75.3446       46.3386      121.6831      25.234534       0.04462



 Wavenumbers: 22650. - 29000. cm-1, ATM      1
 LEVEL PRESSURE   UPWARD FLUX   DIFDOWN FLUX  DIRDOWN FLUX  DOWNWARD FLUX   NET FLUX    HEATING RATE
          mb          W/m2          W/m2          W/m2        W/m2          W/m2       degree/day
  51    .06700       49.4070        0.0000       59.0156       59.0156       9.608571       0.00000
  50    .07753       49.4069        0.0004       59.0151       59.0155       9.608571      -0.00000
  49    .09103       49.4068        0.0010       59.0144       59.0153       9.608571       0.00000
  48    0.1069       49.4066        0.0016       59.0136       59.0152       9.608571       0.00000
  47    0.1255       49.4064        0.0023       59.0127       59.0150       9.608571       0.00000
  46    0.1487       49.4062        0.0032       59.0115       59.0147       9.608571      -0.00000
  45    0.1794       49.4058        0.0045       59.0099       59.0144       9.608571       0.00000
  44    0.2165       49.4054        0.0059       59.0080       59.0140       9.608571      -0.00000
  43    0.2613       49.4049        0.0077       59.0058       59.0135       9.608571      -0.00000
  42    0.3336       49.4042        0.0106       59.0022       59.0127       9.608571       0.00000
  41    0.4307       49.4031        0.0144       58.9973       59.0117       9.608571      -0.00000
  40    0.5894       49.4014        0.0206       58.9894       59.0100       9.608571      -0.00000
  39     1.339       49.3933        0.0501       58.9518       59.0019       9.608571       0.00000
  38     1.782       49.3886        0.0675       58.9297       58.9972       9.608571       0.00000
  37     2.292       49.3831        0.0875       58.9042       58.9917       9.608571       0.00000
  36     2.964       49.3759        0.1138       58.8706       58.9845       9.608571       0.00000
  35     3.853       49.3664        0.1486       58.8264       58.9750       9.608571      -0.00000
  34     5.035       49.3538        0.1948       58.7676       58.9623       9.608571      -0.00000
  33     6.613       49.3369        0.2564       58.6891       58.9455       9.608571       0.00000
  32     8.786       49.3142        0.3393       58.5834       58.9228       9.608571      -0.00000
  31     11.80       49.2817        0.4578       58.4324       58.8903       9.608571       0.00000
  30     15.07       49.2469        0.5848       58.2706       58.8554       9.608571      -0.00000
  29     18.79       49.2076        0.7279       58.0882       58.8161       9.608571       0.00000
  28     23.16       49.1617        0.8946       57.8757       58.7703       9.608571       0.00000
  27     28.12       49.1094        1.0846       57.6333       58.7179       9.608571       0.00000
  26     33.73       49.0509        1.2964       57.3631       58.6595       9.608571       0.00000
  25     40.54       48.9805        1.5512       57.0379       58.5891       9.608571      -0.00000
  24     48.69       48.8959        1.8566       56.6479       58.5045       9.608571       0.00000
  23     57.69       48.8034        2.1899       56.2221       58.4119       9.608571      -0.00000
  22     68.43       48.6937        2.5837       55.7186       58.3022       9.608571       0.00000
  21     81.20       48.5637        3.0484       55.1239       58.1723       9.608571      -0.00000
  20     96.49       48.4100        3.5957       54.4228       58.0185       9.608571       0.00000
  19     114.6       48.2290        4.2366       53.6010       57.8376       9.608571       0.00000
  18     136.5       48.0167        4.9835       52.6418       57.6253       9.608571       0.00000
  17     162.9       47.7670        5.8552       51.5203       57.3756       9.608571      -0.00000
  16     196.4       47.4482        6.9573       50.0994       57.0567       9.608571       0.00000
  15     218.7       47.2417        7.6640       49.1863       56.8503       9.608571       0.00000
  14     243.0       47.0200        8.4173       48.2113       56.6286       9.608571       0.00000
  13     269.0       46.7827        9.2163       47.1749       56.3912       9.608571       0.00000
  12     297.5       46.5296       10.0599       46.0783       56.1382       9.608571       0.00000
  11     328.5       46.2600       10.9491       44.9195       55.8686       9.608571       0.00000
  10     361.9       45.9741       11.8809       43.7018       55.5827       9.608571       0.00000
   9     398.1       45.6713       12.8549       42.4250       55.2799       9.608571      -0.00000
   8     437.6       45.3515       13.8685       41.0916       54.9601       9.608571       0.00000
   7     480.5       45.0148       14.9189       39.7045       54.6234       9.608571       0.00000
   6     533.0       44.6084       16.1627       38.0543       54.2170       9.608571       0.00000
   5     589.8       44.1797       17.4452       36.3431       53.7883       9.608571      -0.00000
   4     651.6       43.7293       18.7583       34.5795       53.3379       9.608571      -0.00000
   3     718.7       43.2572       20.0955       32.7702       52.8658       9.608571       0.00000
   2     792.3       42.7641       21.4471       30.9256       52.3727       9.608571       0.00000
   1     891.5       36.5651       34.3331       11.8405       46.1736       9.608498       0.00001
   0    1013.0       36.0593       34.9093       10.7585       45.6678       9.608498       0.00000



 Wavenumbers: 29000. - 38000. cm-1, ATM      1
 LEVEL PRESSURE   UPWARD FLUX   DIFDOWN FLUX  DIRDOWN FLUX  DOWNWARD FLUX   NET FLUX    HEATING RATE
          mb          W/m2          W/m2          W/m2        W/m2          W/m2       degree/day
  51    .06700        7.5439        0.0000       20.8114       20.8114      13.267505       0.00000
  50    .07753        7.5437        0.0003       20.8070       20.8074      13.263700       3.05027
  49    .09103        7.5434        0.0007       20.8009       20.8016      13.258165       3.45938
  48    0.1069        7.5431        0.0012       20.7928       20.7939      13.250758       3.94259
  47    0.1255        7.5428        0.0017       20.7820       20.7837      13.240858       4.48838
  46    0.1487        7.5425        0.0023       20.7665       20.7688      13.226301       5.30607
  45    0.1794        7.5420        0.0032       20.7424       20.7456      13.203647       6.21921
  44    0.2165        7.5414        0.0042       20.7103       20.7146      13.173138       6.94017
  43    0.2613        7.5408        0.0055       20.6675       20.6730      13.132163       7.72362
  42    0.3336        7.5398        0.0075       20.5880       20.5955      13.055640       8.92180
  41    0.4307        7.5386        0.0101       20.4722       20.4824      12.943746       9.72892
  40    0.5894        7.5368        0.0143       20.2637       20.2780      12.741177      10.77237
  39     1.339        7.5320        0.0322       19.0984       19.1306      11.598570      12.86368
  38     1.782        7.5315        0.0415       18.4394       18.4808      10.949381      12.35951
  37     2.292        7.5327        0.0514       17.7714       17.8228      10.290080      10.91974
  36     2.964        7.5371        0.0636       17.0421       17.1058       9.568617       9.05654
  35     3.853        7.5467        0.0789       16.2678       16.3468       8.800038       7.29396
  34     5.035        7.5632        0.0982       15.4803       15.5786       8.015384       5.60524
  33     6.613        7.5875        0.1229       14.7157       14.8386       7.251110       4.08581
  32     8.786        7.6197        0.1552       13.9936       14.1487       6.529079       2.80411
  31     11.80        7.6614        0.2001       13.2835       13.4836       5.822215       1.97899
  30     15.07        7.7013        0.2465       12.7394       12.9859       5.284636       1.38792
  29     18.79        7.7421        0.2980       12.2666       12.5646       4.822483       1.04784
  28     23.16        7.7850        0.3564       11.8300       12.1864       4.401349       0.81434
  27     28.12        7.8284        0.4217       11.4279       11.8495       4.021103       0.64639
  26     33.73        7.8673        0.4935       11.0695       11.5630       3.695723       0.48922
  25     40.54        7.9023        0.5793       10.7209       11.3002       3.397895       0.36949
  24     48.69        7.9331        0.6809       10.3742       11.0550       3.121944       0.28557
  23     57.69        7.9556        0.7906       10.0549       10.8455       2.889959       0.21745
  22     68.43        7.9695        0.9192        9.7327       10.6519       2.682434       0.16314
  21     81.20        7.9667        1.0708        9.4134       10.4842       2.517529       0.10897
  20     96.49        7.9449        1.2486        9.0887       10.3374       2.392419       0.06905
  19     114.6        7.9109        1.4536        8.7388       10.1924       2.281435       0.05182
  18     136.5        7.8667        1.6872        8.3549       10.0421       2.175349       0.04079
  17     162.9        7.8117        1.9525        7.9311        9.8836       2.071924       0.03306
  16     196.4        7.7315        2.2795        7.4333        9.7128       1.981351       0.02280
  15     218.7        7.6765        2.4844        7.1295        9.6139       1.937377       0.01670
  14     243.0        7.6167        2.6976        6.8161        9.5137       1.896920       0.01403
  13     269.0        7.5519        2.9183        6.4943        9.4127       1.860735       0.01174
  12     297.5        7.4821        3.1453        6.1657        9.3111       1.828970       0.00942
  11     328.5        7.4083        3.3775        5.8295        9.2070       1.798693       0.00823
  10     361.9        7.3309        3.6123        5.4886        9.1010       1.770040       0.00725
   9     398.1        7.2499        3.8489        5.1440        8.9929       1.743029       0.00629
   8     437.6        7.1656        4.0858        4.7969        8.8827       1.717139       0.00554
   7     480.5        7.0782        4.3205        4.4504        8.7709       1.692716       0.00480
   6     533.0        6.9746        4.5846        4.0563        8.6408       1.666283       0.00425
   5     589.8        6.8678        4.8405        3.6682        8.5087       1.640905       0.00377
   4     651.6        6.7585        5.0843        3.2905        8.3748       1.616304       0.00336
   3     718.7        6.6468        5.3140        2.9252        8.2392       1.592450       0.00300
   2     792.3        6.5332        5.5261        2.5764        8.1025       1.569356       0.00265
   1     891.5        5.7184        6.3637        0.8975        7.2612       1.542722       0.00227
   0    1013.0        5.5926        6.3817        0.7262        7.1078       1.515213       0.00191



 Wavenumbers: 38000. - 50000. cm-1, ATM      1
 LEVEL PRESSURE   UPWARD FLUX   DIFDOWN FLUX  DIRDOWN FLUX  DOWNWARD FLUX   NET FLUX    HEATING RATE
          mb          W/m2          W/m2          W/m2        W/m2          W/m2       degree/day
  51    .06700        0.0061        0.0000        1.2836        1.2836       1.277518       0.00000
  50    .07753        0.0061        0.0001        1.2812        1.2812       1.275183       1.87150
  49    .09103        0.0060        0.0002        1.2777        1.2778       1.271851       2.08247
  48    0.1069        0.0059        0.0002        1.2731        1.2734       1.267473       2.33059
  47    0.1255        0.0058        0.0004        1.2672        1.2675       1.261717       2.60908
  46    0.1487        0.0057        0.0005        1.2586        1.2591       1.253391       3.03499
  45    0.1794        0.0055        0.0007        1.2455        1.2462       1.240623       3.50520
  44    0.2165        0.0054        0.0009        1.2282        1.2291       1.223697       3.85037
  43    0.2613        0.0052        0.0011        1.2054        1.2065       1.201348       4.21261
  42    0.3336        0.0049        0.0015        1.1639        1.1654       1.160524       4.75970
  41    0.4307        0.0045        0.0020        1.1051        1.1070       1.102565       5.03943
  40    0.5894        0.0039        0.0026        1.0039        1.0064       1.002524       5.32007
  39     1.339        0.0022        0.0035        0.5438        0.5473       0.545104       5.14971
  38     1.782        0.0016        0.0032        0.3635        0.3666       0.365006       3.42879
  37     2.292        0.0012        0.0027        0.2356        0.2383       0.237058       2.11916
  36     2.964        0.0009        0.0022        0.1455        0.1477       0.146786       1.13318
  35     3.853        0.0006        0.0017        0.0858        0.0875       0.086906       0.56828
  34     5.035        0.0004        0.0013        0.0488        0.0501       0.049701       0.26578
  33     6.613        0.0003        0.0010        0.0273        0.0282       0.027974       0.11615
  32     8.786        0.0002        0.0007        0.0144        0.0151       0.014928       0.05067
  31     11.80        0.0001        0.0004        0.0065        0.0070       0.006903       0.02247
  30     15.07        0.0000        0.0003        0.0031        0.0034       0.003329       0.00923
  29     18.79        0.0000        0.0002        0.0014        0.0016       0.001583       0.00396
  28     23.16        0.0000        0.0001        0.0006        0.0007       0.000720       0.00167
  27     28.12        0.0000        0.0001        0.0003        0.0003       0.000317       0.00069
  26     33.73        0.0000        0.0000        0.0001        0.0001       0.000140       0.00027
  25     40.54        0.0000        0.0000        0.0000        0.0001       0.000057       0.00010
  24     48.69        0.0000        0.0000        0.0000        0.0000       0.000021       0.00004
  23     57.69        0.0000        0.0000        0.0000        0.0000       0.000008       0.00001
  22     68.43        0.0000        0.0000        0.0000        0.0000       0.000003       0.00000
  21     81.20        0.0000        0.0000        0.0000        0.0000       0.000001       0.00000
  20     96.49        0.0000        0.0000        0.0000        0.0000       0.000000       0.00000
  19     114.6        0.0000        0.0000        0.0000        0.0000       0.000000       0.00000
  18     136.5        0.0000        0.0000        0.0000        0.0000       0.000000       0.00000
  17     162.9        0.0000        0.0000        0.0000        0.0000       0.000000       0.00000
  16     196.4        0.0000        0.0000        0.0000        0.0000       0.000000       0.00000
  15     218.7        0.0000        0.0000        0.0000        0.0000       0.000000       0.00000
  14     243.0        0.0000        0.0000        0.0000        0.0000       0.000000       0.00000
  13     269.0        0.0000        0.0000        0.0000        0.0000       0.000000       0.00000
  12     297.5        0.0000        0.0000        0.0000        0.0000       0.000000       0.00000
  11     328.5        0.0000        0.0000        0.0000        0.0000       0.000000       0.00000
  10     361.9        0.0000        0.0000        0.0000        0.0000       0.000000       0.00000
   9     398.1        0.0000        0.0000        0.0000        0.0000       0.000000       0.00000
   8     437.6        0.0000        0.0000        0.0000        0.0000       0.000000       0.00000
   7     480.5        0.0000        0.0000        0.0000        0.0000       0.000000       0.00000
   6     533.0        0.0000        0.0000        0.0000        0.0000       0.000000       0.00000
   5     589.8        0.0000        0.0000        0.0000        0.0000       0.000000       0.00000
   4     651.6        0.0000        0.0000        0.0000        0.0000       0.000000       0.00000
   3     718.7        0.0000        0.0000        0.0000        0.0000       0.000000       0.00000
   2     792.3        0.0000        0.0000        0.0000        0.0000       0.000000       0.00000
   1     891.5        0.0000        0.0000        0.0000        0.0000       0.000000       0.00000
   0    1013.0        0.0000        0.0000        0.0000        0.0000       0.000000       0.00000



 Wavenumbers:   820. -  2600. cm-1, ATM      1
 LEVEL PRESSURE   UPWARD FLUX   DIFDOWN FLUX  DIRDOWN FLUX  DOWNWARD FLUX   NET FLUX    HEATING RATE
          mb          W/m2          W/m2          W/m2        W/m2          W/m2       degree/day
  51    .06700        0.7012        0.0000        6.0047        6.0047       5.303463       0.00000
  50    .07753        0.7012        0.0000        6.0008        6.0008       5.299610       3.08821
  49    .09103        0.7012        0.0000        5.9999        5.9999       5.298725       0.55358
  48    0.1069        0.7012        0.0000        5.9989        5.9989       5.297736       0.52652
  47    0.1255        0.7012        0.0000        5.9978        5.9978       5.296618       0.50650
  46    0.1487        0.7012        0.0000        5.9964        5.9964       5.295262       0.49457
  45    0.1794        0.7012        0.0000        5.9947        5.9947       5.293542       0.47200
  44    0.2165        0.7012        0.0000        5.9929        5.9929       5.291700       0.41910
  43    0.2613        0.7012        0.0000        5.9909        5.9909       5.289741       0.36933
  42    0.3336        0.7012        0.0000        5.9880        5.9880       5.286862       0.33556
  41    0.4307        0.7012        0.0000        5.9846        5.9846       5.283393       0.30165
  40    0.5894        0.7012        0.0000        5.9791        5.9791       5.277888       0.29276
  39     1.339        0.7012        0.0000        5.9536        5.9536       5.252400       0.28694
  38     1.782        0.7012        0.0000        5.9395        5.9395       5.238262       0.26917
  37     2.292        0.7012        0.0000        5.9237        5.9237       5.222510       0.26088
  36     2.964        0.7012        0.0000        5.9039        5.9039       5.202736       0.24823
  35     3.853        0.7012        0.0000        5.8793        5.8793       5.178079       0.23400
  34     5.035        0.7012        0.0000        5.8487        5.8487       5.147516       0.21834
  33     6.613        0.7012        0.0000        5.8108        5.8108       5.109550       0.20296
  32     8.786        0.7012        0.0000        5.7631        5.7631       5.061925       0.18496
  31     11.80        0.7012        0.0000        5.7039        5.7039       5.002665       0.16591
  30     15.07        0.7012        0.0000        5.6539        5.6539       4.952623       0.12920
  29     18.79        0.7013        0.0000        5.6127        5.6127       4.911482       0.09328
  28     23.16        0.7013        0.0000        5.5794        5.5794       4.878100       0.06455
  27     28.12        0.7013        0.0000        5.5518        5.5518       4.850524       0.04688
  26     33.73        0.7013        0.0000        5.5268        5.5268       4.825460       0.03768
  25     40.54        0.7013        0.0000        5.4993        5.4993       4.798002       0.03407
  24     48.69        0.7014        0.0000        5.4678        5.4678       4.766441       0.03266
  23     57.69        0.7014        0.0000        5.4340        5.4340       4.732629       0.03169
  22     68.43        0.7014        0.0000        5.3947        5.3948       4.693325       0.03090
  21     81.20        0.7015        0.0000        5.3497        5.3497       4.648254       0.02978
  20     96.49        0.7015        0.0000        5.2982        5.2982       4.596693       0.02846
  19     114.6        0.7016        0.0000        5.2389        5.2389       4.537311       0.02773
  18     136.5        0.7017        0.0000        5.1716        5.1717       4.469978       0.02589
  17     162.9        0.7018        0.0000        5.0890        5.0890       4.387237       0.02645
  16     196.4        0.7020        0.0000        4.9668        4.9668       4.264806       0.03082
  15     218.7        0.7022        0.0000        4.8585        4.8585       4.156235       0.04122
  14     243.0        0.7026        0.0000        4.7078        4.7079       4.005280       0.05236
  13     269.0        0.7031        0.0000        4.5343        4.5343       3.831193       0.05647
  12     297.5        0.7039        0.0000        4.3419        4.3420       3.638058       0.05728
  11     328.5        0.7050        0.0000        4.1281        4.1281       3.423137       0.05844
  10     361.9        0.7065        0.0000        3.8786        3.8787       3.172205       0.06349
   9     398.1        0.7084        0.0000        3.6159        3.6159       2.907576       0.06165
   8     437.6        0.7108        0.0000        3.3759        3.3759       2.665045       0.05185
   7     480.5        0.7139        0.0000        3.1957        3.1958       2.481908       0.03597
   6     533.0        0.7185        0.0000        3.0467        3.0467       2.328208       0.02473
   5     589.8        0.7253        0.0000        2.9023        2.9023       2.176990       0.02245
   4     651.6        0.7373        0.0000        2.7183        2.7184       1.981100       0.02679
   3     718.7        0.7578        0.0000        2.5058        2.5059       1.748024       0.02929
   2     792.3        0.7967        0.0000        2.2756        2.2757       1.478980       0.03086
   1     891.5        0.2639        0.6109        0.8129        1.4238       1.159919       0.02715
   0    1013.0        0.3192        0.4937        0.6408        1.1346       0.815337       0.02393

  Modules and versions used in this calculation:

       rrtmg_sw.1col.f90:  $Revision$                    rrtmg_sw_init.f90:  $Revision$        
     rrtmgsw_cldprop.f90:  $Revision$                  rrtmgsw_cldprmc.f90:  NOT USED          
     rrtmg_sw_reftra.f90:  $Revision$                  rrtmg_sw_spcvrt.f90:  NOT USED          
     rrtmg_sw_spcvmc.f90:  NOT USED                    rrtmgsw_setcoef.f90:  NOT USED          
     rrtmg_sw_taumol.f90:  $Revision$                  rrtmg_sw_vrtqdr.f90:  NOT USED          
                rrtatm.f:  NOT USED                             util_xxx.f:  NOT USED          
                 extra.f:  NOT USED                       rrtmg_sw_k_g.f90:  $Revision$        

