

 Wavenumbers:   820. - 50000. cm-1, ATM      1
 LEVEL PRESSURE   UPWARD FLUX   DIFDOWN FLUX  DIRDOWN FLUX  DOWNWARD FLUX   NET FLUX    HEATING RATE
          mb          W/m2          W/m2          W/m2        W/m2          W/m2       degree/day
  51    .06700      361.4747        0.0000      617.8126      617.8126     256.337909       0.00000
  50    .07753      361.4742        0.0013      617.7947      617.7960     256.321782      12.92623
  49    .09103      361.4737        0.0029      617.7778      617.7807     256.306991       9.24480
  48    0.1069      361.4731        0.0048      617.7581      617.7629     256.289755       9.17503
  47    0.1255      361.4725        0.0069      617.7340      617.7409     256.268444       9.66145
  46    0.1487      361.4717        0.0096      617.7009      617.7105     256.238807      10.80269
  45    0.1794      361.4707        0.0133      617.6521      617.6654     256.194654      12.12116
  44    0.2165      361.4697        0.0176      617.5895      617.6071     256.137438      13.01563
  43    0.2613      361.4686        0.0228      617.5089      617.5317     256.063069      14.01835
  42    0.3336      361.4671        0.0312      617.3641      617.3953     255.928256      15.71778
  41    0.4307      361.4654        0.0424      617.1591      617.2015     255.736045      16.71234
  40    0.5894      361.4636        0.0603      616.8005      616.8608     255.397142      18.02243
  39     1.339      361.4711        0.1413      614.9443      615.0855     253.614376      20.07071
  38     1.782      361.4866        0.1867      613.9670      614.1537     252.667096      18.03469
  37     2.292      361.5146        0.2384      613.0059      613.2443     251.729678      15.52608
  36     2.964      361.5663        0.3055      611.9577      612.2632     250.696840      12.96525
  35     3.853      361.6556        0.3935      610.8024      611.1959     249.540279      10.97598
  34     5.035      361.7949        0.5096      609.5327      610.0423     248.247426       9.23560
  33     6.613      361.9919        0.6636      608.1464      608.8100     246.818113       7.64111
  32     8.786      362.2481        0.8702      606.6250      607.4952     245.247073       6.10135
  31     11.80      362.5775        1.1642      604.8486      606.0128     243.435307       5.07237
  30     15.07      362.8879        1.4778      603.2440      604.7217     241.833833       4.13470
  29     18.79      363.1998        1.8305      601.6511      603.4816     240.281790       3.51896
  28     23.16      363.5197        2.2402      599.9927      602.2329     238.713217       3.03311
  27     28.12      363.8332        2.7063      598.2881      600.9944     237.161145       2.63842
  26     33.73      364.1077        3.2258      596.5951      599.8209     235.713163       2.17708
  25     40.54      364.3503        3.8510      594.7727      598.6237     234.273398       1.78619
  24     48.69      364.5564        4.6008      592.7865      597.3873     232.830835       1.49283
  23     57.69      364.6993        5.4200      590.7959      596.2159     231.516635       1.23187
  22     68.43      364.7787        6.3901      588.6191      595.0092     230.230458       1.01111
  21     81.20      364.7472        7.5396      586.2690      593.8085     229.061284       0.77257
  20     96.49      364.5929        8.8996      583.6961      592.5958     228.002834       0.58419
  19     114.6      364.3614       10.4983      580.7708      591.2691     226.907735       0.51133
  18     136.5      364.0494       12.3684      577.4359      589.8043     225.754888       0.44330
  17     162.9      363.6463       14.5605      573.5624      588.1230     224.476665       0.40857
  16     196.4      363.0502       17.3522      568.5907      585.9429     222.892674       0.39871
  15     218.7      362.6354       19.1548      565.0572      584.2120     221.576627       0.49965
  14     243.0      362.1784       21.0861      560.7495      581.8356     219.657183       0.66573
  13     269.0      361.6799       23.1468      555.3947      578.5415     216.861670       0.90685
  12     297.5      361.1437       25.3371      548.9964      574.3335     213.189745       1.08905
  11     328.5      360.5772       27.6623      542.0895      569.7519     209.174653       1.09169
  10     361.9      359.9864       30.1181      534.6242      564.7423     204.755933       1.11798
   9     398.1      359.3792       32.7080      526.4204      559.1284     199.749231       1.16645
   8     437.6      358.7728       35.4297      517.3907      552.8203     194.047521       1.21906
   7     480.5      358.1857       38.2803      507.7216      546.0019     187.816118       1.22382
   6     533.0      357.5802       41.6988      495.9006      537.5995     180.019251       1.25427
   5     589.8      357.1403       45.2753      483.0788      528.3541     171.213755       1.30702
   4     651.6      357.1076       48.9950      468.6907      517.6856     160.578039       1.45446
   3     718.7      357.8204       52.8483      453.2257      506.0740     148.253606       1.54884
   2     792.3      360.1733       56.8119      436.4928      493.3047     133.131464       1.73434
   1     891.5      157.0786      261.0152       15.2031      276.2183     119.139653       1.19064
   0    1013.0      157.9070      254.0671       14.2657      268.3328     110.425760       0.60505



 Wavenumbers:  2600. -  3250. cm-1, ATM      1
 LEVEL PRESSURE   UPWARD FLUX   DIFDOWN FLUX  DIRDOWN FLUX  DOWNWARD FLUX   NET FLUX    HEATING RATE
          mb          W/m2          W/m2          W/m2        W/m2          W/m2       degree/day
  51    .06700        1.4637        0.0000        5.4450        5.4450       3.981297       0.00000
  50    .07753        1.4637        0.0000        5.4450        5.4450       3.981289       0.00640
  49    .09103        1.4637        0.0000        5.4450        5.4450       3.981279       0.00627
  48    0.1069        1.4637        0.0000        5.4450        5.4450       3.981268       0.00613
  47    0.1255        1.4637        0.0000        5.4450        5.4450       3.981254       0.00599
  46    0.1487        1.4637        0.0000        5.4450        5.4450       3.981238       0.00608
  45    0.1794        1.4637        0.0000        5.4450        5.4450       3.981215       0.00625
  44    0.2165        1.4637        0.0000        5.4449        5.4449       3.981188       0.00612
  43    0.2613        1.4637        0.0000        5.4449        5.4449       3.981156       0.00600
  42    0.3336        1.4637        0.0000        5.4448        5.4448       3.981103       0.00617
  41    0.4307        1.4637        0.0000        5.4448        5.4448       3.981032       0.00620
  40    0.5894        1.4637        0.0000        5.4446        5.4446       3.980912       0.00637
  39     1.339        1.4637        0.0000        5.4439        5.4439       3.980205       0.00797
  38     1.782        1.4637        0.0000        5.4434        5.4434       3.979662       0.01034
  37     2.292        1.4637        0.0000        5.4427        5.4427       3.978946       0.01186
  36     2.964        1.4637        0.0000        5.4416        5.4416       3.977907       0.01304
  35     3.853        1.4637        0.0000        5.4402        5.4402       3.976430       0.01402
  34     5.035        1.4637        0.0000        5.4381        5.4381       3.974374       0.01468
  33     6.613        1.4637        0.0000        5.4353        5.4353       3.971593       0.01487
  32     8.786        1.4637        0.0000        5.4317        5.4317       3.967960       0.01411
  31     11.80        1.4637        0.0000        5.4269        5.4269       3.963178       0.01339
  30     15.07        1.4637        0.0000        5.4224        5.4224       3.958650       0.01169
  29     18.79        1.4637        0.0000        5.4180        5.4180       3.954235       0.01001
  28     23.16        1.4637        0.0000        5.4135        5.4135       3.949745       0.00868
  27     28.12        1.4637        0.0000        5.4088        5.4088       3.945092       0.00791
  26     33.73        1.4638        0.0000        5.4036        5.4036       3.939843       0.00789
  25     40.54        1.4638        0.0000        5.3966        5.3967       3.932888       0.00863
  24     48.69        1.4638        0.0000        5.3872        5.3872       3.923391       0.00983
  23     57.69        1.4638        0.0000        5.3754        5.3754       3.911579       0.01107
  22     68.43        1.4639        0.0000        5.3599        5.3599       3.896051       0.01221
  21     81.20        1.4639        0.0000        5.3401        5.3401       3.876160       0.01314
  20     96.49        1.4640        0.0000        5.3155        5.3155       3.851512       0.01360
  19     114.6        1.4642        0.0000        5.2853        5.2854       3.821203       0.01415
  18     136.5        1.4643        0.0001        5.2504        5.2505       3.786137       0.01348
  17     162.9        1.4646        0.0001        5.2111        5.2112       3.746564       0.01265
  16     196.4        1.4650        0.0001        5.1640        5.1641       3.699090       0.01195
  15     218.7        1.4655        0.0001        5.1331        5.1332       3.667737       0.01190
  14     243.0        1.4662        0.0001        5.0962        5.0963       3.630129       0.01304
  13     269.0        1.4673        0.0001        5.0511        5.0512       3.583895       0.01500
  12     297.5        1.4690        0.0001        4.9956        4.9957       3.526718       0.01696
  11     328.5        1.4714        0.0001        4.9304        4.9305       3.459117       0.01838
  10     361.9        1.4747        0.0001        4.8511        4.8512       3.376580       0.02088
   9     398.1        1.4792        0.0002        4.7507        4.7508       3.271646       0.02445
   8     437.6        1.4855        0.0002        4.6220        4.6222       3.136706       0.02885
   7     480.5        1.4943        0.0002        4.4625        4.4627       2.968400       0.03305
   6     533.0        1.5086        0.0002        4.2460        4.2462       2.737663       0.03712
   5     589.8        1.5305        0.0002        3.9954        3.9956       2.465126       0.04045
   4     651.6        1.5668        0.0002        3.7089        3.7091       2.142246       0.04415
   3     718.7        1.6273        0.0002        3.4018        3.4020       1.774770       0.04618
   2     792.3        1.7381        0.0002        3.0564        3.0566       1.318561       0.05232
   1     891.5        0.2050        1.0196        0.0949        1.1144       0.909497       0.03481
   0    1013.0        0.2359        0.8477        0.0766        0.9243       0.688417       0.01535



 Wavenumbers:  3250. -  4000. cm-1, ATM      1
 LEVEL PRESSURE   UPWARD FLUX   DIFDOWN FLUX  DIRDOWN FLUX  DOWNWARD FLUX   NET FLUX    HEATING RATE
          mb          W/m2          W/m2          W/m2        W/m2          W/m2       degree/day
  51    .06700        0.0412        0.0000        9.1795        9.1795       9.138311       0.00000
  50    .07753        0.0412        0.0000        9.1747        9.1747       9.133469       3.88148
  49    .09103        0.0412        0.0000        9.1713        9.1713       9.130081       2.11747
  48    0.1069        0.0412        0.0000        9.1688        9.1688       9.127556       1.34402
  47    0.1255        0.0412        0.0000        9.1665        9.1665       9.125297       1.02422
  46    0.1487        0.0412        0.0000        9.1641        9.1641       9.122855       0.88991
  45    0.1794        0.0412        0.0000        9.1612        9.1612       9.119977       0.79008
  44    0.2165        0.0412        0.0000        9.1583        9.1583       9.117057       0.66430
  43    0.2613        0.0412        0.0000        9.1553        9.1553       9.114084       0.56041
  42    0.3336        0.0412        0.0000        9.1511        9.1511       9.109905       0.48723
  41    0.4307        0.0412        0.0000        9.1464        9.1464       9.105137       0.41459
  40    0.5894        0.0412        0.0000        9.1393        9.1394       9.098131       0.37255
  39     1.339        0.0412        0.0000        9.1127        9.1127       9.071517       0.29962
  38     1.782        0.0412        0.0000        9.1011        9.1011       9.059929       0.22062
  37     2.292        0.0412        0.0000        9.0901        9.0901       9.048863       0.18329
  36     2.964        0.0412        0.0000        9.0776        9.0776       9.036433       0.15603
  35     3.853        0.0412        0.0000        9.0629        9.0629       9.021643       0.14036
  34     5.035        0.0412        0.0000        9.0441        9.0441       9.002904       0.13386
  33     6.613        0.0412        0.0000        9.0191        9.0191       8.977902       0.13366
  32     8.786        0.0412        0.0000        8.9843        8.9843       8.943119       0.13509
  31     11.80        0.0412        0.0000        8.9327        8.9327       8.891502       0.14451
  30     15.07        0.0412        0.0000        8.8758        8.8759       8.834657       0.14676
  29     18.79        0.0412        0.0000        8.8110        8.8110       8.769830       0.14698
  28     23.16        0.0412        0.0000        8.7365        8.7366       8.695385       0.14395
  27     28.12        0.0412        0.0000        8.6554        8.6555       8.614272       0.13789
  26     33.73        0.0412        0.0000        8.5719        8.5719       8.530772       0.12554
  25     40.54        0.0412        0.0001        8.4812        8.4812       8.440049       0.11255
  24     48.69        0.0412        0.0001        8.3838        8.3839       8.342747       0.10069
  23     57.69        0.0411        0.0001        8.2861        8.2862       8.245012       0.09161
  22     68.43        0.0411        0.0001        8.1751        8.1751       8.134015       0.08726
  21     81.20        0.0411        0.0001        8.0457        8.0458       8.004657       0.08548
  20     96.49        0.0411        0.0001        7.8949        7.8951       7.853953       0.08318
  19     114.6        0.0411        0.0001        7.7162        7.7163       7.675244       0.08344
  18     136.5        0.0411        0.0002        7.5193        7.5195       7.478399       0.07569
  17     162.9        0.0410        0.0002        7.2913        7.2915       7.250507       0.07284
  16     196.4        0.0410        0.0002        6.9660        6.9662       6.925231       0.08188
  15     218.7        0.0410        0.0002        6.6648        6.6650       6.624036       0.11435
  14     243.0        0.0410        0.0002        6.2619        6.2622       6.221224       0.13971
  13     269.0        0.0410        0.0003        5.7576        5.7579       5.716883       0.16361
  12     297.5        0.0411        0.0003        5.1719        5.1722       5.131103       0.17374
  11     328.5        0.0412        0.0002        4.5757        4.5760       4.534788       0.16214
  10     361.9        0.0414        0.0002        3.9995        3.9998       3.958355       0.14584
   9     398.1        0.0418        0.0002        3.4655        3.4657       3.423876       0.12452
   8     437.6        0.0425        0.0002        2.9740        2.9743       2.931726       0.10522
   7     480.5        0.0436        0.0002        2.5307        2.5309       2.487217       0.08730
   6     533.0        0.0458        0.0002        2.0614        2.0616       2.015728       0.07585
   5     589.8        0.0498        0.0002        1.6150        1.6151       1.565292       0.06686
   4     651.6        0.0582        0.0001        1.1565        1.1566       1.098376       0.06385
   3     718.7        0.0767        0.0001        0.7390        0.7391       0.662430       0.05479
   2     792.3        0.1259        0.0001        0.3985        0.3985       0.272648       0.04470
   1     891.5        0.0001        0.0371        0.0042        0.0413       0.041185       0.01970
   0    1013.0        0.0011        0.0038        0.0003        0.0042       0.003122       0.00264



 Wavenumbers:  4000. -  4650. cm-1, ATM      1
 LEVEL PRESSURE   UPWARD FLUX   DIFDOWN FLUX  DIRDOWN FLUX  DOWNWARD FLUX   NET FLUX    HEATING RATE
          mb          W/m2          W/m2          W/m2        W/m2          W/m2       degree/day
  51    .06700        4.8012        0.0000       10.7795       10.7795       5.978371       0.00000
  50    .07753        4.8012        0.0000       10.7795       10.7795       5.978370       0.00080
  49    .09103        4.8012        0.0000       10.7795       10.7795       5.978369       0.00078
  48    0.1069        4.8012        0.0000       10.7795       10.7795       5.978367       0.00076
  47    0.1255        4.8012        0.0000       10.7795       10.7795       5.978366       0.00075
  46    0.1487        4.8012        0.0000       10.7795       10.7795       5.978364       0.00076
  45    0.1794        4.8012        0.0000       10.7795       10.7795       5.978361       0.00078
  44    0.2165        4.8012        0.0000       10.7795       10.7795       5.978357       0.00076
  43    0.2613        4.8012        0.0000       10.7795       10.7795       5.978353       0.00075
  42    0.3336        4.8012        0.0000       10.7795       10.7795       5.978347       0.00077
  41    0.4307        4.8012        0.0000       10.7795       10.7795       5.978338       0.00077
  40    0.5894        4.8012        0.0000       10.7795       10.7795       5.978323       0.00080
  39     1.339        4.8012        0.0000       10.7794       10.7794       5.978233       0.00101
  38     1.782        4.8012        0.0000       10.7793       10.7793       5.978164       0.00133
  37     2.292        4.8012        0.0000       10.7792       10.7792       5.978069       0.00156
  36     2.964        4.8012        0.0000       10.7791       10.7791       5.977929       0.00176
  35     3.853        4.8012        0.0000       10.7789       10.7789       5.977721       0.00198
  34     5.035        4.8012        0.0000       10.7786       10.7786       5.977413       0.00220
  33     6.613        4.8012        0.0000       10.7781       10.7781       5.976961       0.00242
  32     8.786        4.8012        0.0000       10.7774       10.7774       5.976293       0.00259
  31     11.80        4.8012        0.0001       10.7763       10.7764       5.975243       0.00294
  30     15.07        4.8012        0.0001       10.7751       10.7752       5.974011       0.00318
  29     18.79        4.8012        0.0001       10.7736       10.7737       5.972520       0.00338
  28     23.16        4.8012        0.0001       10.7717       10.7718       5.970669       0.00358
  27     28.12        4.8012        0.0001       10.7695       10.7696       5.968427       0.00381
  26     33.73        4.8012        0.0002       10.7667       10.7668       5.965661       0.00416
  25     40.54        4.8012        0.0002       10.7629       10.7631       5.961907       0.00466
  24     48.69        4.8012        0.0002       10.7579       10.7581       5.956902       0.00518
  23     57.69        4.8013        0.0003       10.7520       10.7523       5.950963       0.00557
  22     68.43        4.8014        0.0003       10.7446       10.7449       5.943515       0.00586
  21     81.20        4.8015        0.0004       10.7355       10.7359       5.934333       0.00607
  20     96.49        4.8018        0.0004       10.7245       10.7249       5.923148       0.00617
  19     114.6        4.8021        0.0005       10.7107       10.7112       5.909145       0.00654
  18     136.5        4.8026        0.0006       10.6942       10.6948       5.892249       0.00650
  17     162.9        4.8033        0.0007       10.6740       10.6748       5.871499       0.00663
  16     196.4        4.8044        0.0009       10.6464       10.6472       5.842811       0.00722
  15     218.7        4.8055        0.0010       10.6255       10.6264       5.820946       0.00830
  14     243.0        4.8071        0.0011       10.5980       10.5991       5.792093       0.01001
  13     269.0        4.8094        0.0012       10.5611       10.5623       5.752940       0.01270
  12     297.5        4.8127        0.0013       10.5119       10.5133       5.700531       0.01554
  11     328.5        4.8174        0.0015       10.4499       10.4513       5.633942       0.01811
  10     361.9        4.8235        0.0016       10.3702       10.3718       5.548272       0.02168
   9     398.1        4.8312        0.0018       10.2678       10.2695       5.438326       0.02561
   8     437.6        4.8411        0.0019       10.1390       10.1409       5.299845       0.02961
   7     480.5        4.8537        0.0021        9.9877        9.9898       5.136068       0.03217
   6     533.0        4.8732        0.0023        9.7937        9.7960       4.922713       0.03432
   5     589.8        4.9016        0.0025        9.5752        9.5776       4.676037       0.03661
   4     651.6        4.9475        0.0027        9.2958        9.2985       4.350942       0.04446
   3     718.7        5.0252        0.0029        8.9267        8.9296       3.904393       0.05612
   2     792.3        5.1723        0.0030        8.4542        8.4572       3.284955       0.07104
   1     891.5        0.7685        3.1947        0.2863        3.4810       2.712476       0.04872
   0    1013.0        0.8171        2.9432        0.2599        3.2032       2.386008       0.02267



 Wavenumbers:  4650. -  5150. cm-1, ATM      1
 LEVEL PRESSURE   UPWARD FLUX   DIFDOWN FLUX  DIRDOWN FLUX  DOWNWARD FLUX   NET FLUX    HEATING RATE
          mb          W/m2          W/m2          W/m2        W/m2          W/m2       degree/day
  51    .06700        3.4650        0.0000       10.2033       10.2033       6.738370       0.00000
  50    .07753        3.4650        0.0000       10.2031       10.2031       6.738134       0.18901
  49    .09103        3.4650        0.0000       10.2028       10.2028       6.737839       0.18428
  48    0.1069        3.4650        0.0000       10.2025       10.2025       6.737502       0.17931
  47    0.1255        3.4650        0.0000       10.2021       10.2021       6.737118       0.17426
  46    0.1487        3.4650        0.0000       10.2016       10.2016       6.736637       0.17536
  45    0.1794        3.4650        0.0000       10.2010       10.2010       6.735987       0.17850
  44    0.2165        3.4650        0.0000       10.2002       10.2002       6.735227       0.17277
  43    0.2613        3.4650        0.0000       10.1993       10.1993       6.734342       0.16690
  42    0.3336        3.4650        0.0000       10.1979       10.1979       6.732909       0.16702
  41    0.4307        3.4650        0.0000       10.1960       10.1960       6.731069       0.16002
  40    0.5894        3.4650        0.0000       10.1932       10.1932       6.728195       0.15283
  39     1.339        3.4650        0.0000       10.1816       10.1816       6.716603       0.13050
  38     1.782        3.4650        0.0000       10.1760       10.1760       6.711074       0.10526
  37     2.292        3.4650        0.0000       10.1706       10.1706       6.705617       0.09038
  36     2.964        3.4650        0.0000       10.1646       10.1647       6.699693       0.07436
  35     3.853        3.4650        0.0000       10.1584       10.1584       6.693478       0.05899
  34     5.035        3.4650        0.0000       10.1521       10.1521       6.687140       0.04527
  33     6.613        3.4650        0.0000       10.1456       10.1456       6.680679       0.03454
  32     8.786        3.4650        0.0001       10.1386       10.1386       6.673662       0.02725
  31     11.80        3.4650        0.0001       10.1295       10.1296       6.664609       0.02534
  30     15.07        3.4650        0.0001       10.1196       10.1197       6.654714       0.02555
  29     18.79        3.4650        0.0001       10.1076       10.1077       6.642683       0.02728
  28     23.16        3.4651        0.0002       10.0923       10.0924       6.627344       0.02966
  27     28.12        3.4651        0.0002       10.0731       10.0733       6.608202       0.03254
  26     33.73        3.4652        0.0002       10.0500       10.0503       6.585045       0.03482
  25     40.54        3.4653        0.0003       10.0201       10.0204       6.555051       0.03721
  24     48.69        3.4655        0.0003        9.9820        9.9823       6.516750       0.03964
  23     57.69        3.4658        0.0004        9.9384        9.9388       6.473044       0.04097
  22     68.43        3.4661        0.0005        9.8858        9.8862       6.420080       0.04164
  21     81.20        3.4666        0.0005        9.8234        9.8240       6.357367       0.04144
  20     96.49        3.4673        0.0006        9.7518        9.7524       6.285103       0.03988
  19     114.6        3.4682        0.0007        9.6719        9.6727       6.204434       0.03767
  18     136.5        3.4695        0.0009        9.5858        9.5867       6.117142       0.03357
  17     162.9        3.4714        0.0010        9.4940        9.4951       6.023724       0.02986
  16     196.4        3.4742        0.0012        9.3883        9.3895       5.915353       0.02728
  15     218.7        3.4764        0.0014        9.3229        9.3243       5.847911       0.02561
  14     243.0        3.4793        0.0015        9.2520        9.2535       5.774239       0.02555
  13     269.0        3.4831        0.0017        9.1717        9.1733       5.690214       0.02726
  12     297.5        3.4885        0.0018        9.0763        9.0781       5.589597       0.02984
  11     328.5        3.4956        0.0020        8.9650        8.9670       5.471418       0.03213
  10     361.9        3.5046        0.0022        8.8349        8.8371       5.332455       0.03516
   9     398.1        3.5165        0.0024        8.6820        8.6844       5.167919       0.03833
   8     437.6        3.5319        0.0026        8.5028        8.5054       4.973502       0.04157
   7     480.5        3.5519        0.0028        8.2948        8.2976       4.745655       0.04475
   6     533.0        3.5826        0.0030        8.0209        8.0239       4.441302       0.04896
   5     589.8        3.6253        0.0032        7.7063        7.7095       4.084248       0.05300
   4     651.6        3.6887        0.0034        7.3412        7.3446       3.655953       0.05857
   3     718.7        3.7850        0.0036        6.9387        6.9423       3.157299       0.06267
   2     792.3        3.9396        0.0038        6.5066        6.5104       2.570770       0.06727
   1     891.5        0.5633        2.4128        0.2181        2.6309       2.067576       0.04282
   0    1013.0        0.6087        2.1912        0.1948        2.3860       1.777228       0.02016



 Wavenumbers:  5150. -  6150. cm-1, ATM      1
 LEVEL PRESSURE   UPWARD FLUX   DIFDOWN FLUX  DIRDOWN FLUX  DOWNWARD FLUX   NET FLUX    HEATING RATE
          mb          W/m2          W/m2          W/m2        W/m2          W/m2       degree/day
  51    .06700        8.2421        0.0000       25.5798       25.5798      17.337711       0.00000
  50    .07753        8.2421        0.0000       25.5798       25.5798      17.337671       0.03161
  49    .09103        8.2421        0.0000       25.5797       25.5797      17.337620       0.03209
  48    0.1069        8.2421        0.0000       25.5797       25.5797      17.337559       0.03260
  47    0.1255        8.2421        0.0000       25.5796       25.5796      17.337486       0.03310
  46    0.1487        8.2421        0.0000       25.5795       25.5795      17.337390       0.03487
  45    0.1794        8.2421        0.0000       25.5794       25.5794      17.337255       0.03711
  44    0.2165        8.2421        0.0000       25.5792       25.5792      17.337089       0.03768
  43    0.2613        8.2421        0.0000       25.5790       25.5790      17.336886       0.03825
  42    0.3336        8.2421        0.0000       25.5786       25.5786      17.336540       0.04042
  41    0.4307        8.2421        0.0000       25.5782       25.5782      17.336069       0.04096
  40    0.5894        8.2421        0.0000       25.5774       25.5774      17.335279       0.04197
  39     1.339        8.2421        0.0000       25.5735       25.5736      17.331477       0.04281
  38     1.782        8.2421        0.0001       25.5713       25.5714      17.329263       0.04215
  37     2.292        8.2421        0.0001       25.5688       25.5688      17.326757       0.04150
  36     2.964        8.2421        0.0001       25.5656       25.5657      17.323573       0.03997
  35     3.853        8.2421        0.0001       25.5615       25.5616      17.319526       0.03841
  34     5.035        8.2421        0.0002       25.5562       25.5564      17.314314       0.03724
  33     6.613        8.2421        0.0002       25.5494       25.5496      17.307551       0.03615
  32     8.786        8.2421        0.0003       25.5406       25.5409      17.298786       0.03404
  31     11.80        8.2421        0.0004       25.5287       25.5290      17.286929       0.03319
  30     15.07        8.2421        0.0005       25.5167       25.5171      17.275036       0.03071
  29     18.79        8.2421        0.0006       25.5042       25.5047      17.262599       0.02820
  28     23.16        8.2422        0.0007       25.4907       25.4914      17.249197       0.02592
  27     28.12        8.2422        0.0008       25.4764       25.4773      17.235059       0.02403
  26     33.73        8.2423        0.0010       25.4620       25.4630      17.220722       0.02156
  25     40.54        8.2424        0.0012       25.4463       25.4475      17.205029       0.01947
  24     48.69        8.2426        0.0015       25.4294       25.4308      17.188203       0.01741
  23     57.69        8.2429        0.0017       25.4126       25.4143      17.171476       0.01568
  22     68.43        8.2432        0.0021       25.3944       25.3965      17.153290       0.01430
  21     81.20        8.2436        0.0024       25.3744       25.3769      17.133253       0.01324
  20     96.49        8.2441        0.0029       25.3519       25.3548      17.110711       0.01244
  19     114.6        8.2448        0.0034       25.3262       25.3296      17.084840       0.01208
  18     136.5        8.2456        0.0041       25.2962       25.3003      17.054705       0.01159
  17     162.9        8.2466        0.0049       25.2521       25.2570      17.010370       0.01417
  16     196.4        8.2480        0.0058       25.1593       25.1651      16.917152       0.02346
  15     218.7        8.2490        0.0065       25.0159       25.0224      16.773394       0.05458
  14     243.0        8.2503        0.0071       24.7089       24.7160      16.465748       0.10670
  13     269.0        8.2520        0.0078       24.1619       24.1696      15.917650       0.17780
  12     297.5        8.2543        0.0084       23.4544       23.4628      15.208492       0.21033
  11     328.5        8.2574        0.0090       22.7355       22.7445      14.487154       0.19613
  10     361.9        8.2614        0.0097       21.9224       21.9321      13.670670       0.20658
   9     398.1        8.2670        0.0103       20.9939       21.0042      12.737240       0.21747
   8     437.6        8.2747        0.0109       19.9833       19.9942      11.719503       0.21760
   7     480.5        8.2855        0.0115       18.9483       18.9598      10.674268       0.20528
   6     533.0        8.3039        0.0121       17.7796       17.7917       9.487851       0.19086
   5     589.8        8.3337        0.0128       16.6726       16.6853       8.351621       0.16865
   4     651.6        8.3885        0.0134       15.6343       15.6477       7.259190       0.14939
   3     718.7        8.4893        0.0142       14.7738       14.7880       6.298632       0.12072
   2     792.3        8.6911        0.0150       14.0291       14.0441       5.352995       0.10845
   1     891.5        1.3445        5.4051        0.4803        5.8855       4.540989       0.06910
   0    1013.0        1.4009        5.0504        0.4420        5.4924       4.091435       0.03121



 Wavenumbers:  6150. -  7700. cm-1, ATM      1
 LEVEL PRESSURE   UPWARD FLUX   DIFDOWN FLUX  DIRDOWN FLUX  DOWNWARD FLUX   NET FLUX    HEATING RATE
          mb          W/m2          W/m2          W/m2        W/m2          W/m2       degree/day
  51    .06700       13.1443        0.0000       47.3109       47.3109      34.166599       0.00000
  50    .07753       13.1443        0.0000       47.3108       47.3108      34.166542       0.04553
  49    .09103       13.1443        0.0000       47.3107       47.3107      34.166469       0.04583
  48    0.1069       13.1443        0.0000       47.3106       47.3106      34.166382       0.04614
  47    0.1255       13.1443        0.0000       47.3105       47.3105      34.166280       0.04645
  46    0.1487       13.1443        0.0000       47.3104       47.3104      34.166147       0.04852
  45    0.1794       13.1443        0.0000       47.3102       47.3102      34.165960       0.05127
  44    0.2165       13.1442        0.0000       47.3100       47.3100      34.165733       0.05167
  43    0.2613       13.1442        0.0000       47.3097       47.3097      34.165457       0.05210
  42    0.3336       13.1442        0.0000       47.3092       47.3092      34.164987       0.05471
  41    0.4307       13.1442        0.0000       47.3085       47.3086      34.164352       0.05521
  40    0.5894       13.1442        0.0001       47.3074       47.3075      34.163293       0.05633
  39     1.339       13.1442        0.0002       47.3022       47.3024      34.158201       0.05733
  38     1.782       13.1441        0.0002       47.2991       47.2993      34.155231       0.05655
  37     2.292       13.1441        0.0003       47.2956       47.2959      34.151855       0.05591
  36     2.964       13.1440        0.0004       47.2912       47.2916      34.147537       0.05421
  35     3.853       13.1439        0.0005       47.2855       47.2859      34.142002       0.05252
  34     5.035       13.1438        0.0006       47.2780       47.2787      34.134822       0.05129
  33     6.613       13.1437        0.0008       47.2683       47.2691      34.125434       0.05019
  32     8.786       13.1435        0.0011       47.2556       47.2567      34.113134       0.04777
  31     11.80       13.1433        0.0015       47.2380       47.2395      34.096230       0.04733
  30     15.07       13.1430        0.0019       47.2201       47.2219      34.078943       0.04463
  29     18.79       13.1427        0.0023       47.2008       47.2031      34.060463       0.04190
  28     23.16       13.1423        0.0029       47.1795       47.1824      34.040072       0.03943
  27     28.12       13.1419        0.0035       47.1565       47.1600      34.018078       0.03739
  26     33.73       13.1414        0.0042       47.1324       47.1366      33.995156       0.03446
  25     40.54       13.1409        0.0050       47.1054       47.1104      33.969518       0.03181
  24     48.69       13.1402        0.0060       47.0754       47.0815      33.941264       0.02924
  23     57.69       13.1395        0.0072       47.0449       47.0521      33.912641       0.02683
  22     68.43       13.1386        0.0085       47.0110       47.0195      33.880902       0.02495
  21     81.20       13.1375        0.0101       46.9729       46.9829      33.845405       0.02346
  20     96.49       13.1363        0.0119       46.9294       46.9413      33.805061       0.02227
  19     114.6       13.1348        0.0142       46.8790       46.8932      33.758423       0.02178
  18     136.5       13.1330        0.0168       46.8200       46.8368      33.703793       0.02101
  17     162.9       13.1310        0.0200       46.7361       46.7561      33.625159       0.02513
  16     196.4       13.1284        0.0241       46.5703       46.5943      33.465932       0.04008
  15     218.7       13.1269        0.0267       46.3473       46.3740      33.247135       0.08307
  14     243.0       13.1255        0.0295       45.9299       45.9593      32.833825       0.14335
  13     269.0       13.1246        0.0322       45.1708       45.2030      32.078361       0.24507
  12     297.5       13.1249        0.0349       44.0115       44.0464      30.921506       0.34311
  11     328.5       13.1266        0.0376       42.7242       42.7619      29.635281       0.34972
  10     361.9       13.1306        0.0404       41.3539       41.3944      28.263797       0.34700
   9     398.1       13.1381        0.0431       39.7953       39.8384      26.700328       0.36425
   8     437.6       13.1513        0.0457       37.9948       38.0404      24.889111       0.38725
   7     480.5       13.1730        0.0480       36.0647       36.1128      22.939775       0.38284
   6     533.0       13.2144        0.0506       33.7773       33.8279      20.613513       0.37422
   5     589.8       13.2873        0.0529       31.4082       31.4611      18.173829       0.36213
   4     651.6       13.4287        0.0547       28.8834       28.9381      15.509383       0.36437
   3     718.7       13.6996        0.0563       26.4104       26.4667      12.767101       0.34463
   2     792.3       14.2729        0.0575       24.0056       24.0632       9.790233       0.34141
   1     891.5        2.0084        8.6586        0.7799        9.4385       7.430099       0.20084
   0    1013.0        2.1549        7.7635        0.6837        8.4473       6.292399       0.07900



 Wavenumbers:  7700. -  8050. cm-1, ATM      1
 LEVEL PRESSURE   UPWARD FLUX   DIFDOWN FLUX  DIRDOWN FLUX  DOWNWARD FLUX   NET FLUX    HEATING RATE
          mb          W/m2          W/m2          W/m2        W/m2          W/m2       degree/day
  51    .06700        6.0970        0.0000       11.1810       11.1810       5.083940       0.00000
  50    .07753        6.0970        0.0000       11.1809       11.1809       5.083918       0.01767
  49    .09103        6.0970        0.0000       11.1809       11.1809       5.083890       0.01731
  48    0.1069        6.0970        0.0000       11.1809       11.1809       5.083859       0.01695
  47    0.1255        6.0970        0.0000       11.1809       11.1809       5.083822       0.01659
  46    0.1487        6.0971        0.0000       11.1808       11.1808       5.083776       0.01683
  45    0.1794        6.0971        0.0000       11.1808       11.1808       5.083713       0.01732
  44    0.2165        6.0971        0.0000       11.1807       11.1807       5.083638       0.01699
  43    0.2613        6.0971        0.0000       11.1806       11.1806       5.083550       0.01667
  42    0.3336        6.0971        0.0000       11.1805       11.1805       5.083403       0.01706
  41    0.4307        6.0972        0.0000       11.1803       11.1804       5.083209       0.01687
  40    0.5894        6.0972        0.0000       11.1801       11.1801       5.082892       0.01685
  39     1.339        6.0975        0.0001       11.1788       11.1789       5.081393       0.01688
  38     1.782        6.0977        0.0001       11.1781       11.1782       5.080512       0.01677
  37     2.292        6.0978        0.0001       11.1772       11.1773       5.079493       0.01689
  36     2.964        6.0981        0.0002       11.1761       11.1762       5.078154       0.01680
  35     3.853        6.0984        0.0002       11.1746       11.1748       5.076385       0.01678
  34     5.035        6.0988        0.0003       11.1726       11.1729       5.074036       0.01678
  33     6.613        6.0994        0.0004       11.1700       11.1703       5.070899       0.01677
  32     8.786        6.1002        0.0005       11.1664       11.1669       5.066672       0.01642
  31     11.80        6.1013        0.0007       11.1613       11.1620       5.060629       0.01692
  30     15.07        6.1025        0.0008       11.1558       11.1567       5.054145       0.01674
  29     18.79        6.1039        0.0010       11.1497       11.1507       5.046828       0.01659
  28     23.16        6.1055        0.0013       11.1425       11.1438       5.038292       0.01651
  27     28.12        6.1073        0.0016       11.1343       11.1359       5.028545       0.01657
  26     33.73        6.1094        0.0019       11.1252       11.1271       5.017657       0.01637
  25     40.54        6.1119        0.0022       11.1142       11.1164       5.004531       0.01628
  24     48.69        6.1149        0.0027       11.1010       11.1037       4.988751       0.01633
  23     57.69        6.1183        0.0032       11.0866       11.0898       4.971473       0.01620
  22     68.43        6.1223        0.0038       11.0695       11.0733       4.950973       0.01612
  21     81.20        6.1272        0.0045       11.0494       11.0538       4.926662       0.01606
  20     96.49        6.1330        0.0053       11.0255       11.0308       4.897852       0.01590
  19     114.6        6.1400        0.0063       10.9975       11.0038       4.863865       0.01587
  18     136.5        6.1484        0.0075       10.9648       10.9722       4.823881       0.01537
  17     162.9        6.1585        0.0089       10.9263       10.9352       4.776669       0.01509
  16     196.4        6.1719        0.0107       10.8773       10.8879       4.716052       0.01526
  15     218.7        6.1808        0.0119       10.8455       10.8574       4.676562       0.01499
  14     243.0        6.1907        0.0131       10.8114       10.8246       4.633859       0.01481
  13     269.0        6.2017        0.0145       10.7749       10.7894       4.587757       0.01496
  12     297.5        6.2137        0.0160       10.7357       10.7517       4.538006       0.01476
  11     328.5        6.2271        0.0177       10.6937       10.7114       4.484264       0.01461
  10     361.9        6.2420        0.0194       10.6489       10.6683       4.426269       0.01467
   9     398.1        6.2586        0.0213       10.6008       10.6220       4.363480       0.01463
   8     437.6        6.2771        0.0233       10.5491       10.5724       4.295222       0.01459
   7     480.5        6.2980        0.0254       10.4934       10.5189       4.220857       0.01461
   6     533.0        6.3253        0.0281       10.4243       10.4524       4.127085       0.01508
   5     589.8        6.3571        0.0309       10.3479       10.3788       4.021695       0.01564
   4     651.6        6.3955        0.0340       10.2613       10.2953       3.899885       0.01666
   3     718.7        6.4425        0.0372       10.1618       10.1990       3.756454       0.01803
   2     792.3        6.5026        0.0407       10.0439       10.0846       3.581934       0.02002
   1     891.5        1.1036        4.1573        0.3621        4.5194       3.415805       0.01414
   0    1013.0        1.1266        4.0646        0.3528        4.4174       3.290802       0.00868



 Wavenumbers:  8050. - 12850. cm-1, ATM      1
 LEVEL PRESSURE   UPWARD FLUX   DIFDOWN FLUX  DIRDOWN FLUX  DOWNWARD FLUX   NET FLUX    HEATING RATE
          mb          W/m2          W/m2          W/m2        W/m2          W/m2       degree/day
  51    .06700       79.2350        0.0000      156.5418      156.5418      77.306770       0.00000
  50    .07753       79.2350        0.0000      156.5417      156.5417      77.306770      -0.00000
  49    .09103       79.2349        0.0001      156.5417      156.5417      77.306770       0.00000
  48    0.1069       79.2349        0.0001      156.5416      156.5417      77.306770       0.00000
  47    0.1255       79.2349        0.0002      156.5415      156.5417      77.306770      -0.00000
  46    0.1487       79.2349        0.0002      156.5414      156.5416      77.306770      -0.00000
  45    0.1794       79.2348        0.0003      156.5413      156.5416      77.306770       0.00000
  44    0.2165       79.2348        0.0004      156.5412      156.5416      77.306770      -0.00000
  43    0.2613       79.2347        0.0005      156.5410      156.5415      77.306770      -0.00000
  42    0.3336       79.2346        0.0007      156.5407      156.5414      77.306770       0.00000
  41    0.4307       79.2345        0.0010      156.5403      156.5413      77.306770       0.00000
  40    0.5894       79.2343        0.0014      156.5397      156.5411      77.306770      -0.00000
  39     1.339       79.2334        0.0034      156.5367      156.5402      77.306770       0.00000
  38     1.782       79.2328        0.0046      156.5350      156.5396      77.306770       0.00000
  37     2.292       79.2322        0.0060      156.5330      156.5390      77.306770      -0.00000
  36     2.964       79.2314        0.0078      156.5303      156.5381      77.306770       0.00000
  35     3.853       79.2302        0.0102      156.5268      156.5370      77.306770      -0.00000
  34     5.035       79.2288        0.0133      156.5222      156.5355      77.306770      -0.00000
  33     6.613       79.2268        0.0176      156.5160      156.5336      77.306770       0.00000
  32     8.786       79.2241        0.0233      156.5076      156.5309      77.306770      -0.00000
  31     11.80       79.2203        0.0315      156.4957      156.5271      77.306770       0.00000
  30     15.07       79.2163        0.0402      156.4828      156.5230      77.306770       0.00000
  29     18.79       79.2116        0.0502      156.4682      156.5184      77.306770      -0.00000
  28     23.16       79.2062        0.0618      156.4512      156.5130      77.306770       0.00000
  27     28.12       79.2000        0.0751      156.4317      156.5068      77.306770      -0.00000
  26     33.73       79.1931        0.0900      156.4099      156.4999      77.306770       0.00000
  25     40.54       79.1847        0.1080      156.3834      156.4915      77.306770       0.00000
  24     48.69       79.1746        0.1298      156.3515      156.4813      77.306770       0.00000
  23     57.69       79.1634        0.1538      156.3164      156.4702      77.306770      -0.00000
  22     68.43       79.1501        0.1823      156.2746      156.4569      77.306770       0.00000
  21     81.20       79.1342        0.2164      156.2246      156.4410      77.306770      -0.00000
  20     96.49       79.1153        0.2571      156.1649      156.4220      77.306770       0.00000
  19     114.6       79.0929        0.3055      156.0879      156.3935      77.300557       0.00290
  18     136.5       79.0663        0.3630      155.9962      156.3592      77.292848       0.00296
  17     162.9       79.0346        0.4316      155.8831      156.3147      77.280050       0.00409
  16     196.4       78.9935        0.5208      155.7199      156.2407      77.247229       0.00826
  15     218.7       78.9668        0.5795      155.5733      156.1528      77.185954       0.02326
  14     243.0       78.9386        0.6432      155.3367      155.9799      77.041252       0.05019
  13     269.0       78.9102        0.7121      154.9514      155.6635      76.753380       0.09338
  12     297.5       78.8834        0.7863      154.3896      155.1759      76.292480       0.13670
  11     328.5       78.8597        0.8662      153.7151      154.5813      75.721656       0.15521
  10     361.9       78.8417        0.9520      152.9087      153.8607      75.019062       0.17776
   9     398.1       78.8340        1.0436      151.8986      152.9422      74.108272       0.21219
   8     437.6       78.8445        1.1410      150.6031      151.7441      72.899603       0.25842
   7     480.5       78.8831        1.2438      149.0014      150.2452      71.362119       0.30196
   6     533.0       78.9822        1.3680      146.7375      148.1055      69.123344       0.36015
   5     589.8       79.1852        1.4977      143.8730      145.3707      66.185502       0.43607
   4     651.6       79.6103        1.6302      140.0955      141.7257      62.115364       0.55660
   3     718.7       80.4328        1.7639      135.5278      137.2917      56.858893       0.66059
   2     792.3       82.0942        1.8953      130.0690      131.9643      49.870111       0.80153
   1     891.5       12.8438       51.5116        4.4860       55.9977      43.153907       0.57152
   0    1013.0       13.3901       48.3632        4.1489       52.5122      39.122071       0.27995



 Wavenumbers: 12850. - 16000. cm-1, ATM      1
 LEVEL PRESSURE   UPWARD FLUX   DIFDOWN FLUX  DIRDOWN FLUX  DOWNWARD FLUX   NET FLUX    HEATING RATE
          mb          W/m2          W/m2          W/m2        W/m2          W/m2       degree/day
  51    .06700       63.3886        0.0000       98.0872       98.0872      34.698690       0.00000
  50    .07753       63.3885        0.0001       98.0864       98.0864      34.697902       0.63216
  49    .09103       63.3885        0.0001       98.0853       98.0854      34.696912       0.61877
  48    0.1069       63.3885        0.0002       98.0841       98.0843      34.695775       0.60507
  47    0.1255       63.3885        0.0004       98.0826       98.0830      34.694470       0.59162
  46    0.1487       63.3885        0.0005       98.0809       98.0813      34.692825       0.59977
  45    0.1794       63.3885        0.0007       98.0784       98.0791      34.690588       0.61389
  44    0.2165       63.3886        0.0009       98.0756       98.0765      34.687961       0.59770
  43    0.2613       63.3886        0.0012       98.0723       98.0735      34.684875       0.58165
  42    0.3336       63.3888        0.0016       98.0670       98.0686      34.679847       0.58622
  41    0.4307       63.3890        0.0022       98.0602       98.0624      34.673358       0.56424
  40    0.5894       63.3896        0.0031       98.0496       98.0527      34.663161       0.54222
  39     1.339       63.3945        0.0076       98.0043       98.0120      34.617452       0.51461
  38     1.782       63.3992        0.0102       97.9793       97.9895      34.590331       0.51634
  37     2.292       63.4063        0.0133       97.9498       97.9631      34.556772       0.55582
  36     2.964       63.4182        0.0173       97.9088       97.9261      34.507935       0.61306
  35     3.853       63.4375        0.0226       97.8503       97.8729      34.435458       0.68782
  34     5.035       63.4666        0.0296       97.7680       97.7976      34.330972       0.74641
  33     6.613       63.5073        0.0389       97.6562       97.6951      34.187788       0.76546
  32     8.786       63.5603        0.0515       97.5107       97.5622      34.001874       0.72202
  31     11.80       63.6292        0.0695       97.3179       97.3874      33.758249       0.68207
  30     15.07       63.6949        0.0889       97.1283       97.2172      33.522306       0.60916
  29     18.79       63.7618        0.1106       96.9300       97.0407      33.278891       0.55190
  28     23.16       63.8314        0.1361       96.7166       96.8526      33.021194       0.49830
  27     28.12       63.9012        0.1651       96.4935       96.6586      32.757386       0.44846
  26     33.73       63.9652        0.1976       96.2731       96.4707      32.505556       0.37863
  25     40.54       64.0260        0.2369       96.0408       96.2777      32.251638       0.31501
  24     48.69       64.0835        0.2842       95.7946       96.0788      31.995283       0.26529
  23     57.69       64.1313        0.3362       95.5573       95.8935      31.762218       0.21846
  22     68.43       64.1715        0.3982       95.3106       95.7088      31.537256       0.17685
  21     81.20       64.1967        0.4721       95.0643       95.5364      31.339737       0.13052
  20     96.49       64.2056        0.5602       94.8153       95.3755      31.169914       0.09373
  19     114.6       64.2145        0.6657       94.5411       95.2068      30.992260       0.08295
  18     136.5       64.2161        0.7907       94.2320       95.0228      30.806626       0.07138
  17     162.9       64.2099        0.9395       93.8753       94.8148      30.604918       0.06447
  16     196.4       64.1845        1.1324       93.4347       94.5671      30.382587       0.05596
  15     218.7       64.1617        1.2591       93.1513       94.4104      30.248644       0.05085
  14     243.0       64.1345        1.3967       92.8439       94.2407      30.106128       0.04943
  13     269.0       64.1029        1.5458       92.5111       94.0569      29.953998       0.04935
  12     297.5       64.0674        1.7068       92.1495       93.8563      29.788837       0.04899
  11     328.5       64.0297        1.8807       91.7554       93.6361      29.606337       0.04962
  10     361.9       63.9908        2.0678       91.3262       93.3940      29.403255       0.05138
   9     398.1       63.9519        2.2690       90.8575       93.1266      29.174705       0.05325
   8     437.6       63.9159        2.4849       90.3418       92.8267      28.910772       0.05643
   7     480.5       63.8857        2.7158       89.7728       92.4886      28.602937       0.06046
   6     533.0       63.8646        2.9995       89.0428       92.0424      28.177777       0.06839
   5     589.8       63.8713        3.3039       88.2038       91.5078      27.636439       0.08035
   4     651.6       63.9384        3.6284       87.1979       90.8264      26.887999       0.10235
   3     718.7       64.0913        3.9717       86.0161       89.9879      25.896551       0.12460
   2     792.3       64.4059        4.3300       84.5970       88.9271      24.521159       0.15774
   1     891.5       25.3452       45.3090        3.0281       48.3372      22.991967       0.13013
   0    1013.0       25.7014       44.3705        2.9246       47.2951      21.593706       0.09709



 Wavenumbers: 16000. - 22650. cm-1, ATM      1
 LEVEL PRESSURE   UPWARD FLUX   DIFDOWN FLUX  DIRDOWN FLUX  DOWNWARD FLUX   NET FLUX    HEATING RATE
          mb          W/m2          W/m2          W/m2        W/m2          W/m2       degree/day
  51    .06700      121.9182        0.0000      156.3892      156.3892      34.471085       0.00000
  50    .07753      121.9181        0.0004      156.3887      156.3891      34.470946       0.11138
  49    .09103      121.9180        0.0008      156.3879      156.3888      34.470744       0.12632
  48    0.1069      121.9180        0.0014      156.3871      156.3885      34.470473       0.14405
  47    0.1255      121.9180        0.0020      156.3861      156.3881      34.470111       0.16420
  46    0.1487      121.9179        0.0028      156.3847      156.3875      34.469577       0.19457
  45    0.1794      121.9180        0.0039      156.3828      156.3867      34.468742       0.22909
  44    0.2165      121.9180        0.0051      156.3805      156.3856      34.467611       0.25747
  43    0.2613      121.9182        0.0067      156.3776      156.3843      34.466075       0.28946
  42    0.3336      121.9186        0.0092      156.3726      156.3818      34.463155       0.34040
  41    0.4307      121.9194        0.0125      156.3657      156.3782      34.458754       0.38265
  40    0.5894      121.9212        0.0179      156.3537      156.3716      34.450361       0.44634
  39     1.339      121.9385        0.0434      156.2834      156.3269      34.388352       0.69811
  38     1.782      121.9553        0.0585      156.2324      156.2908      34.335529       1.00566
  37     2.292      121.9809        0.0758      156.1641      156.2399      34.259070       1.26636
  36     2.964      122.0239        0.0987      156.0605      156.1591      34.135212       1.55480
  35     3.853      122.0941        0.1288      155.9041      156.0328      33.938692       1.86501
  34     5.035      122.2006        0.1687      155.6774      155.8461      33.645531       2.09422
  33     6.613      122.3495        0.2220      155.3656      155.5877      33.238186       2.17767
  32     8.786      122.5432        0.2938      154.9577      155.2515      32.708245       2.05810
  31     11.80      122.7945        0.3963      154.4153      154.8115      32.016996       1.93528
  30     15.07      123.0343        0.5061      153.8804      154.3865      31.352238       1.71627
  29     18.79      123.2779        0.6300      153.3191      153.9491      30.671132       1.54428
  28     23.16      123.5313        0.7744      152.7126      153.4870      29.955697       1.38342
  27     28.12      123.7844        0.9393      152.0755      153.0148      29.230374       1.23300
  26     33.73      124.0152        1.1236      151.4409      152.5645      28.549313       1.02399
  25     40.54      124.2333        1.3460      150.7637      152.1097      27.876413       0.83481
  24     48.69      124.4372        1.6138      150.0338      151.6476      27.210472       0.68914
  23     57.69      124.6041        1.9075      149.3151      151.2227      26.618597       0.55479
  22     68.43      124.7413        2.2568      148.5476      150.8045      26.063181       0.43663
  21     81.20      124.8204        2.6726      147.7517      150.4243      25.603887       0.30349
  20     96.49      124.8365        3.1674      146.9127      150.0801      25.243582       0.19886
  19     114.6      124.8153        3.7530      145.9763      149.7293      24.914017       0.15388
  18     136.5      124.7630        4.4442      144.9088      149.3529      24.589937       0.12462
  17     162.9      124.6760        5.2629      143.6785      148.9414      24.265446       0.10372
  16     196.4      124.5099        6.3186      142.1651      148.4837      23.973749       0.07342
  15     218.7      124.3814        7.0081      141.2033      148.2115      23.830106       0.05454
  14     243.0      124.2327        7.7541      140.1753      147.9294      23.696726       0.04626
  13     269.0      124.0622        8.5584      139.0797      147.6380      23.575839       0.03922
  12     297.5      123.8691        9.4228      137.9141      147.3369      23.467767       0.03205
  11     328.5      123.6565       10.3515      136.6676      147.0191      23.362560       0.02861
  10     361.9      123.4238       11.3449      135.3392      146.6841      23.260326       0.02587
   9     398.1      123.1702       12.4069      133.9235      146.3304      23.160192       0.02333
   8     437.6      122.8962       13.5391      132.4163      145.9553      23.059164       0.02160
   7     480.5      122.6011       14.7433      130.8147      145.5580      22.956910       0.02008
   6     533.0      122.2378       16.2125      128.8599      145.0725      22.834704       0.01966
   5     589.8      121.8495       17.7805      126.7679      144.5484      22.698925       0.02015
   4     651.6      121.4416       19.4481      124.5274      143.9756      22.533995       0.02255
   3     718.7      121.0191       21.2166      122.1285      143.3450      22.325955       0.02614
   2     792.3      120.5968       23.0831      119.5548      142.6379      22.041054       0.03267
   1     891.5       77.6200       95.0089        4.2615       99.2704      21.650469       0.03324
   0    1013.0       77.5520       94.6146        4.1067       98.7213      21.169274       0.03341



 Wavenumbers: 22650. - 29000. cm-1, ATM      1
 LEVEL PRESSURE   UPWARD FLUX   DIFDOWN FLUX  DIRDOWN FLUX  DOWNWARD FLUX   NET FLUX    HEATING RATE
          mb          W/m2          W/m2          W/m2        W/m2          W/m2       degree/day
  51    .06700       50.8179        0.0000       59.0156       59.0156       8.197754       0.00000
  50    .07753       50.8177        0.0004       59.0151       59.0155       8.197754      -0.00000
  49    .09103       50.8176        0.0010       59.0144       59.0154       8.197754       0.00000
  48    0.1069       50.8174        0.0016       59.0136       59.0152       8.197754      -0.00000
  47    0.1255       50.8172        0.0023       59.0127       59.0150       8.197754      -0.00000
  46    0.1487       50.8170        0.0033       59.0115       59.0148       8.197754       0.00000
  45    0.1794       50.8167        0.0045       59.0099       59.0144       8.197754       0.00000
  44    0.2165       50.8163        0.0060       59.0080       59.0140       8.197754       0.00000
  43    0.2613       50.8158        0.0078       59.0058       59.0136       8.197754       0.00000
  42    0.3336       50.8151        0.0107       59.0022       59.0128       8.197754      -0.00000
  41    0.4307       50.8141        0.0145       58.9973       59.0118       8.197754      -0.00000
  40    0.5894       50.8124        0.0208       58.9894       59.0102       8.197754       0.00000
  39     1.339       50.8047        0.0506       58.9518       59.0024       8.197754       0.00000
  38     1.782       50.8001        0.0682       58.9297       58.9979       8.197754      -0.00000
  37     2.292       50.7948        0.0884       58.9042       58.9926       8.197754       0.00000
  36     2.964       50.7879        0.1150       58.8706       58.9856       8.197754      -0.00000
  35     3.853       50.7787        0.1501       58.8264       58.9765       8.197754       0.00000
  34     5.035       50.7666        0.1968       58.7676       58.9643       8.197754       0.00000
  33     6.613       50.7503        0.2590       58.6891       58.9481       8.197754       0.00000
  32     8.786       50.7285        0.3428       58.5834       58.9262       8.197754      -0.00000
  31     11.80       50.6972        0.4625       58.4324       58.8950       8.197754      -0.00000
  30     15.07       50.6637        0.5908       58.2706       58.8615       8.197754       0.00000
  29     18.79       50.6259        0.7354       58.0882       58.8236       8.197754       0.00000
  28     23.16       50.5818        0.9038       57.8757       58.7795       8.197754      -0.00000
  27     28.12       50.5314        1.0958       57.6333       58.7292       8.197754       0.00000
  26     33.73       50.4752        1.3099       57.3631       58.6730       8.197754      -0.00000
  25     40.54       50.4075        1.5674       57.0379       58.6053       8.197754       0.00000
  24     48.69       50.3262        1.8760       56.6479       58.5239       8.197754       0.00000
  23     57.69       50.2372        2.2129       56.2221       58.4350       8.197754      -0.00000
  22     68.43       50.1318        2.6109       55.7186       58.3295       8.197754       0.00000
  21     81.20       50.0069        3.0808       55.1239       58.2047       8.197754       0.00000
  20     96.49       49.8593        3.6342       54.4228       58.0570       8.197754       0.00000
  19     114.6       49.6856        4.2823       53.6010       57.8833       8.197754      -0.00000
  18     136.5       49.4819        5.0379       52.6418       57.6797       8.197754       0.00000
  17     162.9       49.2425        5.9199       51.5203       57.4403       8.197754       0.00000
  16     196.4       48.9371        7.0354       50.0994       57.1349       8.197754       0.00000
  15     218.7       48.7395        7.7510       49.1863       56.9373       8.197754      -0.00000
  14     243.0       48.5274        8.5139       48.2113       56.7252       8.197754       0.00000
  13     269.0       48.3006        9.3234       47.1749       56.4983       8.197754       0.00000
  12     297.5       48.0589       10.1784       46.0783       56.2567       8.197754      -0.00000
  11     328.5       47.8017       11.0799       44.9195       55.9994       8.197754       0.00000
  10     361.9       47.5291       12.0250       43.7018       55.7269       8.197754      -0.00000
   9     398.1       47.2407       13.0134       42.4250       55.4385       8.197754       0.00000
   8     437.6       46.9365       14.0427       41.0916       55.1343       8.197754       0.00000
   7     480.5       46.6166       15.1099       39.7045       54.8144       8.197754      -0.00000
   6     533.0       46.2310       16.3745       38.0543       54.4288       8.197754       0.00000
   5     589.8       45.8250       17.6797       36.3431       54.0228       8.197754      -0.00000
   4     651.6       45.3992       19.0175       34.5795       53.5970       8.197754       0.00000
   3     718.7       44.9538       20.3814       32.7702       53.1516       8.197754      -0.00000
   2     792.3       44.4897       21.7619       30.9256       52.6875       8.197754       0.00000
   1     891.5       30.2695       37.4170        1.0500       38.4670       8.197509       0.00002
   0    1013.0       29.9695       37.2130        0.9540       38.1670       8.197509       0.00000



 Wavenumbers: 29000. - 38000. cm-1, ATM      1
 LEVEL PRESSURE   UPWARD FLUX   DIFDOWN FLUX  DIRDOWN FLUX  DOWNWARD FLUX   NET FLUX    HEATING RATE
          mb          W/m2          W/m2          W/m2        W/m2          W/m2       degree/day
  51    .06700        7.7227        0.0000       20.8114       20.8114      13.088705       0.00000
  50    .07753        7.7225        0.0003       20.8070       20.8074      13.084899       3.05047
  49    .09103        7.7222        0.0007       20.8009       20.8016      13.079364       3.45961
  48    0.1069        7.7220        0.0012       20.7928       20.7939      13.071957       3.94286
  47    0.1255        7.7217        0.0017       20.7820       20.7837      13.062056       4.48868
  46    0.1487        7.7213        0.0023       20.7665       20.7688      13.047498       5.30644
  45    0.1794        7.7208        0.0032       20.7424       20.7456      13.024842       6.21965
  44    0.2165        7.7203        0.0043       20.7103       20.7146      12.994331       6.94067
  43    0.2613        7.7196        0.0055       20.6675       20.6730      12.953353       7.72419
  42    0.3336        7.7187        0.0075       20.5880       20.5955      12.876825       8.92249
  41    0.4307        7.7175        0.0102       20.4722       20.4824      12.764922       9.72971
  40    0.5894        7.7157        0.0144       20.2637       20.2781      12.562335      10.77331
  39     1.339        7.7111        0.0324       19.0984       19.1307      11.419593      12.86520
  38     1.782        7.7107        0.0417       18.4394       18.4810      10.770290      12.36168
  37     2.292        7.7122        0.0516       17.7714       17.8230      10.110827      10.92243
  36     2.964        7.7170        0.0639       17.0421       17.1061       9.389106       9.05978
  35     3.853        7.7270        0.0793       16.2678       16.3472       8.620123       7.29779
  34     5.035        7.7442        0.0988       15.4803       15.5791       7.834871       5.60952
  33     6.613        7.7695        0.1236       14.7157       14.8393       7.069768       4.09024
  32     8.786        7.8030        0.1561       13.9936       14.1497       6.346654       2.80831
  31     11.80        7.8465        0.2013       13.2835       13.4848       5.638361       1.98300
  30     15.07        7.8881        0.2481       12.7394       12.9875       5.099378       1.39155
  29     18.79        7.9308        0.2999       12.2666       12.5665       4.635752       1.05118
  28     23.16        7.9758        0.3588       11.8300       12.1888       4.213024       0.81742
  27     28.12        8.0214        0.4246       11.4279       11.8525       3.831104       0.64924
  26     33.73        8.0624        0.4971       11.0695       11.5665       3.504092       0.49167
  25     40.54        8.0999        0.5836       10.7209       11.3045       3.204589       0.37157
  24     48.69        8.1333        0.6860       10.3742       11.0602       2.926908       0.28736
  23     57.69        8.1584        0.7968       10.0549       10.8517       2.693318       0.21895
  22     68.43        8.1751        0.9266        9.7327       10.6593       2.484223       0.16438
  21     81.20        8.1751        1.0796        9.4134       10.4930       2.317963       0.10986
  20     96.49        8.1562        1.2592        9.0887       10.3480       2.191746       0.06966
  19     114.6        8.1254        1.4663        8.7388       10.2051       2.079710       0.05231
  18     136.5        8.0848        1.7025        8.3549       10.0574       1.972541       0.04121
  17     162.9        8.0340        1.9708        7.9311        9.9019       1.867976       0.03342
  16     196.4        7.9588        2.3019        7.4333        9.7352       1.776318       0.02307
  15     218.7        7.9071        2.5093        7.1295        9.6389       1.731779       0.01691
  14     243.0        7.8508        2.7255        6.8161        9.5416       1.690775       0.01422
  13     269.0        7.7897        2.9494        6.4943        9.4437       1.654073       0.01191
  12     297.5        7.7238        3.1799        6.1657        9.3456       1.621829       0.00956
  11     328.5        7.6542        3.4158        5.8295        9.2453       1.591070       0.00836
  10     361.9        7.5814        3.6547        5.4886        9.1433       1.561934       0.00737
   9     398.1        7.5052        3.8957        5.1440        9.0397       1.534440       0.00641
   8     437.6        7.4262        4.1373        4.7969        8.9343       1.508059       0.00564
   7     480.5        7.3445        4.3772        4.4504        8.8276       1.483142       0.00489
   6     533.0        7.2479        4.6478        4.0563        8.7040       1.456139       0.00434
   5     589.8        7.1487        4.9107        3.6682        8.5789       1.430170       0.00385
   4     651.6        7.0477        5.1622        3.2905        8.4527       1.404952       0.00345
   3     718.7        6.9450        5.4002        2.9252        8.3254       1.380451       0.00308
   2     792.3        6.8411        5.6213        2.5764        8.1978       1.356679       0.00273
   1     891.5        4.8634        6.1158        0.0795        6.1953       1.331878       0.00211
   0    1013.0        4.7756        6.0199        0.0644        6.0842       1.308595       0.00162



 Wavenumbers: 38000. - 50000. cm-1, ATM      1
 LEVEL PRESSURE   UPWARD FLUX   DIFDOWN FLUX  DIRDOWN FLUX  DOWNWARD FLUX   NET FLUX    HEATING RATE
          mb          W/m2          W/m2          W/m2        W/m2          W/m2       degree/day
  51    .06700        0.0061        0.0000        1.2836        1.2836       1.277518       0.00000
  50    .07753        0.0061        0.0001        1.2812        1.2812       1.275183       1.87150
  49    .09103        0.0060        0.0002        1.2777        1.2778       1.271851       2.08247
  48    0.1069        0.0059        0.0002        1.2731        1.2734       1.267473       2.33059
  47    0.1255        0.0058        0.0004        1.2672        1.2675       1.261717       2.60908
  46    0.1487        0.0057        0.0005        1.2586        1.2591       1.253391       3.03499
  45    0.1794        0.0055        0.0007        1.2455        1.2462       1.240623       3.50520
  44    0.2165        0.0054        0.0009        1.2282        1.2291       1.223697       3.85037
  43    0.2613        0.0052        0.0011        1.2054        1.2065       1.201348       4.21261
  42    0.3336        0.0049        0.0015        1.1639        1.1654       1.160524       4.75970
  41    0.4307        0.0045        0.0020        1.1051        1.1070       1.102565       5.03943
  40    0.5894        0.0039        0.0026        1.0039        1.0064       1.002524       5.32007
  39     1.339        0.0022        0.0035        0.5438        0.5473       0.545104       5.14971
  38     1.782        0.0016        0.0032        0.3635        0.3666       0.365006       3.42879
  37     2.292        0.0012        0.0027        0.2356        0.2383       0.237058       2.11916
  36     2.964        0.0009        0.0022        0.1455        0.1477       0.146786       1.13318
  35     3.853        0.0006        0.0017        0.0858        0.0875       0.086906       0.56828
  34     5.035        0.0004        0.0013        0.0488        0.0501       0.049701       0.26578
  33     6.613        0.0003        0.0010        0.0273        0.0282       0.027974       0.11615
  32     8.786        0.0002        0.0007        0.0144        0.0151       0.014928       0.05067
  31     11.80        0.0001        0.0004        0.0065        0.0070       0.006903       0.02247
  30     15.07        0.0000        0.0003        0.0031        0.0034       0.003329       0.00923
  29     18.79        0.0000        0.0002        0.0014        0.0016       0.001583       0.00396
  28     23.16        0.0000        0.0001        0.0006        0.0007       0.000720       0.00167
  27     28.12        0.0000        0.0001        0.0003        0.0003       0.000317       0.00069
  26     33.73        0.0000        0.0000        0.0001        0.0001       0.000140       0.00027
  25     40.54        0.0000        0.0000        0.0000        0.0001       0.000057       0.00010
  24     48.69        0.0000        0.0000        0.0000        0.0000       0.000021       0.00004
  23     57.69        0.0000        0.0000        0.0000        0.0000       0.000008       0.00001
  22     68.43        0.0000        0.0000        0.0000        0.0000       0.000003       0.00000
  21     81.20        0.0000        0.0000        0.0000        0.0000       0.000001       0.00000
  20     96.49        0.0000        0.0000        0.0000        0.0000       0.000000       0.00000
  19     114.6        0.0000        0.0000        0.0000        0.0000       0.000000       0.00000
  18     136.5        0.0000        0.0000        0.0000        0.0000       0.000000       0.00000
  17     162.9        0.0000        0.0000        0.0000        0.0000       0.000000       0.00000
  16     196.4        0.0000        0.0000        0.0000        0.0000       0.000000       0.00000
  15     218.7        0.0000        0.0000        0.0000        0.0000       0.000000       0.00000
  14     243.0        0.0000        0.0000        0.0000        0.0000       0.000000       0.00000
  13     269.0        0.0000        0.0000        0.0000        0.0000       0.000000       0.00000
  12     297.5        0.0000        0.0000        0.0000        0.0000       0.000000       0.00000
  11     328.5        0.0000        0.0000        0.0000        0.0000       0.000000       0.00000
  10     361.9        0.0000        0.0000        0.0000        0.0000       0.000000       0.00000
   9     398.1        0.0000        0.0000        0.0000        0.0000       0.000000       0.00000
   8     437.6        0.0000        0.0000        0.0000        0.0000       0.000000       0.00000
   7     480.5        0.0000        0.0000        0.0000        0.0000       0.000000       0.00000
   6     533.0        0.0000        0.0000        0.0000        0.0000       0.000000       0.00000
   5     589.8        0.0000        0.0000        0.0000        0.0000       0.000000       0.00000
   4     651.6        0.0000        0.0000        0.0000        0.0000       0.000000       0.00000
   3     718.7        0.0000        0.0000        0.0000        0.0000       0.000000       0.00000
   2     792.3        0.0000        0.0000        0.0000        0.0000       0.000000       0.00000
   1     891.5        0.0000        0.0000        0.0000        0.0000       0.000000       0.00000
   0    1013.0        0.0000        0.0000        0.0000        0.0000       0.000000       0.00000



 Wavenumbers:   820. -  2600. cm-1, ATM      1
 LEVEL PRESSURE   UPWARD FLUX   DIFDOWN FLUX  DIRDOWN FLUX  DOWNWARD FLUX   NET FLUX    HEATING RATE
          mb          W/m2          W/m2          W/m2        W/m2          W/m2       degree/day
  51    .06700        1.1319        0.0000        6.0047        6.0047       4.872789       0.00000
  50    .07753        1.1319        0.0000        6.0008        6.0008       4.868936       3.08823
  49    .09103        1.1319        0.0000        5.9999        5.9999       4.868050       0.55360
  48    0.1069        1.1319        0.0000        5.9989        5.9989       4.867061       0.52654
  47    0.1255        1.1319        0.0000        5.9978        5.9978       4.865944       0.50652
  46    0.1487        1.1319        0.0000        5.9964        5.9964       4.864587       0.49459
  45    0.1794        1.1319        0.0000        5.9947        5.9947       4.862867       0.47202
  44    0.2165        1.1319        0.0000        5.9929        5.9929       4.861025       0.41913
  43    0.2613        1.1319        0.0000        5.9909        5.9909       4.859065       0.36935
  42    0.3336        1.1319        0.0000        5.9880        5.9880       4.856187       0.33559
  41    0.4307        1.1319        0.0000        5.9846        5.9846       4.852717       0.30168
  40    0.5894        1.1319        0.0000        5.9791        5.9791       4.847212       0.29279
  39     1.339        1.1319        0.0000        5.9536        5.9536       4.821722       0.28697
  38     1.782        1.1319        0.0000        5.9395        5.9395       4.807582       0.26920
  37     2.292        1.1319        0.0000        5.9237        5.9237       4.791829       0.26091
  36     2.964        1.1319        0.0000        5.9039        5.9039       4.772052       0.24825
  35     3.853        1.1319        0.0000        5.8793        5.8793       4.747393       0.23402
  34     5.035        1.1319        0.0000        5.8487        5.8487       4.716825       0.21836
  33     6.613        1.1319        0.0000        5.8108        5.8108       4.678855       0.20299
  32     8.786        1.1319        0.0000        5.7631        5.7631       4.631223       0.18498
  31     11.80        1.1319        0.0000        5.7039        5.7039       4.571954       0.16593
  30     15.07        1.1320        0.0000        5.6539        5.6539       4.521902       0.12923
  29     18.79        1.1320        0.0000        5.6127        5.6127       4.480750       0.09330
  28     23.16        1.1320        0.0000        5.5794        5.5794       4.447355       0.06458
  27     28.12        1.1320        0.0000        5.5518        5.5518       4.419764       0.04690
  26     33.73        1.1321        0.0000        5.5268        5.5268       4.394684       0.03771
  25     40.54        1.1321        0.0000        5.4993        5.4993       4.367205       0.03409
  24     48.69        1.1322        0.0000        5.4678        5.4678       4.335620       0.03269
  23     57.69        1.1322        0.0000        5.4340        5.4340       4.301782       0.03172
  22     68.43        1.1323        0.0000        5.3947        5.3948       4.262446       0.03092
  21     81.20        1.1324        0.0000        5.3497        5.3497       4.217336       0.02981
  20     96.49        1.1325        0.0000        5.2982        5.2982       4.165727       0.02848
  19     114.6        1.1326        0.0000        5.2389        5.2389       4.106285       0.02775
  18     136.5        1.1328        0.0000        5.1716        5.1717       4.038878       0.02592
  17     162.9        1.1330        0.0000        5.0890        5.0891       3.956031       0.02648
  16     196.4        1.1334        0.0000        4.9668        4.9668       3.833416       0.03086
  15     218.7        1.1338        0.0000        4.8585        4.8585       3.724669       0.04129
  14     243.0        1.1344        0.0000        4.7078        4.7079       3.573431       0.05245
  13     269.0        1.1354        0.0000        4.5343        4.5343       3.398926       0.05661
  12     297.5        1.1368        0.0000        4.3419        4.3420       3.205124       0.05748
  11     328.5        1.1388        0.0000        4.1281        4.1281       2.989313       0.05868
  10     361.9        1.1415        0.0000        3.8786        3.8787       2.737202       0.06379
   9     398.1        1.1449        0.0000        3.6159        3.6160       2.471052       0.06201
   8     437.6        1.1493        0.0000        3.3759        3.3759       2.226555       0.05228
   7     480.5        1.1548        0.0000        3.1957        3.1958       2.041015       0.03644
   6     533.0        1.1630        0.0000        3.0467        3.0467       1.883679       0.02531
   5     589.8        1.1752        0.0000        2.9023        2.9023       1.727118       0.02324
   4     651.6        1.1964        0.0000        2.7183        2.7184       1.522000       0.02805
   3     718.7        1.2329        0.0001        2.5058        2.5059       1.272926       0.03130
   2     792.3        1.3031        0.0001        2.2756        2.2757       0.972613       0.03444
   1     891.5        0.1434        0.7676        0.0721        0.8397       0.696295       0.02351
   0    1013.0        0.1731        0.6215        0.0568        0.6783       0.505193       0.01327

  Modules and versions used in this calculation:

       rrtmg_sw.1col.f90:  $Revision$                    rrtmg_sw_init.f90:  $Revision$        
     rrtmgsw_cldprop.f90:  $Revision$                  rrtmgsw_cldprmc.f90:  NOT USED          
     rrtmg_sw_reftra.f90:  $Revision$                  rrtmg_sw_spcvrt.f90:  NOT USED          
     rrtmg_sw_spcvmc.f90:  NOT USED                    rrtmgsw_setcoef.f90:  NOT USED          
     rrtmg_sw_taumol.f90:  $Revision$                  rrtmg_sw_vrtqdr.f90:  NOT USED          
                rrtatm.f:  NOT USED                             util_xxx.f:  NOT USED          
                 extra.f:  NOT USED                       rrtmg_sw_k_g.f90:  $Revision$        

