

 Wavenumbers:   820. - 50000. cm-1, ATM      1
 LEVEL PRESSURE   UPWARD FLUX   DIFDOWN FLUX  DIRDOWN FLUX  DOWNWARD FLUX   NET FLUX    HEATING RATE
          mb          W/m2          W/m2          W/m2        W/m2          W/m2       degree/day
  51    .06700      361.4870        0.0000      617.8126      617.8126     256.325565       0.00000
  50    .07753      361.4866        0.0013      617.7947      617.7960     256.309438      12.92625
  49    .09103      361.4860        0.0029      617.7778      617.7807     256.294647       9.24483
  48    0.1069      361.4854        0.0048      617.7581      617.7629     256.277411       9.17505
  47    0.1255      361.4848        0.0069      617.7340      617.7409     256.256099       9.66148
  46    0.1487      361.4840        0.0096      617.7009      617.7105     256.226463      10.80273
  45    0.1794      361.4831        0.0133      617.6521      617.6654     256.182309      12.12121
  44    0.2165      361.4820        0.0177      617.5895      617.6071     256.125093      13.01569
  43    0.2613      361.4810        0.0228      617.5089      617.5317     256.050723      14.01842
  42    0.3336      361.4794        0.0312      617.3641      617.3953     255.915910      15.71786
  41    0.4307      361.4778        0.0424      617.1591      617.2015     255.723698      16.71243
  40    0.5894      361.4760        0.0603      616.8005      616.8608     255.384793      18.02254
  39     1.339      361.4835        0.1413      614.9443      615.0855     253.602011      20.07088
  38     1.782      361.4990        0.1867      613.9670      614.1538     252.654718      18.03494
  37     2.292      361.5270        0.2384      613.0059      613.2443     251.717280      15.52640
  36     2.964      361.5788        0.3056      611.9577      612.2632     250.684410      12.96565
  35     3.853      361.6682        0.3936      610.8024      611.1960     249.527797      10.97646
  34     5.035      361.8075        0.5097      609.5327      610.0424     248.234868       9.23615
  33     6.613      362.0047        0.6637      608.1464      608.8102     246.805448       7.64168
  32     8.786      362.2611        0.8704      606.6250      607.4954     245.234269       6.10189
  31     11.80      362.5908        1.1644      604.8486      606.0131     243.422321       5.07288
  30     15.07      362.9014        1.4781      603.2440      604.7221     241.820670       4.13515
  29     18.79      363.2136        1.8309      601.6511      603.4821     240.268446       3.51937
  28     23.16      363.5337        2.2407      599.9927      602.2334     238.699684       3.03348
  27     28.12      363.8476        2.7070      598.2881      600.9950     237.147417       2.63875
  26     33.73      364.1224        3.2266      596.5951      599.8216     235.699254       2.17735
  25     40.54      364.3653        3.8519      594.7727      598.6246     234.259310       1.78641
  24     48.69      364.5718        4.6019      592.7865      597.3884     232.816570       1.49301
  23     57.69      364.7150        5.4214      590.7959      596.2172     231.502213       1.23201
  22     68.43      364.7949        6.3917      588.6191      595.0107     230.215893       1.01122
  21     81.20      364.7638        7.5414      586.2690      593.8104     229.046605       0.77265
  20     96.49      364.6099        8.9018      583.6961      592.5980     227.988072       0.58423
  19     114.6      364.3788       10.5009      580.7708      591.2717     226.892897       0.51137
  18     136.5      364.0674       12.3715      577.4359      589.8074     225.739981       0.44332
  17     162.9      363.6650       14.5642      573.5624      588.1267     224.461696       0.40859
  16     196.4      363.0697       17.3567      568.5907      585.9474     222.877666       0.39872
  15     218.7      362.6554       19.1598      565.0572      584.2170     221.561612       0.49966
  14     243.0      362.1990       21.0916      560.7495      581.8412     219.642170       0.66573
  13     269.0      361.7010       23.1530      555.3947      578.5477     216.846673       0.90685
  12     297.5      361.1655       25.3439      548.9964      574.3403     213.174780       1.08904
  11     328.5      360.5996       27.6698      542.0895      569.7594     209.159735       1.09168
  10     361.9      360.0096       30.1264      534.6242      564.7506     204.741079       1.11796
   9     398.1      359.4031       32.7171      526.4204      559.1375     199.734464       1.16643
   8     437.6      358.7975       35.4397      517.3907      552.8304     194.032868       1.21904
   7     480.5      358.2113       38.2913      507.7216      546.0129     187.801613       1.22379
   6     533.0      357.6067       41.7111      495.9006      537.6117     180.004975       1.25423
   5     589.8      357.1678       45.2888      483.0788      528.3676     171.199804       1.30698
   4     651.6      357.1360       49.0099      468.6907      517.7006     160.564593       1.45439
   3     718.7      357.8496       52.8648      453.2257      506.0905     148.240963       1.54874
   2     792.3      360.2027       56.8301      436.4928      493.3229     133.120160       1.73419
   1     891.5      157.1152      261.0471       15.2031      276.2502     119.135004       1.19007
   0    1013.0      157.9298      254.1076       14.2657      268.3733     110.443434       0.60350



 Wavenumbers:  2600. -  3250. cm-1, ATM      1
 LEVEL PRESSURE   UPWARD FLUX   DIFDOWN FLUX  DIRDOWN FLUX  DOWNWARD FLUX   NET FLUX    HEATING RATE
          mb          W/m2          W/m2          W/m2        W/m2          W/m2       degree/day
  51    .06700        1.4623        0.0000        5.4450        5.4450       3.982763       0.00000
  50    .07753        1.4623        0.0000        5.4450        5.4450       3.982755       0.00640
  49    .09103        1.4623        0.0000        5.4450        5.4450       3.982745       0.00627
  48    0.1069        1.4623        0.0000        5.4450        5.4450       3.982734       0.00613
  47    0.1255        1.4623        0.0000        5.4450        5.4450       3.982720       0.00599
  46    0.1487        1.4623        0.0000        5.4450        5.4450       3.982704       0.00608
  45    0.1794        1.4623        0.0000        5.4450        5.4450       3.982681       0.00625
  44    0.2165        1.4623        0.0000        5.4449        5.4449       3.982654       0.00612
  43    0.2613        1.4623        0.0000        5.4449        5.4449       3.982622       0.00600
  42    0.3336        1.4623        0.0000        5.4448        5.4448       3.982569       0.00617
  41    0.4307        1.4623        0.0000        5.4448        5.4448       3.982498       0.00620
  40    0.5894        1.4623        0.0000        5.4446        5.4446       3.982378       0.00637
  39     1.339        1.4623        0.0000        5.4439        5.4439       3.981671       0.00797
  38     1.782        1.4623        0.0000        5.4434        5.4434       3.981128       0.01034
  37     2.292        1.4623        0.0000        5.4427        5.4427       3.980412       0.01186
  36     2.964        1.4623        0.0000        5.4416        5.4416       3.979373       0.01304
  35     3.853        1.4623        0.0000        5.4402        5.4402       3.977896       0.01402
  34     5.035        1.4623        0.0000        5.4381        5.4381       3.975840       0.01468
  33     6.613        1.4623        0.0000        5.4353        5.4353       3.973059       0.01487
  32     8.786        1.4623        0.0000        5.4317        5.4317       3.969426       0.01411
  31     11.80        1.4623        0.0000        5.4269        5.4269       3.964644       0.01339
  30     15.07        1.4623        0.0000        5.4224        5.4224       3.960116       0.01169
  29     18.79        1.4623        0.0000        5.4180        5.4180       3.955701       0.01001
  28     23.16        1.4623        0.0000        5.4135        5.4135       3.951211       0.00868
  27     28.12        1.4623        0.0000        5.4088        5.4088       3.946558       0.00791
  26     33.73        1.4623        0.0000        5.4036        5.4036       3.941309       0.00789
  25     40.54        1.4623        0.0000        5.3966        5.3967       3.934354       0.00863
  24     48.69        1.4623        0.0000        5.3872        5.3872       3.924857       0.00983
  23     57.69        1.4624        0.0000        5.3754        5.3754       3.913045       0.01107
  22     68.43        1.4624        0.0000        5.3599        5.3599       3.897517       0.01221
  21     81.20        1.4625        0.0000        5.3401        5.3401       3.877626       0.01314
  20     96.49        1.4626        0.0000        5.3155        5.3155       3.852979       0.01360
  19     114.6        1.4627        0.0000        5.2853        5.2854       3.822669       0.01415
  18     136.5        1.4629        0.0001        5.2504        5.2505       3.787603       0.01348
  17     162.9        1.4631        0.0001        5.2111        5.2112       3.748031       0.01265
  16     196.4        1.4636        0.0001        5.1640        5.1641       3.700557       0.01195
  15     218.7        1.4640        0.0001        5.1331        5.1332       3.669205       0.01190
  14     243.0        1.4647        0.0001        5.0962        5.0963       3.631597       0.01304
  13     269.0        1.4658        0.0001        5.0511        5.0512       3.585363       0.01500
  12     297.5        1.4675        0.0001        4.9956        4.9957       3.528188       0.01696
  11     328.5        1.4699        0.0001        4.9304        4.9305       3.460588       0.01838
  10     361.9        1.4732        0.0001        4.8511        4.8512       3.378053       0.02088
   9     398.1        1.4777        0.0002        4.7507        4.7508       3.273122       0.02445
   8     437.6        1.4840        0.0002        4.6220        4.6222       3.138186       0.02885
   7     480.5        1.4928        0.0002        4.4625        4.4627       2.969885       0.03305
   6     533.0        1.5071        0.0002        4.2460        4.2462       2.739156       0.03712
   5     589.8        1.5290        0.0002        3.9954        3.9956       2.466631       0.04045
   4     651.6        1.5653        0.0002        3.7089        3.7091       2.143771       0.04415
   3     718.7        1.6257        0.0002        3.4018        3.4020       1.776324       0.04618
   2     792.3        1.7365        0.0002        3.0564        3.0566       1.320164       0.05232
   1     891.5        0.2013        1.0177        0.0949        1.1126       0.911331       0.03479
   0    1013.0        0.2316        0.8461        0.0766        0.9226       0.690999       0.01530



 Wavenumbers:  3250. -  4000. cm-1, ATM      1
 LEVEL PRESSURE   UPWARD FLUX   DIFDOWN FLUX  DIRDOWN FLUX  DOWNWARD FLUX   NET FLUX    HEATING RATE
          mb          W/m2          W/m2          W/m2        W/m2          W/m2       degree/day
  51    .06700        0.0412        0.0000        9.1795        9.1795       9.138310       0.00000
  50    .07753        0.0412        0.0000        9.1747        9.1747       9.133468       3.88148
  49    .09103        0.0412        0.0000        9.1713        9.1713       9.130080       2.11747
  48    0.1069        0.0412        0.0000        9.1688        9.1688       9.127555       1.34402
  47    0.1255        0.0412        0.0000        9.1665        9.1665       9.125296       1.02422
  46    0.1487        0.0412        0.0000        9.1641        9.1641       9.122854       0.88991
  45    0.1794        0.0412        0.0000        9.1612        9.1612       9.119976       0.79008
  44    0.2165        0.0412        0.0000        9.1583        9.1583       9.117056       0.66430
  43    0.2613        0.0412        0.0000        9.1553        9.1553       9.114083       0.56041
  42    0.3336        0.0412        0.0000        9.1511        9.1511       9.109904       0.48723
  41    0.4307        0.0412        0.0000        9.1464        9.1464       9.105136       0.41459
  40    0.5894        0.0412        0.0000        9.1393        9.1394       9.098130       0.37255
  39     1.339        0.0412        0.0000        9.1127        9.1127       9.071516       0.29962
  38     1.782        0.0412        0.0000        9.1011        9.1011       9.059928       0.22062
  37     2.292        0.0412        0.0000        9.0901        9.0901       9.048862       0.18329
  36     2.964        0.0412        0.0000        9.0776        9.0776       9.036432       0.15603
  35     3.853        0.0412        0.0000        9.0629        9.0629       9.021642       0.14036
  34     5.035        0.0412        0.0000        9.0441        9.0441       9.002903       0.13386
  33     6.613        0.0412        0.0000        9.0191        9.0191       8.977901       0.13366
  32     8.786        0.0412        0.0000        8.9843        8.9843       8.943118       0.13509
  31     11.80        0.0412        0.0000        8.9327        8.9327       8.891501       0.14451
  30     15.07        0.0412        0.0000        8.8758        8.8759       8.834656       0.14676
  29     18.79        0.0412        0.0000        8.8110        8.8110       8.769829       0.14698
  28     23.16        0.0412        0.0000        8.7365        8.7366       8.695384       0.14395
  27     28.12        0.0412        0.0000        8.6554        8.6555       8.614271       0.13789
  26     33.73        0.0412        0.0000        8.5719        8.5719       8.530771       0.12554
  25     40.54        0.0412        0.0001        8.4812        8.4812       8.440048       0.11255
  24     48.69        0.0412        0.0001        8.3838        8.3839       8.342746       0.10069
  23     57.69        0.0411        0.0001        8.2861        8.2862       8.245011       0.09161
  22     68.43        0.0411        0.0001        8.1751        8.1751       8.134014       0.08726
  21     81.20        0.0411        0.0001        8.0457        8.0458       8.004656       0.08548
  20     96.49        0.0411        0.0001        7.8949        7.8951       7.853952       0.08318
  19     114.6        0.0411        0.0001        7.7162        7.7163       7.675243       0.08344
  18     136.5        0.0411        0.0002        7.5193        7.5195       7.478398       0.07569
  17     162.9        0.0410        0.0002        7.2913        7.2915       7.250506       0.07284
  16     196.4        0.0410        0.0002        6.9660        6.9662       6.925230       0.08188
  15     218.7        0.0410        0.0002        6.6648        6.6650       6.624035       0.11435
  14     243.0        0.0410        0.0002        6.2619        6.2622       6.221223       0.13971
  13     269.0        0.0410        0.0003        5.7576        5.7579       5.716882       0.16361
  12     297.5        0.0411        0.0003        5.1719        5.1722       5.131102       0.17374
  11     328.5        0.0412        0.0002        4.5757        4.5760       4.534787       0.16214
  10     361.9        0.0414        0.0002        3.9995        3.9998       3.958354       0.14584
   9     398.1        0.0418        0.0002        3.4655        3.4657       3.423875       0.12452
   8     437.6        0.0425        0.0002        2.9740        2.9743       2.931725       0.10522
   7     480.5        0.0436        0.0002        2.5307        2.5309       2.487216       0.08730
   6     533.0        0.0458        0.0002        2.0614        2.0616       2.015727       0.07585
   5     589.8        0.0498        0.0002        1.6150        1.6151       1.565291       0.06686
   4     651.6        0.0582        0.0001        1.1565        1.1566       1.098375       0.06385
   3     718.7        0.0767        0.0001        0.7390        0.7391       0.662428       0.05479
   2     792.3        0.1259        0.0001        0.3985        0.3985       0.272645       0.04470
   1     891.5        0.0001        0.0371        0.0042        0.0413       0.041168       0.01970
   0    1013.0        0.0013        0.0038        0.0003        0.0042       0.002901       0.00266



 Wavenumbers:  4000. -  4650. cm-1, ATM      1
 LEVEL PRESSURE   UPWARD FLUX   DIFDOWN FLUX  DIRDOWN FLUX  DOWNWARD FLUX   NET FLUX    HEATING RATE
          mb          W/m2          W/m2          W/m2        W/m2          W/m2       degree/day
  51    .06700        4.7837        0.0000       10.7795       10.7795       5.995845       0.00000
  50    .07753        4.7837        0.0000       10.7795       10.7795       5.995844       0.00080
  49    .09103        4.7837        0.0000       10.7795       10.7795       5.995843       0.00078
  48    0.1069        4.7837        0.0000       10.7795       10.7795       5.995842       0.00076
  47    0.1255        4.7837        0.0000       10.7795       10.7795       5.995840       0.00075
  46    0.1487        4.7837        0.0000       10.7795       10.7795       5.995838       0.00076
  45    0.1794        4.7837        0.0000       10.7795       10.7795       5.995835       0.00078
  44    0.2165        4.7837        0.0000       10.7795       10.7795       5.995832       0.00076
  43    0.2613        4.7837        0.0000       10.7795       10.7795       5.995828       0.00075
  42    0.3336        4.7837        0.0000       10.7795       10.7795       5.995821       0.00077
  41    0.4307        4.7837        0.0000       10.7795       10.7795       5.995812       0.00077
  40    0.5894        4.7837        0.0000       10.7795       10.7795       5.995797       0.00080
  39     1.339        4.7837        0.0000       10.7794       10.7794       5.995708       0.00101
  38     1.782        4.7837        0.0000       10.7793       10.7793       5.995638       0.00133
  37     2.292        4.7837        0.0000       10.7792       10.7792       5.995544       0.00156
  36     2.964        4.7837        0.0000       10.7791       10.7791       5.995403       0.00176
  35     3.853        4.7837        0.0000       10.7789       10.7789       5.995195       0.00198
  34     5.035        4.7837        0.0000       10.7786       10.7786       5.994888       0.00220
  33     6.613        4.7837        0.0000       10.7781       10.7781       5.994435       0.00242
  32     8.786        4.7837        0.0000       10.7774       10.7774       5.993767       0.00259
  31     11.80        4.7837        0.0001       10.7763       10.7764       5.992717       0.00294
  30     15.07        4.7837        0.0001       10.7751       10.7752       5.991485       0.00318
  29     18.79        4.7837        0.0001       10.7736       10.7737       5.989995       0.00338
  28     23.16        4.7837        0.0001       10.7717       10.7718       5.988143       0.00358
  27     28.12        4.7837        0.0001       10.7695       10.7696       5.985901       0.00381
  26     33.73        4.7837        0.0002       10.7667       10.7668       5.983135       0.00416
  25     40.54        4.7837        0.0002       10.7629       10.7631       5.979381       0.00466
  24     48.69        4.7838        0.0002       10.7579       10.7581       5.974376       0.00518
  23     57.69        4.7838        0.0003       10.7520       10.7523       5.968438       0.00557
  22     68.43        4.7839        0.0003       10.7446       10.7449       5.960990       0.00586
  21     81.20        4.7841        0.0004       10.7355       10.7359       5.951809       0.00607
  20     96.49        4.7843        0.0004       10.7245       10.7249       5.940624       0.00617
  19     114.6        4.7846        0.0005       10.7107       10.7112       5.926621       0.00654
  18     136.5        4.7851        0.0006       10.6942       10.6948       5.909726       0.00650
  17     162.9        4.7858        0.0007       10.6740       10.6748       5.888978       0.00663
  16     196.4        4.7870        0.0009       10.6464       10.6472       5.860292       0.00722
  15     218.7        4.7880        0.0010       10.6255       10.6264       5.838430       0.00830
  14     243.0        4.7896        0.0011       10.5980       10.5991       5.809581       0.01001
  13     269.0        4.7919        0.0012       10.5611       10.5623       5.770433       0.01270
  12     297.5        4.7952        0.0013       10.5119       10.5133       5.718033       0.01554
  11     328.5        4.7999        0.0015       10.4499       10.4513       5.651455       0.01810
  10     361.9        4.8060        0.0016       10.3702       10.3718       5.565800       0.02167
   9     398.1        4.8137        0.0018       10.2678       10.2695       5.455872       0.02561
   8     437.6        4.8235        0.0019       10.1390       10.1409       5.317414       0.02960
   7     480.5        4.8361        0.0021        9.9877        9.9898       5.153666       0.03216
   6     533.0        4.8556        0.0023        9.7937        9.7959       4.940353       0.03432
   5     589.8        4.8839        0.0025        9.5752        9.5776       4.693735       0.03661
   4     651.6        4.9297        0.0027        9.2958        9.2985       4.368727       0.04445
   3     718.7        5.0073        0.0029        8.9267        8.9296       3.922312       0.05610
   2     792.3        5.1541        0.0030        8.4542        8.4572       3.303094       0.07102
   1     891.5        0.7287        3.1741        0.2863        3.4604       2.731683       0.04862
   0    1013.0        0.7748        2.9236        0.2599        3.1835       2.408684       0.02243



 Wavenumbers:  4650. -  5150. cm-1, ATM      1
 LEVEL PRESSURE   UPWARD FLUX   DIFDOWN FLUX  DIRDOWN FLUX  DOWNWARD FLUX   NET FLUX    HEATING RATE
          mb          W/m2          W/m2          W/m2        W/m2          W/m2       degree/day
  51    .06700        3.4532        0.0000       10.2033       10.2033       6.750133       0.00000
  50    .07753        3.4532        0.0000       10.2031       10.2031       6.749897       0.18901
  49    .09103        3.4532        0.0000       10.2028       10.2028       6.749602       0.18428
  48    0.1069        3.4532        0.0000       10.2025       10.2025       6.749266       0.17931
  47    0.1255        3.4532        0.0000       10.2021       10.2021       6.748881       0.17426
  46    0.1487        3.4532        0.0000       10.2016       10.2016       6.748400       0.17536
  45    0.1794        3.4532        0.0000       10.2010       10.2010       6.747750       0.17850
  44    0.2165        3.4532        0.0000       10.2002       10.2002       6.746990       0.17277
  43    0.2613        3.4532        0.0000       10.1993       10.1993       6.746105       0.16690
  42    0.3336        3.4532        0.0000       10.1979       10.1979       6.744672       0.16702
  41    0.4307        3.4532        0.0000       10.1960       10.1960       6.742832       0.16002
  40    0.5894        3.4532        0.0000       10.1932       10.1932       6.739958       0.15283
  39     1.339        3.4532        0.0000       10.1816       10.1816       6.728366       0.13050
  38     1.782        3.4532        0.0000       10.1760       10.1760       6.722837       0.10526
  37     2.292        3.4532        0.0000       10.1706       10.1706       6.717380       0.09038
  36     2.964        3.4532        0.0000       10.1646       10.1647       6.711456       0.07436
  35     3.853        3.4532        0.0000       10.1584       10.1584       6.705241       0.05899
  34     5.035        3.4532        0.0000       10.1521       10.1521       6.698903       0.04527
  33     6.613        3.4532        0.0000       10.1456       10.1456       6.692442       0.03454
  32     8.786        3.4532        0.0001       10.1386       10.1386       6.685425       0.02725
  31     11.80        3.4532        0.0001       10.1295       10.1296       6.676373       0.02534
  30     15.07        3.4532        0.0001       10.1196       10.1197       6.666477       0.02555
  29     18.79        3.4533        0.0001       10.1076       10.1077       6.654446       0.02728
  28     23.16        3.4533        0.0002       10.0923       10.0924       6.639107       0.02966
  27     28.12        3.4534        0.0002       10.0731       10.0733       6.619966       0.03254
  26     33.73        3.4535        0.0002       10.0500       10.0503       6.596809       0.03482
  25     40.54        3.4536        0.0003       10.0201       10.0204       6.566815       0.03721
  24     48.69        3.4538        0.0003        9.9820        9.9823       6.528514       0.03964
  23     57.69        3.4540        0.0004        9.9384        9.9388       6.484809       0.04097
  22     68.43        3.4544        0.0005        9.8858        9.8862       6.431846       0.04164
  21     81.20        3.4548        0.0005        9.8234        9.8240       6.369133       0.04144
  20     96.49        3.4555        0.0006        9.7518        9.7524       6.296870       0.03988
  19     114.6        3.4565        0.0007        9.6719        9.6727       6.216203       0.03767
  18     136.5        3.4578        0.0009        9.5858        9.5867       6.128914       0.03356
  17     162.9        3.4596        0.0010        9.4940        9.4951       6.035499       0.02986
  16     196.4        3.4624        0.0012        9.3883        9.3895       5.927134       0.02728
  15     218.7        3.4646        0.0014        9.3229        9.3243       5.859696       0.02560
  14     243.0        3.4675        0.0015        9.2520        9.2535       5.786029       0.02555
  13     269.0        3.4713        0.0017        9.1717        9.1733       5.702011       0.02726
  12     297.5        3.4767        0.0018        9.0763        9.0781       5.601404       0.02984
  11     328.5        3.4837        0.0020        8.9650        8.9670       5.483239       0.03213
  10     361.9        3.4928        0.0022        8.8349        8.8371       5.344293       0.03515
   9     398.1        3.5046        0.0024        8.6820        8.6844       5.179780       0.03833
   8     437.6        3.5200        0.0026        8.5028        8.5054       4.985391       0.04156
   7     480.5        3.5400        0.0028        8.2948        8.2976       4.757582       0.04474
   6     533.0        3.5706        0.0030        8.0209        8.0239       4.453285       0.04895
   5     589.8        3.6132        0.0032        7.7063        7.7095       4.096309       0.05299
   4     651.6        3.6765        0.0034        7.3412        7.3446       3.668127       0.05856
   3     718.7        3.7726        0.0036        6.9387        6.9423       3.169638       0.06265
   2     792.3        3.9270        0.0038        6.5066        6.5104       2.583359       0.06724
   1     891.5        0.5353        2.3985        0.2181        2.6165       2.081264       0.04273
   0    1013.0        0.5784        2.1776        0.1948        2.3724       1.794017       0.01995



 Wavenumbers:  5150. -  6150. cm-1, ATM      1
 LEVEL PRESSURE   UPWARD FLUX   DIFDOWN FLUX  DIRDOWN FLUX  DOWNWARD FLUX   NET FLUX    HEATING RATE
          mb          W/m2          W/m2          W/m2        W/m2          W/m2       degree/day
  51    .06700        8.2131        0.0000       25.5798       25.5798      17.366692       0.00000
  50    .07753        8.2131        0.0000       25.5798       25.5798      17.366653       0.03160
  49    .09103        8.2131        0.0000       25.5797       25.5797      17.366601       0.03209
  48    0.1069        8.2131        0.0000       25.5797       25.5797      17.366540       0.03260
  47    0.1255        8.2131        0.0000       25.5796       25.5796      17.366467       0.03310
  46    0.1487        8.2131        0.0000       25.5795       25.5795      17.366371       0.03487
  45    0.1794        8.2131        0.0000       25.5794       25.5794      17.366236       0.03711
  44    0.2165        8.2131        0.0000       25.5792       25.5792      17.366071       0.03768
  43    0.2613        8.2131        0.0000       25.5790       25.5790      17.365868       0.03825
  42    0.3336        8.2131        0.0000       25.5786       25.5786      17.365521       0.04042
  41    0.4307        8.2131        0.0000       25.5782       25.5782      17.365050       0.04096
  40    0.5894        8.2131        0.0000       25.5774       25.5774      17.364261       0.04197
  39     1.339        8.2131        0.0000       25.5735       25.5736      17.360458       0.04281
  38     1.782        8.2131        0.0001       25.5713       25.5714      17.358244       0.04215
  37     2.292        8.2131        0.0001       25.5688       25.5688      17.355739       0.04150
  36     2.964        8.2131        0.0001       25.5656       25.5657      17.352555       0.03997
  35     3.853        8.2131        0.0001       25.5615       25.5616      17.348508       0.03841
  34     5.035        8.2131        0.0002       25.5562       25.5564      17.343295       0.03724
  33     6.613        8.2131        0.0002       25.5494       25.5496      17.336532       0.03615
  32     8.786        8.2131        0.0003       25.5406       25.5409      17.327768       0.03404
  31     11.80        8.2131        0.0004       25.5287       25.5290      17.315911       0.03319
  30     15.07        8.2131        0.0005       25.5167       25.5171      17.304018       0.03071
  29     18.79        8.2132        0.0006       25.5042       25.5047      17.291581       0.02820
  28     23.16        8.2132        0.0007       25.4907       25.4914      17.278179       0.02591
  27     28.12        8.2132        0.0008       25.4764       25.4773      17.264042       0.02403
  26     33.73        8.2133        0.0010       25.4620       25.4630      17.249705       0.02156
  25     40.54        8.2135        0.0012       25.4463       25.4475      17.234013       0.01947
  24     48.69        8.2136        0.0015       25.4294       25.4308      17.217188       0.01741
  23     57.69        8.2139        0.0017       25.4126       25.4143      17.200462       0.01568
  22     68.43        8.2142        0.0021       25.3944       25.3965      17.182277       0.01430
  21     81.20        8.2146        0.0024       25.3744       25.3769      17.162242       0.01324
  20     96.49        8.2151        0.0029       25.3519       25.3548      17.139702       0.01244
  19     114.6        8.2158        0.0034       25.3262       25.3296      17.113833       0.01208
  18     136.5        8.2166        0.0041       25.2962       25.3003      17.083702       0.01159
  17     162.9        8.2176        0.0049       25.2521       25.2570      17.039370       0.01417
  16     196.4        8.2190        0.0058       25.1593       25.1651      16.946157       0.02346
  15     218.7        8.2200        0.0065       25.0159       25.0224      16.802403       0.05458
  14     243.0        8.2213        0.0071       24.7089       24.7160      16.494760       0.10670
  13     269.0        8.2229        0.0078       24.1619       24.1696      15.946668       0.17780
  12     297.5        8.2253        0.0084       23.4544       23.4628      15.237515       0.21033
  11     328.5        8.2283        0.0090       22.7355       22.7445      14.516185       0.19613
  10     361.9        8.2324        0.0097       21.9224       21.9321      13.699710       0.20658
   9     398.1        8.2379        0.0103       20.9939       21.0042      12.766290       0.21747
   8     437.6        8.2457        0.0109       19.9833       19.9942      11.748566       0.21760
   7     480.5        8.2564        0.0115       18.9483       18.9598      10.703348       0.20528
   6     533.0        8.2747        0.0121       17.7796       17.7917       9.516957       0.19085
   5     589.8        8.3046        0.0128       16.6726       16.6853       8.380765       0.16865
   4     651.6        8.3593        0.0134       15.6343       15.6477       7.288395       0.14938
   3     718.7        8.4600        0.0142       14.7738       14.7879       6.327941       0.12070
   2     792.3        8.6616        0.0150       14.0291       14.0441       5.382485       0.10843
   1     891.5        1.2806        5.3717        0.4803        5.8521       4.571434       0.06902
   0    1013.0        1.3344        5.0178        0.4420        5.4598       4.125394       0.03097



 Wavenumbers:  6150. -  7700. cm-1, ATM      1
 LEVEL PRESSURE   UPWARD FLUX   DIFDOWN FLUX  DIRDOWN FLUX  DOWNWARD FLUX   NET FLUX    HEATING RATE
          mb          W/m2          W/m2          W/m2        W/m2          W/m2       degree/day
  51    .06700       13.1031        0.0000       47.3109       47.3109      34.207735       0.00000
  50    .07753       13.1031        0.0000       47.3108       47.3108      34.207678       0.04553
  49    .09103       13.1031        0.0000       47.3107       47.3107      34.207605       0.04583
  48    0.1069       13.1031        0.0000       47.3106       47.3106      34.207518       0.04614
  47    0.1255       13.1031        0.0000       47.3105       47.3105      34.207416       0.04645
  46    0.1487       13.1031        0.0000       47.3104       47.3104      34.207283       0.04852
  45    0.1794       13.1031        0.0000       47.3102       47.3102      34.207096       0.05127
  44    0.2165       13.1031        0.0000       47.3100       47.3100      34.206869       0.05167
  43    0.2613       13.1031        0.0000       47.3097       47.3097      34.206592       0.05210
  42    0.3336       13.1031        0.0000       47.3092       47.3092      34.206123       0.05471
  41    0.4307       13.1031        0.0000       47.3085       47.3086      34.205488       0.05521
  40    0.5894       13.1031        0.0001       47.3074       47.3075      34.204429       0.05633
  39     1.339       13.1030        0.0002       47.3022       47.3024      34.199336       0.05733
  38     1.782       13.1030        0.0002       47.2991       47.2993      34.196366       0.05655
  37     2.292       13.1029        0.0003       47.2956       47.2959      34.192991       0.05591
  36     2.964       13.1029        0.0004       47.2912       47.2916      34.188672       0.05421
  35     3.853       13.1028        0.0005       47.2855       47.2859      34.183138       0.05252
  34     5.035       13.1027        0.0006       47.2780       47.2787      34.175957       0.05129
  33     6.613       13.1026        0.0008       47.2683       47.2691      34.166569       0.05019
  32     8.786       13.1024        0.0011       47.2556       47.2567      34.154270       0.04777
  31     11.80       13.1021        0.0015       47.2380       47.2395      34.137366       0.04733
  30     15.07       13.1019        0.0019       47.2201       47.2219      34.120078       0.04463
  29     18.79       13.1015        0.0023       47.2008       47.2031      34.101599       0.04190
  28     23.16       13.1012        0.0029       47.1795       47.1824      34.081208       0.03943
  27     28.12       13.1008        0.0035       47.1565       47.1600      34.059214       0.03739
  26     33.73       13.1003        0.0042       47.1324       47.1366      34.036291       0.03446
  25     40.54       13.0997        0.0050       47.1054       47.1104      34.010654       0.03181
  24     48.69       13.0991        0.0060       47.0754       47.0815      33.982400       0.02924
  23     57.69       13.0983        0.0071       47.0449       47.0521      33.953776       0.02683
  22     68.43       13.0974        0.0085       47.0110       47.0195      33.922037       0.02495
  21     81.20       13.0964        0.0101       46.9729       46.9829      33.886541       0.02346
  20     96.49       13.0951        0.0119       46.9294       46.9413      33.846197       0.02227
  19     114.6       13.0936        0.0142       46.8790       46.8932      33.799558       0.02178
  18     136.5       13.0919        0.0168       46.8200       46.8368      33.744929       0.02101
  17     162.9       13.0898        0.0200       46.7361       46.7561      33.666295       0.02513
  16     196.4       13.0873        0.0241       46.5703       46.5943      33.507069       0.04008
  15     218.7       13.0857        0.0267       46.3473       46.3740      33.288272       0.08307
  14     243.0       13.0843        0.0294       45.9299       45.9593      32.874963       0.14335
  13     269.0       13.0835        0.0322       45.1708       45.2030      32.119500       0.24507
  12     297.5       13.0837        0.0349       44.0115       44.0464      30.962648       0.34311
  11     328.5       13.0854        0.0376       42.7242       42.7618      29.676428       0.34972
  10     361.9       13.0894        0.0404       41.3539       41.3943      28.304952       0.34700
   9     398.1       13.0969        0.0431       39.7953       39.8384      26.741494       0.36425
   8     437.6       13.1101        0.0456       37.9948       38.0404      24.930294       0.38725
   7     480.5       13.1317        0.0480       36.0647       36.1127      22.980985       0.38284
   6     533.0       13.1731        0.0506       33.7773       33.8279      20.654771       0.37421
   5     589.8       13.2459        0.0529       31.4082       31.4611      18.215166       0.36212
   4     651.6       13.3872        0.0547       28.8834       28.9381      15.550866       0.36435
   3     718.7       13.6578        0.0563       26.4104       26.4666      12.808844       0.34460
   2     792.3       14.2307        0.0575       24.0056       24.0631       9.832452       0.34136
   1     891.5        1.9157        8.6106        0.7799        9.3905       7.474843       0.20062
   0    1013.0        2.0553        7.7177        0.6837        8.4015       6.346152       0.07837



 Wavenumbers:  7700. -  8050. cm-1, ATM      1
 LEVEL PRESSURE   UPWARD FLUX   DIFDOWN FLUX  DIRDOWN FLUX  DOWNWARD FLUX   NET FLUX    HEATING RATE
          mb          W/m2          W/m2          W/m2        W/m2          W/m2       degree/day
  51    .06700        6.0763        0.0000       11.1810       11.1810       5.104653       0.00000
  50    .07753        6.0763        0.0000       11.1809       11.1809       5.104630       0.01766
  49    .09103        6.0763        0.0000       11.1809       11.1809       5.104603       0.01730
  48    0.1069        6.0763        0.0000       11.1809       11.1809       5.104571       0.01694
  47    0.1255        6.0763        0.0000       11.1809       11.1809       5.104534       0.01658
  46    0.1487        6.0763        0.0000       11.1808       11.1808       5.104488       0.01682
  45    0.1794        6.0764        0.0000       11.1808       11.1808       5.104425       0.01731
  44    0.2165        6.0764        0.0000       11.1807       11.1807       5.104351       0.01698
  43    0.2613        6.0764        0.0000       11.1806       11.1806       5.104262       0.01666
  42    0.3336        6.0764        0.0000       11.1805       11.1805       5.104116       0.01705
  41    0.4307        6.0764        0.0000       11.1803       11.1804       5.103922       0.01686
  40    0.5894        6.0765        0.0000       11.1801       11.1801       5.103605       0.01684
  39     1.339        6.0768        0.0001       11.1788       11.1789       5.102107       0.01687
  38     1.782        6.0769        0.0001       11.1781       11.1782       5.101226       0.01676
  37     2.292        6.0771        0.0001       11.1772       11.1773       5.100208       0.01688
  36     2.964        6.0774        0.0002       11.1761       11.1762       5.098870       0.01679
  35     3.853        6.0777        0.0002       11.1746       11.1748       5.097102       0.01677
  34     5.035        6.0781        0.0003       11.1726       11.1729       5.094755       0.01677
  33     6.613        6.0787        0.0004       11.1700       11.1703       5.091619       0.01676
  32     8.786        6.0795        0.0005       11.1664       11.1669       5.087395       0.01641
  31     11.80        6.0806        0.0007       11.1613       11.1620       5.081355       0.01691
  30     15.07        6.0818        0.0008       11.1558       11.1567       5.074876       0.01673
  29     18.79        6.0832        0.0010       11.1497       11.1507       5.067564       0.01658
  28     23.16        6.0848        0.0013       11.1425       11.1438       5.059033       0.01650
  27     28.12        6.0866        0.0016       11.1343       11.1359       5.049292       0.01656
  26     33.73        6.0886        0.0019       11.1252       11.1271       5.038411       0.01636
  25     40.54        6.0911        0.0022       11.1142       11.1164       5.025293       0.01627
  24     48.69        6.0942        0.0027       11.1010       11.1037       5.009523       0.01632
  23     57.69        6.0975        0.0032       11.0866       11.0898       4.992257       0.01618
  22     68.43        6.1015        0.0038       11.0695       11.0733       4.971770       0.01610
  21     81.20        6.1064        0.0045       11.0494       11.0538       4.947475       0.01605
  20     96.49        6.1122        0.0053       11.0255       11.0308       4.918685       0.01589
  19     114.6        6.1191        0.0063       10.9975       11.0038       4.884720       0.01586
  18     136.5        6.1275        0.0075       10.9648       10.9722       4.844764       0.01536
  17     162.9        6.1376        0.0089       10.9263       10.9352       4.797586       0.01508
  16     196.4        6.1509        0.0107       10.8773       10.8879       4.737013       0.01525
  15     218.7        6.1598        0.0118       10.8455       10.8574       4.697553       0.01498
  14     243.0        6.1697        0.0131       10.8114       10.8246       4.654882       0.01480
  13     269.0        6.1806        0.0145       10.7749       10.7894       4.608817       0.01494
  12     297.5        6.1926        0.0160       10.7357       10.7517       4.559105       0.01474
  11     328.5        6.2060        0.0176       10.6937       10.7114       4.505406       0.01460
  10     361.9        6.2208        0.0194       10.6489       10.6682       4.447460       0.01466
   9     398.1        6.2373        0.0213       10.6008       10.6220       4.384725       0.01462
   8     437.6        6.2558        0.0233       10.5491       10.5723       4.316527       0.01458
   7     480.5        6.2766        0.0254       10.4934       10.5189       4.242229       0.01459
   6     533.0        6.3038        0.0281       10.4243       10.4524       4.148545       0.01507
   5     589.8        6.3356        0.0309       10.3479       10.3788       4.043257       0.01563
   4     651.6        6.3737        0.0340       10.2613       10.2953       3.921569       0.01664
   3     718.7        6.4207        0.0372       10.1618       10.1990       3.778285       0.01801
   2     792.3        6.4806        0.0406       10.0439       10.0845       3.603952       0.01999
   1     891.5        1.0560        4.1324        0.3621        4.4945       3.438482       0.01408
   0    1013.0        1.0780        4.0401        0.3528        4.3930       3.315026       0.00857



 Wavenumbers:  8050. - 12850. cm-1, ATM      1
 LEVEL PRESSURE   UPWARD FLUX   DIFDOWN FLUX  DIRDOWN FLUX  DOWNWARD FLUX   NET FLUX    HEATING RATE
          mb          W/m2          W/m2          W/m2        W/m2          W/m2       degree/day
  51    .06700       79.2190        0.0000      156.5418      156.5418      77.322785       0.00000
  50    .07753       79.2190        0.0000      156.5417      156.5417      77.322785      -0.00000
  49    .09103       79.2189        0.0001      156.5417      156.5417      77.322785       0.00000
  48    0.1069       79.2189        0.0001      156.5416      156.5417      77.322785       0.00000
  47    0.1255       79.2189        0.0002      156.5415      156.5417      77.322785      -0.00000
  46    0.1487       79.2189        0.0002      156.5414      156.5416      77.322785       0.00000
  45    0.1794       79.2188        0.0003      156.5413      156.5416      77.322785       0.00000
  44    0.2165       79.2188        0.0004      156.5412      156.5416      77.322785      -0.00000
  43    0.2613       79.2187        0.0005      156.5410      156.5415      77.322785      -0.00000
  42    0.3336       79.2186        0.0007      156.5407      156.5414      77.322785       0.00000
  41    0.4307       79.2185        0.0010      156.5403      156.5413      77.322785       0.00000
  40    0.5894       79.2183        0.0014      156.5397      156.5411      77.322785       0.00000
  39     1.339       79.2174        0.0034      156.5367      156.5402      77.322785      -0.00000
  38     1.782       79.2168        0.0046      156.5350      156.5396      77.322785      -0.00000
  37     2.292       79.2162        0.0060      156.5330      156.5390      77.322785       0.00000
  36     2.964       79.2153        0.0078      156.5303      156.5381      77.322785       0.00000
  35     3.853       79.2142        0.0102      156.5268      156.5370      77.322785       0.00000
  34     5.035       79.2128        0.0133      156.5222      156.5355      77.322785       0.00000
  33     6.613       79.2108        0.0176      156.5160      156.5336      77.322785       0.00000
  32     8.786       79.2081        0.0233      156.5076      156.5309      77.322785      -0.00000
  31     11.80       79.2043        0.0315      156.4957      156.5271      77.322785       0.00000
  30     15.07       79.2002        0.0402      156.4828      156.5230      77.322785       0.00000
  29     18.79       79.1956        0.0502      156.4682      156.5184      77.322785       0.00000
  28     23.16       79.1902        0.0618      156.4512      156.5130      77.322785       0.00000
  27     28.12       79.1840        0.0751      156.4317      156.5068      77.322785      -0.00000
  26     33.73       79.1771        0.0900      156.4099      156.4999      77.322785       0.00000
  25     40.54       79.1687        0.1080      156.3834      156.4915      77.322785       0.00000
  24     48.69       79.1585        0.1298      156.3515      156.4813      77.322785      -0.00000
  23     57.69       79.1474        0.1538      156.3164      156.4702      77.322785       0.00000
  22     68.43       79.1341        0.1823      156.2746      156.4569      77.322785       0.00000
  21     81.20       79.1182        0.2164      156.2246      156.4410      77.322785      -0.00000
  20     96.49       79.0992        0.2571      156.1649      156.4220      77.322785      -0.00000
  19     114.6       79.0769        0.3055      156.0879      156.3934      77.316572       0.00290
  18     136.5       79.0503        0.3630      155.9962      156.3591      77.308863       0.00296
  17     162.9       79.0186        0.4316      155.8831      156.3146      77.296065       0.00409
  16     196.4       78.9775        0.5208      155.7199      156.2407      77.263244       0.00826
  15     218.7       78.9508        0.5794      155.5733      156.1527      77.201969       0.02326
  14     243.0       78.9226        0.6432      155.3367      155.9798      77.057267       0.05019
  13     269.0       78.8941        0.7121      154.9514      155.6635      76.769396       0.09338
  12     297.5       78.8674        0.7862      154.3896      155.1759      76.308497       0.13670
  11     328.5       78.8436        0.8662      153.7151      154.5813      75.737674       0.15521
  10     361.9       78.8256        0.9519      152.9087      153.8607      75.035082       0.17776
   9     398.1       78.8179        1.0436      151.8986      152.9422      74.124295       0.21219
   8     437.6       78.8284        1.1409      150.6031      151.7441      72.915631       0.25842
   7     480.5       78.8670        1.2438      149.0014      150.2451      71.378155       0.30195
   6     533.0       78.9661        1.3679      146.7375      148.1055      69.139394       0.36015
   5     589.8       79.1690        1.4976      143.8730      145.3706      66.201574       0.43607
   4     651.6       79.5941        1.6301      140.0955      141.7256      62.131478       0.55660
   3     718.7       80.4165        1.7638      135.5278      137.2916      56.875081       0.66058
   2     792.3       82.0777        1.8951      130.0690      131.9642      49.886432       0.80152
   1     891.5       12.8081       51.4930        4.4860       55.9790      43.170912       0.57146
   0    1013.0       13.3528       48.3452        4.1489       52.4941      39.141332       0.27979



 Wavenumbers: 12850. - 16000. cm-1, ATM      1
 LEVEL PRESSURE   UPWARD FLUX   DIFDOWN FLUX  DIRDOWN FLUX  DOWNWARD FLUX   NET FLUX    HEATING RATE
          mb          W/m2          W/m2          W/m2        W/m2          W/m2       degree/day
  51    .06700       63.4274        0.0000       98.0872       98.0872      34.659862       0.00000
  50    .07753       63.4274        0.0001       98.0864       98.0864      34.659074       0.63216
  49    .09103       63.4274        0.0001       98.0853       98.0854      34.658084       0.61878
  48    0.1069       63.4273        0.0002       98.0841       98.0843      34.656947       0.60508
  47    0.1255       63.4273        0.0004       98.0826       98.0830      34.655642       0.59163
  46    0.1487       63.4273        0.0005       98.0809       98.0813      34.653997       0.59978
  45    0.1794       63.4274        0.0007       98.0784       98.0791      34.651760       0.61390
  44    0.2165       63.4274        0.0009       98.0756       98.0765      34.649133       0.59771
  43    0.2613       63.4275        0.0012       98.0723       98.0735      34.646047       0.58167
  42    0.3336       63.4276        0.0016       98.0670       98.0686      34.641019       0.58624
  41    0.4307       63.4278        0.0022       98.0602       98.0624      34.634529       0.56427
  40    0.5894       63.4284        0.0031       98.0496       98.0527      34.624332       0.54225
  39     1.339       63.4333        0.0076       98.0043       98.0120      34.578619       0.51465
  38     1.782       63.4380        0.0103       97.9793       97.9895      34.551495       0.51640
  37     2.292       63.4451        0.0133       97.9498       97.9631      34.517931       0.55590
  36     2.964       63.4570        0.0173       97.9088       97.9261      34.469086       0.61315
  35     3.853       63.4763        0.0226       97.8503       97.8729      34.396597       0.68793
  34     5.035       63.5055        0.0296       97.7680       97.7976      34.292093       0.74654
  33     6.613       63.5463        0.0390       97.6562       97.6951      34.148884       0.76559
  32     8.786       63.5993        0.0516       97.5107       97.5622      33.962937       0.72215
  31     11.80       63.6682        0.0696       97.3179       97.3874      33.719268       0.68220
  30     15.07       63.7339        0.0889       97.1283       97.2172      33.483284       0.60927
  29     18.79       63.8009        0.1107       96.9300       97.0407      33.239826       0.55199
  28     23.16       63.8706        0.1361       96.7166       96.8527      32.982084       0.49839
  27     28.12       63.9404        0.1652       96.4935       96.6586      32.718230       0.44854
  26     33.73       64.0044        0.1977       96.2731       96.4708      32.466356       0.37870
  25     40.54       64.0653        0.2369       96.0408       96.2777      32.212394       0.31507
  24     48.69       64.1229        0.2843       95.7946       96.0789      31.955997       0.26533
  23     57.69       64.1707        0.3363       95.5573       95.8936      31.722893       0.21850
  22     68.43       64.2110        0.3983       95.3106       95.7089      31.497894       0.17688
  21     81.20       64.2362        0.4722       95.0643       95.5365      31.300345       0.13054
  20     96.49       64.2451        0.5603       94.8153       95.3756      31.130498       0.09374
  19     114.6       64.2541        0.6658       94.5411       95.2069      30.952815       0.08297
  18     136.5       64.2558        0.7909       94.2320       95.0229      30.767152       0.07139
  17     162.9       64.2496        0.9397       93.8753       94.8150      30.565414       0.06448
  16     196.4       64.2243        1.1327       93.4347       94.5673      30.343057       0.05597
  15     218.7       64.2015        1.2593       93.1513       94.4106      30.209100       0.05086
  14     243.0       64.1743        1.3970       92.8439       94.2409      30.066571       0.04943
  13     269.0       64.1428        1.5461       92.5111       94.0572      29.914430       0.04935
  12     297.5       64.1073        1.7071       92.1495       93.8566      29.749257       0.04899
  11     328.5       64.0697        1.8811       91.7554       93.6365      29.566744       0.04962
  10     361.9       64.0308        2.0682       91.3262       93.3944      29.363649       0.05139
   9     398.1       63.9919        2.2695       90.8575       93.1270      29.135084       0.05325
   8     437.6       63.9560        2.4853       90.3418       92.8271      28.871133       0.05643
   7     480.5       63.9259        2.7164       89.7728       92.4892      28.563276       0.06046
   6     533.0       63.9049        3.0001       89.0428       92.0429      28.138082       0.06840
   5     589.8       63.9117        3.3046       88.2038       91.5084      27.596697       0.08036
   4     651.6       63.9789        3.6292       87.1979       90.8271      26.848182       0.10236
   3     718.7       64.1321        3.9725       86.0161       89.9887      25.856621       0.12461
   2     792.3       64.4469        4.3309       84.5970       88.9279      24.481050       0.15776
   1     891.5       25.4324       45.3553        3.0281       48.3834      22.951069       0.13019
   0    1013.0       25.7902       44.4163        2.9246       47.3409      21.550613       0.09724



 Wavenumbers: 16000. - 22650. cm-1, ATM      1
 LEVEL PRESSURE   UPWARD FLUX   DIFDOWN FLUX  DIRDOWN FLUX  DOWNWARD FLUX   NET FLUX    HEATING RATE
          mb          W/m2          W/m2          W/m2        W/m2          W/m2       degree/day
  51    .06700      121.9705        0.0000      156.3892      156.3892      34.418727       0.00000
  50    .07753      121.9705        0.0004      156.3887      156.3891      34.418588       0.11140
  49    .09103      121.9704        0.0008      156.3879      156.3888      34.418386       0.12635
  48    0.1069      121.9704        0.0014      156.3871      156.3885      34.418115       0.14408
  47    0.1255      121.9703        0.0020      156.3861      156.3881      34.417753       0.16423
  46    0.1487      121.9703        0.0028      156.3847      156.3875      34.417219       0.19461
  45    0.1794      121.9703        0.0039      156.3828      156.3867      34.416384       0.22914
  44    0.2165      121.9704        0.0051      156.3805      156.3856      34.415252       0.25752
  43    0.2613      121.9706        0.0067      156.3776      156.3843      34.413716       0.28952
  42    0.3336      121.9710        0.0092      156.3726      156.3818      34.410796       0.34047
  41    0.4307      121.9718        0.0125      156.3657      156.3782      34.406394       0.38272
  40    0.5894      121.9736        0.0179      156.3537      156.3716      34.397999       0.44642
  39     1.339      121.9909        0.0434      156.2834      156.3269      34.335979       0.69824
  38     1.782      122.0077        0.0585      156.2324      156.2908      34.283147       1.00584
  37     2.292      122.0333        0.0759      156.1641      156.2400      34.206674       1.26659
  36     2.964      122.0764        0.0987      156.0605      156.1592      34.082792       1.55509
  35     3.853      122.1466        0.1288      155.9041      156.0329      33.886236       1.86535
  34     5.035      122.2531        0.1688      155.6774      155.8461      33.593022       2.09460
  33     6.613      122.4021        0.2221      155.3656      155.5877      33.185602       2.17807
  32     8.786      122.5959        0.2938      154.9577      155.2515      32.655563       2.05848
  31     11.80      122.8474        0.3963      154.4153      154.8116      31.964186       1.93564
  30     15.07      123.0873        0.5062      153.8804      154.3866      31.299304       1.71659
  29     18.79      123.3311        0.6301      153.3191      153.9492      30.618070       1.54457
  28     23.16      123.5846        0.7745      152.7126      153.4871      29.902500       1.38368
  27     28.12      123.8379        0.9394      152.0755      153.0149      29.177040       1.23323
  26     33.73      124.0688        1.1238      151.4409      152.5647      28.495849       1.02419
  25     40.54      124.2871        1.3462      150.7637      152.1099      27.822819       0.83497
  24     48.69      124.4911        1.6140      150.0338      151.6479      27.156750       0.68928
  23     57.69      124.6582        1.9078      149.3151      151.2229      26.564761       0.55490
  22     68.43      124.7956        2.2572      148.5476      150.8048      26.009236       0.43672
  21     81.20      124.8749        2.6731      147.7517      150.4247      25.549852       0.30355
  20     96.49      124.8911        3.1679      146.9127      150.0806      25.189476       0.19890
  19     114.6      124.8700        3.7536      145.9763      149.7299      24.859845       0.15391
  18     136.5      124.8179        4.4448      144.9088      149.3536      24.535700       0.12464
  17     162.9      124.7311        5.2637      143.6785      148.9423      24.211144       0.10374
  16     196.4      124.5653        6.3196      142.1651      148.4847      23.919388       0.07344
  15     218.7      124.4369        7.0092      141.2033      148.2126      23.775716       0.05455
  14     243.0      124.2883        7.7553      140.1753      147.9306      23.642308       0.04627
  13     269.0      124.1180        8.5597      139.0797      147.6394      23.521397       0.03922
  12     297.5      123.9251        9.4243      137.9141      147.3384      23.413302       0.03206
  11     328.5      123.7126       10.3531      136.6676      147.0207      23.308073       0.02861
  10     361.9      123.4801       11.3468      135.3392      146.6859      23.205818       0.02587
   9     398.1      123.2267       12.4089      133.9235      146.3324      23.105663       0.02333
   8     437.6      122.9529       13.5413      132.4163      145.9575      23.004615       0.02160
   7     480.5      122.6580       14.7457      130.8147      145.5604      22.902341       0.02009
   6     533.0      122.2950       16.2152      128.8599      145.0751      22.780110       0.01966
   5     589.8      121.9071       17.7835      126.7679      144.5514      22.644304       0.02016
   4     651.6      121.4995       19.4514      124.5274      143.9789      22.479343       0.02256
   3     718.7      121.0774       21.2202      122.1285      143.3486      22.271263       0.02615
   2     792.3      120.6556       23.0871      119.5548      142.6419      21.986308       0.03268
   1     891.5       77.7411       95.0751        4.2615       99.3366      21.595514       0.03325
   0    1013.0       77.6741       94.6812        4.1067       98.7879      21.113798       0.03345



 Wavenumbers: 22650. - 29000. cm-1, ATM      1
 LEVEL PRESSURE   UPWARD FLUX   DIFDOWN FLUX  DIRDOWN FLUX  DOWNWARD FLUX   NET FLUX    HEATING RATE
          mb          W/m2          W/m2          W/m2        W/m2          W/m2       degree/day
  51    .06700       50.8764        0.0000       59.0156       59.0156       8.139199       0.00000
  50    .07753       50.8763        0.0004       59.0151       59.0155       8.139199       0.00000
  49    .09103       50.8762        0.0010       59.0144       59.0154       8.139199      -0.00000
  48    0.1069       50.8760        0.0016       59.0136       59.0152       8.139199       0.00000
  47    0.1255       50.8758        0.0023       59.0127       59.0150       8.139199      -0.00000
  46    0.1487       50.8756        0.0033       59.0115       59.0148       8.139199       0.00000
  45    0.1794       50.8752        0.0045       59.0099       59.0144       8.139199       0.00000
  44    0.2165       50.8748        0.0060       59.0080       59.0140       8.139199      -0.00000
  43    0.2613       50.8744        0.0078       59.0058       59.0136       8.139199       0.00000
  42    0.3336       50.8736        0.0107       59.0022       59.0128       8.139199      -0.00000
  41    0.4307       50.8726        0.0145       58.9973       59.0118       8.139199      -0.00000
  40    0.5894       50.8710        0.0208       58.9894       59.0102       8.139199       0.00000
  39     1.339       50.8632        0.0507       58.9518       59.0024       8.139199       0.00000
  38     1.782       50.8587        0.0682       58.9297       58.9979       8.139199       0.00000
  37     2.292       50.8534        0.0884       58.9042       58.9926       8.139199       0.00000
  36     2.964       50.8465        0.1151       58.8706       58.9857       8.139199      -0.00000
  35     3.853       50.8374        0.1502       58.8264       58.9766       8.139199       0.00000
  34     5.035       50.8252        0.1968       58.7676       58.9644       8.139199       0.00000
  33     6.613       50.8090        0.2591       58.6891       58.9482       8.139199      -0.00000
  32     8.786       50.7872        0.3430       58.5834       58.9264       8.139199       0.00000
  31     11.80       50.7560        0.4627       58.4324       58.8952       8.139199      -0.00000
  30     15.07       50.7225        0.5910       58.2706       58.8617       8.139199       0.00000
  29     18.79       50.6847        0.7357       58.0882       58.8239       8.139199      -0.00000
  28     23.16       50.6407        0.9042       57.8757       58.7799       8.139199       0.00000
  27     28.12       50.5904        1.0963       57.6333       58.7296       8.139199      -0.00000
  26     33.73       50.5343        1.3104       57.3631       58.6735       8.139199       0.00000
  25     40.54       50.4667        1.5680       57.0379       58.6059       8.139199      -0.00000
  24     48.69       50.3855        1.8768       56.6479       58.5247       8.139199       0.00000
  23     57.69       50.2967        2.2138       56.2221       58.4359       8.139199       0.00000
  22     68.43       50.1914        2.6120       55.7186       58.3306       8.139199      -0.00000
  21     81.20       50.0667        3.0820       55.1239       58.2059       8.139199       0.00000
  20     96.49       49.9193        3.6357       54.4228       58.0585       8.139199       0.00000
  19     114.6       49.7459        4.2841       53.6010       57.8851       8.139199      -0.00000
  18     136.5       49.5426        5.0400       52.6418       57.6818       8.139199       0.00000
  17     162.9       49.3036        5.9225       51.5203       57.4428       8.139199       0.00000
  16     196.4       48.9987        7.0385       50.0994       57.1379       8.139199       0.00000
  15     218.7       48.8015        7.7544       49.1863       56.9407       8.139199      -0.00000
  14     243.0       48.5898        8.5177       48.2113       56.7289       8.139199       0.00000
  13     269.0       48.3633        9.3276       47.1749       56.5025       8.139199       0.00000
  12     297.5       48.1221       10.1830       46.0783       56.2613       8.139199      -0.00000
  11     328.5       47.8653       11.0850       44.9195       56.0045       8.139199       0.00000
  10     361.9       47.5933       12.0306       43.7018       55.7325       8.139199      -0.00000
   9     398.1       47.3055       13.0196       42.4250       55.4447       8.139199       0.00000
   8     437.6       47.0019       14.0495       41.0916       55.1411       8.139199       0.00000
   7     480.5       46.6826       15.1174       39.7045       54.8218       8.139199       0.00000
   6     533.0       46.2979       16.3828       38.0543       54.4371       8.139199      -0.00000
   5     589.8       45.8928       17.6889       36.3431       54.0320       8.139199      -0.00000
   4     651.6       45.4679       19.0276       34.5795       53.6071       8.139199       0.00000
   3     718.7       45.0236       20.3925       32.7702       53.1628       8.139199       0.00000
   2     792.3       44.5606       21.7742       30.9256       52.6998       8.139199       0.00000
   1     891.5       30.4078       37.4968        1.0500       38.5467       8.138954       0.00002
   0    1013.0       30.1097       37.2946        0.9540       38.2486       8.138954       0.00000



 Wavenumbers: 29000. - 38000. cm-1, ATM      1
 LEVEL PRESSURE   UPWARD FLUX   DIFDOWN FLUX  DIRDOWN FLUX  DOWNWARD FLUX   NET FLUX    HEATING RATE
          mb          W/m2          W/m2          W/m2        W/m2          W/m2       degree/day
  51    .06700        7.7250        0.0000       20.8114       20.8114      13.086341       0.00000
  50    .07753        7.7248        0.0003       20.8070       20.8074      13.082536       3.05047
  49    .09103        7.7246        0.0007       20.8009       20.8016      13.077000       3.45961
  48    0.1069        7.7243        0.0012       20.7928       20.7939      13.069593       3.94286
  47    0.1255        7.7240        0.0017       20.7820       20.7837      13.059692       4.48868
  46    0.1487        7.7237        0.0023       20.7665       20.7688      13.045134       5.30645
  45    0.1794        7.7232        0.0032       20.7424       20.7456      13.022478       6.21965
  44    0.2165        7.7226        0.0043       20.7103       20.7146      12.991968       6.94067
  43    0.2613        7.7220        0.0055       20.6675       20.6730      12.950989       7.72420
  42    0.3336        7.7210        0.0075       20.5880       20.5955      12.874461       8.92250
  41    0.4307        7.7198        0.0102       20.4722       20.4824      12.762558       9.72972
  40    0.5894        7.7181        0.0144       20.2637       20.2781      12.559971      10.77332
  39     1.339        7.7135        0.0324       19.0984       19.1307      11.417227      12.86521
  38     1.782        7.7131        0.0417       18.4394       18.4810      10.767923      12.36171
  37     2.292        7.7146        0.0516       17.7714       17.8230      10.108458      10.92246
  36     2.964        7.7193        0.0639       17.0421       17.1061       9.386735       9.05981
  35     3.853        7.7294        0.0793       16.2678       16.3472       8.617747       7.29783
  34     5.035        7.7466        0.0988       15.4803       15.5791       7.832489       5.60956
  33     6.613        7.7719        0.1236       14.7157       14.8393       7.067377       4.09029
  32     8.786        7.8054        0.1561       13.9936       14.1497       6.344252       2.80836
  31     11.80        7.8489        0.2013       13.2835       13.4848       5.635944       1.98304
  30     15.07        7.8905        0.2481       12.7394       12.9875       5.096947       1.39159
  29     18.79        7.9333        0.2999       12.2666       12.5666       4.633305       1.05122
  28     23.16        7.9783        0.3588       11.8300       12.1888       4.210561       0.81745
  27     28.12        8.0239        0.4247       11.4279       11.8525       3.828625       0.64927
  26     33.73        8.0650        0.4971       11.0695       11.5666       3.501597       0.49170
  25     40.54        8.1024        0.5836       10.7209       11.3045       3.202077       0.37159
  24     48.69        8.1359        0.6861       10.3742       11.0603       2.924379       0.28737
  23     57.69        8.1610        0.7969       10.0549       10.8518       2.690774       0.21897
  22     68.43        8.1778        0.9267        9.7327       10.6594       2.481665       0.16439
  21     81.20        8.1778        1.0797        9.4134       10.4932       2.315391       0.10987
  20     96.49        8.1589        1.2594        9.0887       10.3481       2.189164       0.06967
  19     114.6        8.1282        1.4665        8.7388       10.2053       2.077118       0.05232
  18     136.5        8.0876        1.7027        8.3549       10.0576       1.969939       0.04121
  17     162.9        8.0368        1.9710        7.9311        9.9022       1.865364       0.03343
  16     196.4        7.9618        2.3021        7.4333        9.7354       1.773696       0.02307
  15     218.7        7.9100        2.5096        7.1295        9.6392       1.729152       0.01691
  14     243.0        7.8538        2.7258        6.8161        9.5419       1.688143       0.01422
  13     269.0        7.7927        2.9498        6.4943        9.4441       1.651436       0.01191
  12     297.5        7.7268        3.1803        6.1657        9.3460       1.619188       0.00956
  11     328.5        7.6573        3.4163        5.8295        9.2458       1.588425       0.00836
  10     361.9        7.5846        3.6552        5.4886        9.1438       1.559284       0.00737
   9     398.1        7.5085        3.8963        5.1440        9.0403       1.531786       0.00641
   8     437.6        7.4295        4.1380        4.7969        8.9349       1.505400       0.00564
   7     480.5        7.3479        4.3780        4.4504        8.8283       1.480479       0.00489
   6     533.0        7.2514        4.6486        4.0563        8.7048       1.453470       0.00434
   5     589.8        7.1523        4.9116        3.6682        8.5798       1.427496       0.00386
   4     651.6        7.0514        5.1631        3.2905        8.4537       1.402272       0.00345
   3     718.7        6.9488        5.4013        2.9252        8.3265       1.377766       0.00308
   2     792.3        6.8450        5.6225        2.5764        8.1990       1.353988       0.00273
   1     891.5        4.8705        6.1201        0.0795        6.1997       1.329174       0.00211
   0    1013.0        4.7829        6.0244        0.0644        6.0888       1.305871       0.00162



 Wavenumbers: 38000. - 50000. cm-1, ATM      1
 LEVEL PRESSURE   UPWARD FLUX   DIFDOWN FLUX  DIRDOWN FLUX  DOWNWARD FLUX   NET FLUX    HEATING RATE
          mb          W/m2          W/m2          W/m2        W/m2          W/m2       degree/day
  51    .06700        0.0061        0.0000        1.2836        1.2836       1.277518       0.00000
  50    .07753        0.0061        0.0001        1.2812        1.2812       1.275183       1.87150
  49    .09103        0.0060        0.0002        1.2777        1.2778       1.271851       2.08247
  48    0.1069        0.0059        0.0002        1.2731        1.2734       1.267473       2.33059
  47    0.1255        0.0058        0.0004        1.2672        1.2675       1.261717       2.60908
  46    0.1487        0.0057        0.0005        1.2586        1.2591       1.253391       3.03499
  45    0.1794        0.0055        0.0007        1.2455        1.2462       1.240623       3.50520
  44    0.2165        0.0054        0.0009        1.2282        1.2291       1.223697       3.85037
  43    0.2613        0.0052        0.0011        1.2054        1.2065       1.201348       4.21261
  42    0.3336        0.0049        0.0015        1.1639        1.1654       1.160524       4.75970
  41    0.4307        0.0045        0.0020        1.1051        1.1070       1.102565       5.03943
  40    0.5894        0.0039        0.0026        1.0039        1.0064       1.002524       5.32007
  39     1.339        0.0022        0.0035        0.5438        0.5473       0.545104       5.14971
  38     1.782        0.0016        0.0032        0.3635        0.3666       0.365006       3.42879
  37     2.292        0.0012        0.0027        0.2356        0.2383       0.237058       2.11916
  36     2.964        0.0009        0.0022        0.1455        0.1477       0.146786       1.13318
  35     3.853        0.0006        0.0017        0.0858        0.0875       0.086906       0.56828
  34     5.035        0.0004        0.0013        0.0488        0.0501       0.049701       0.26578
  33     6.613        0.0003        0.0010        0.0273        0.0282       0.027974       0.11615
  32     8.786        0.0002        0.0007        0.0144        0.0151       0.014928       0.05067
  31     11.80        0.0001        0.0004        0.0065        0.0070       0.006903       0.02247
  30     15.07        0.0000        0.0003        0.0031        0.0034       0.003329       0.00923
  29     18.79        0.0000        0.0002        0.0014        0.0016       0.001583       0.00396
  28     23.16        0.0000        0.0001        0.0006        0.0007       0.000720       0.00167
  27     28.12        0.0000        0.0001        0.0003        0.0003       0.000317       0.00069
  26     33.73        0.0000        0.0000        0.0001        0.0001       0.000140       0.00027
  25     40.54        0.0000        0.0000        0.0000        0.0001       0.000057       0.00010
  24     48.69        0.0000        0.0000        0.0000        0.0000       0.000021       0.00004
  23     57.69        0.0000        0.0000        0.0000        0.0000       0.000008       0.00001
  22     68.43        0.0000        0.0000        0.0000        0.0000       0.000003       0.00000
  21     81.20        0.0000        0.0000        0.0000        0.0000       0.000001       0.00000
  20     96.49        0.0000        0.0000        0.0000        0.0000       0.000000       0.00000
  19     114.6        0.0000        0.0000        0.0000        0.0000       0.000000       0.00000
  18     136.5        0.0000        0.0000        0.0000        0.0000       0.000000       0.00000
  17     162.9        0.0000        0.0000        0.0000        0.0000       0.000000       0.00000
  16     196.4        0.0000        0.0000        0.0000        0.0000       0.000000       0.00000
  15     218.7        0.0000        0.0000        0.0000        0.0000       0.000000       0.00000
  14     243.0        0.0000        0.0000        0.0000        0.0000       0.000000       0.00000
  13     269.0        0.0000        0.0000        0.0000        0.0000       0.000000       0.00000
  12     297.5        0.0000        0.0000        0.0000        0.0000       0.000000       0.00000
  11     328.5        0.0000        0.0000        0.0000        0.0000       0.000000       0.00000
  10     361.9        0.0000        0.0000        0.0000        0.0000       0.000000       0.00000
   9     398.1        0.0000        0.0000        0.0000        0.0000       0.000000       0.00000
   8     437.6        0.0000        0.0000        0.0000        0.0000       0.000000       0.00000
   7     480.5        0.0000        0.0000        0.0000        0.0000       0.000000       0.00000
   6     533.0        0.0000        0.0000        0.0000        0.0000       0.000000       0.00000
   5     589.8        0.0000        0.0000        0.0000        0.0000       0.000000       0.00000
   4     651.6        0.0000        0.0000        0.0000        0.0000       0.000000       0.00000
   3     718.7        0.0000        0.0000        0.0000        0.0000       0.000000       0.00000
   2     792.3        0.0000        0.0000        0.0000        0.0000       0.000000       0.00000
   1     891.5        0.0000        0.0000        0.0000        0.0000       0.000000       0.00000
   0    1013.0        0.0000        0.0000        0.0000        0.0000       0.000000       0.00000



 Wavenumbers:   820. -  2600. cm-1, ATM      1
 LEVEL PRESSURE   UPWARD FLUX   DIFDOWN FLUX  DIRDOWN FLUX  DOWNWARD FLUX   NET FLUX    HEATING RATE
          mb          W/m2          W/m2          W/m2        W/m2          W/m2       degree/day
  51    .06700        1.1296        0.0000        6.0047        6.0047       4.875002       0.00000
  50    .07753        1.1296        0.0000        6.0008        6.0008       4.871149       3.08823
  49    .09103        1.1296        0.0000        5.9999        5.9999       4.870263       0.55360
  48    0.1069        1.1296        0.0000        5.9989        5.9989       4.869274       0.52654
  47    0.1255        1.1296        0.0000        5.9978        5.9978       4.868157       0.50652
  46    0.1487        1.1296        0.0000        5.9964        5.9964       4.866800       0.49459
  45    0.1794        1.1296        0.0000        5.9947        5.9947       4.865081       0.47202
  44    0.2165        1.1296        0.0000        5.9929        5.9929       4.863238       0.41913
  43    0.2613        1.1296        0.0000        5.9909        5.9909       4.861279       0.36935
  42    0.3336        1.1296        0.0000        5.9880        5.9880       4.858400       0.33559
  41    0.4307        1.1297        0.0000        5.9846        5.9846       4.854931       0.30168
  40    0.5894        1.1297        0.0000        5.9791        5.9791       4.849425       0.29279
  39     1.339        1.1297        0.0000        5.9536        5.9536       4.823935       0.28697
  38     1.782        1.1297        0.0000        5.9395        5.9395       4.809795       0.26920
  37     2.292        1.1297        0.0000        5.9237        5.9237       4.794042       0.26091
  36     2.964        1.1297        0.0000        5.9039        5.9039       4.774266       0.24825
  35     3.853        1.1297        0.0000        5.8793        5.8793       4.749606       0.23402
  34     5.035        1.1297        0.0000        5.8487        5.8487       4.719039       0.21836
  33     6.613        1.1297        0.0000        5.8108        5.8108       4.681068       0.20299
  32     8.786        1.1297        0.0000        5.7631        5.7631       4.633437       0.18498
  31     11.80        1.1297        0.0000        5.7039        5.7039       4.574168       0.16593
  30     15.07        1.1297        0.0000        5.6539        5.6539       4.524115       0.12923
  29     18.79        1.1298        0.0000        5.6127        5.6127       4.482964       0.09330
  28     23.16        1.1298        0.0000        5.5794        5.5794       4.449568       0.06458
  27     28.12        1.1298        0.0000        5.5518        5.5518       4.421978       0.04690
  26     33.73        1.1299        0.0000        5.5268        5.5268       4.396897       0.03771
  25     40.54        1.1299        0.0000        5.4993        5.4993       4.369419       0.03409
  24     48.69        1.1300        0.0000        5.4678        5.4678       4.337834       0.03269
  23     57.69        1.1300        0.0000        5.4340        5.4340       4.303996       0.03172
  22     68.43        1.1301        0.0000        5.3947        5.3948       4.264660       0.03092
  21     81.20        1.1302        0.0000        5.3497        5.3497       4.219550       0.02981
  20     96.49        1.1303        0.0000        5.2982        5.2982       4.167941       0.02848
  19     114.6        1.1304        0.0000        5.2389        5.2389       4.108499       0.02775
  18     136.5        1.1306        0.0000        5.1716        5.1717       4.041092       0.02592
  17     162.9        1.1308        0.0000        5.0890        5.0891       3.958245       0.02648
  16     196.4        1.1312        0.0000        4.9668        4.9668       3.835631       0.03086
  15     218.7        1.1316        0.0000        4.8585        4.8585       3.726884       0.04129
  14     243.0        1.1322        0.0000        4.7078        4.7079       3.575646       0.05245
  13     269.0        1.1331        0.0000        4.5343        4.5343       3.401142       0.05661
  12     297.5        1.1346        0.0000        4.3419        4.3420       3.207343       0.05748
  11     328.5        1.1366        0.0000        4.1281        4.1281       2.991533       0.05868
  10     361.9        1.1393        0.0000        3.8786        3.8787       2.739426       0.06379
   9     398.1        1.1427        0.0000        3.6159        3.6160       2.473279       0.06201
   8     437.6        1.1471        0.0000        3.3759        3.3759       2.228787       0.05227
   7     480.5        1.1525        0.0000        3.1957        3.1958       2.043253       0.03644
   6     533.0        1.1608        0.0000        3.0467        3.0467       1.885927       0.02531
   5     589.8        1.1729        0.0000        2.9023        2.9023       1.729380       0.02324
   4     651.6        1.1941        0.0000        2.7183        2.7184       1.524289       0.02805
   3     718.7        1.2306        0.0001        2.5058        2.5059       1.275261       0.03130
   2     792.3        1.3006        0.0001        2.2756        2.2757       0.975034       0.03443
   1     891.5        0.1377        0.7647        0.0721        0.8368       0.699177       0.02347
   0    1013.0        0.1663        0.6191        0.0568        0.6760       0.509695       0.01316

  Modules and versions used in this calculation:

       rrtmg_sw.1col.f90:  $Revision$                    rrtmg_sw_init.f90:  $Revision$        
     rrtmgsw_cldprop.f90:  $Revision$                  rrtmgsw_cldprmc.f90:  NOT USED          
     rrtmg_sw_reftra.f90:  $Revision$                  rrtmg_sw_spcvrt.f90:  NOT USED          
     rrtmg_sw_spcvmc.f90:  NOT USED                    rrtmgsw_setcoef.f90:  NOT USED          
     rrtmg_sw_taumol.f90:  $Revision$                  rrtmg_sw_vrtqdr.f90:  NOT USED          
                rrtatm.f:  NOT USED                             util_xxx.f:  NOT USED          
                 extra.f:  NOT USED                       rrtmg_sw_k_g.f90:  $Revision$        

