

 Wavenumbers:   820. - 50000. cm-1, ATM      1
 LEVEL PRESSURE   UPWARD FLUX   DIFDOWN FLUX  DIRDOWN FLUX  DOWNWARD FLUX   NET FLUX    HEATING RATE
          mb          W/m2          W/m2          W/m2        W/m2          W/m2       degree/day
  51    .06700      455.6562        0.0000      617.8126      617.8126     162.156365       0.00000
  50    .07753      455.6558        0.0014      617.7947      617.7961     162.140222      12.93901
  49    .09103      455.6554        0.0030      617.7778      617.7808     162.125408       9.25908
  48    0.1069      455.6549        0.0050      617.7581      617.7631     162.108141       9.19109
  47    0.1255      455.6544        0.0072      617.7340      617.7412     162.086790       9.67955
  46    0.1487      455.6538        0.0101      617.7009      617.7109     162.057096      10.82392
  45    0.1794      455.6531        0.0139      617.6521      617.6660     162.012852      12.14598
  44    0.2165      455.6524        0.0185      617.5895      617.6079     161.955514      13.04337
  43    0.2613      455.6517        0.0238      617.5089      617.5327     161.880980      14.04938
  42    0.3336      455.6509        0.0327      617.3641      617.3968     161.745856      15.75413
  41    0.4307      455.6503        0.0443      617.1591      617.2034     161.553176      16.75309
  40    0.5894      455.6502        0.0631      616.8005      616.8636     161.213381      18.06985
  39     1.339      455.6682        0.1480      614.9443      615.0923     159.424078      20.14430
  38     1.782      455.6916        0.1958      613.9670      614.1628     158.471266      18.14001
  37     2.292      455.7302        0.2502      613.0059      613.2561     157.525876      15.65811
  36     2.964      455.7984        0.3209      611.9577      612.2786     156.480167      13.12681
  35     3.853      455.9128        0.4136      610.8024      611.2160     155.303225      11.16940
  34     5.035      456.0886        0.5359      609.5327      610.0686     153.979977       9.45273
  33     6.613      456.3364        0.6983      608.1464      608.8447     152.508368       7.86723
  32     8.786      456.6591        0.9161      606.6250      607.5412     150.882109       6.31580
  31     11.80      457.0770        1.2263      604.8486      606.0749     148.997908       5.27517
  30     15.07      457.4749        1.5572      603.2440      604.8012     147.326264       4.31586
  29     18.79      457.8790        1.9296      601.6511      603.5807     145.701773       3.68322
  28     23.16      458.2986        2.3623      599.9927      602.3550     144.056431       3.18156
  27     28.12      458.7171        2.8548      598.2881      601.1429     142.425749       2.77205
  26     33.73      459.0959        3.4039      596.5951      599.9990     140.903099       2.28934
  25     40.54      459.4491        4.0650      594.7727      598.8377     139.388594       1.87891
  24     48.69      459.7738        4.8582      592.7865      597.6447     137.870970       1.57050
  23     57.69      460.0323        5.7254      590.7959      596.5213     136.488931       1.29545
  22     68.43      460.2339        6.7527      588.6191      595.3718     135.137833       1.06214
  21     81.20      460.3263        7.9707      586.2690      594.2397     133.913335       0.80913
  20     96.49      460.2994        9.4128      583.6961      593.1089     132.809495       0.60924
  19     114.6      460.2111       11.1094      580.7708      591.8802     131.669135       0.53247
  18     136.5      460.0621       13.0960      577.4359      590.5319     130.469875       0.46114
  17     162.9      459.8472       15.4275      573.5624      588.9899     129.142790       0.42419
  16     196.4      459.4819       18.4009      568.5907      586.9916     127.509658       0.41108
  15     218.7      459.2147       20.3233      565.0572      585.3806     126.165896       0.51018
  14     243.0      458.9178       22.3854      560.7495      583.1350     124.217157       0.67589
  13     269.0      458.5937       24.5885      555.3947      579.9832     121.389454       0.91729
  12     297.5      458.2498       26.9332      548.9964      575.9296     117.679749       1.10026
  11     328.5      457.8972       29.4261      542.0895      571.5156     113.618360       1.10428
  10     361.9      457.5460       32.0633      534.6242      566.6875     109.141511       1.13269
   9     398.1      457.2104       34.8494      526.4204      561.2698     104.059459       1.18400
   8     437.6      456.9179       37.7831      517.3907      555.1737      98.255808       1.24086
   7     480.5      456.6988       40.8623      507.7216      548.5839      91.885078       1.25119
   6     533.0      456.6063       44.5644      495.9006      540.4650      83.858654       1.29120
   5     589.8      456.8320       48.4489      483.0788      531.5278      74.695725       1.36008
   4     651.6      457.7568       52.5028      468.6907      521.1935      63.436666       1.53971
   3     718.7      459.9344       56.7180      453.2257      509.9437      50.009281       1.68745
   2     792.3      464.8643       61.0718      436.4928      497.5647      32.700384       1.98514
   1     891.5      208.7317      230.8782        0.0000      230.8782      22.146511       0.89808
   0    1013.0      210.0885      228.5540        0.0000      228.5540      18.465421       0.25560



 Wavenumbers:  2600. -  3250. cm-1, ATM      1
 LEVEL PRESSURE   UPWARD FLUX   DIFDOWN FLUX  DIRDOWN FLUX  DOWNWARD FLUX   NET FLUX    HEATING RATE
          mb          W/m2          W/m2          W/m2        W/m2          W/m2       degree/day
  51    .06700        2.1435        0.0000        5.4450        5.4450       3.301578       0.00000
  50    .07753        2.1435        0.0000        5.4450        5.4450       3.301570       0.00640
  49    .09103        2.1435        0.0000        5.4450        5.4450       3.301560       0.00627
  48    0.1069        2.1435        0.0000        5.4450        5.4450       3.301549       0.00613
  47    0.1255        2.1435        0.0000        5.4450        5.4450       3.301536       0.00599
  46    0.1487        2.1435        0.0000        5.4450        5.4450       3.301519       0.00608
  45    0.1794        2.1435        0.0000        5.4450        5.4450       3.301496       0.00625
  44    0.2165        2.1435        0.0000        5.4449        5.4449       3.301469       0.00612
  43    0.2613        2.1435        0.0000        5.4449        5.4449       3.301437       0.00600
  42    0.3336        2.1435        0.0000        5.4448        5.4448       3.301384       0.00617
  41    0.4307        2.1435        0.0000        5.4448        5.4448       3.301313       0.00620
  40    0.5894        2.1435        0.0000        5.4446        5.4446       3.301193       0.00637
  39     1.339        2.1435        0.0000        5.4439        5.4439       3.300486       0.00797
  38     1.782        2.1435        0.0000        5.4434        5.4434       3.299943       0.01034
  37     2.292        2.1435        0.0000        5.4427        5.4427       3.299227       0.01186
  36     2.964        2.1435        0.0000        5.4416        5.4416       3.298188       0.01304
  35     3.853        2.1435        0.0000        5.4402        5.4402       3.296711       0.01402
  34     5.035        2.1435        0.0000        5.4381        5.4381       3.294655       0.01469
  33     6.613        2.1435        0.0000        5.4353        5.4353       3.291873       0.01487
  32     8.786        2.1435        0.0000        5.4317        5.4317       3.288240       0.01411
  31     11.80        2.1435        0.0000        5.4269        5.4269       3.283458       0.01339
  30     15.07        2.1435        0.0000        5.4224        5.4224       3.278928       0.01169
  29     18.79        2.1435        0.0000        5.4180        5.4180       3.274511       0.01001
  28     23.16        2.1435        0.0000        5.4135        5.4135       3.270018       0.00869
  27     28.12        2.1435        0.0000        5.4088        5.4088       3.265360       0.00792
  26     33.73        2.1435        0.0000        5.4036        5.4036       3.260106       0.00790
  25     40.54        2.1435        0.0000        5.3966        5.3967       3.253142       0.00864
  24     48.69        2.1436        0.0000        5.3872        5.3872       3.243631       0.00984
  23     57.69        2.1436        0.0000        5.3754        5.3754       3.231800       0.01109
  22     68.43        2.1437        0.0000        5.3599        5.3599       3.216245       0.01223
  21     81.20        2.1438        0.0000        5.3401        5.3401       3.196315       0.01317
  20     96.49        2.1439        0.0000        5.3155        5.3155       3.171613       0.01363
  19     114.6        2.1441        0.0001        5.2853        5.2854       3.141228       0.01419
  18     136.5        2.1444        0.0001        5.2504        5.2505       3.106058       0.01352
  17     162.9        2.1448        0.0001        5.2111        5.2112       3.066335       0.01270
  16     196.4        2.1455        0.0001        5.1640        5.1641       3.018612       0.01201
  15     218.7        2.1462        0.0001        5.1331        5.1332       2.987020       0.01199
  14     243.0        2.1473        0.0001        5.0962        5.0963       2.949014       0.01318
  13     269.0        2.1490        0.0001        5.0511        5.0512       2.902166       0.01520
  12     297.5        2.1517        0.0001        4.9956        4.9957       2.844057       0.01723
  11     328.5        2.1554        0.0001        4.9304        4.9305       2.775146       0.01874
  10     361.9        2.1605        0.0002        4.8511        4.8513       2.690796       0.02134
   9     398.1        2.1675        0.0002        4.7507        4.7509       2.583340       0.02503
   8     437.6        2.1774        0.0002        4.6220        4.6222       2.444861       0.02961
   7     480.5        2.1911        0.0002        4.4625        4.4627       2.271595       0.03403
   6     533.0        2.2136        0.0002        4.2460        4.2462       2.032673       0.03843
   5     589.8        2.2482        0.0002        3.9954        3.9956       1.747451       0.04234
   4     651.6        2.3059        0.0002        3.7089        3.7091       1.403167       0.04708
   3     718.7        2.4029        0.0002        3.4018        3.4021       0.999193       0.05077
   2     792.3        2.5832        0.0002        3.0564        3.0567       0.473450       0.06030
   1     891.5        0.2455        0.4202        0.0000        0.4202       0.174672       0.02542
   0    1013.0        0.2718        0.3724        0.0000        0.3724       0.100535       0.00515



 Wavenumbers:  3250. -  4000. cm-1, ATM      1
 LEVEL PRESSURE   UPWARD FLUX   DIFDOWN FLUX  DIRDOWN FLUX  DOWNWARD FLUX   NET FLUX    HEATING RATE
          mb          W/m2          W/m2          W/m2        W/m2          W/m2       degree/day
  51    .06700        0.0814        0.0000        9.1795        9.1795       9.098147       0.00000
  50    .07753        0.0814        0.0000        9.1747        9.1747       9.093304       3.88148
  49    .09103        0.0814        0.0000        9.1713        9.1713       9.089916       2.11747
  48    0.1069        0.0814        0.0000        9.1688        9.1688       9.087391       1.34402
  47    0.1255        0.0814        0.0000        9.1665        9.1665       9.085132       1.02422
  46    0.1487        0.0814        0.0000        9.1641        9.1641       9.082691       0.88991
  45    0.1794        0.0814        0.0000        9.1612        9.1612       9.079813       0.79008
  44    0.2165        0.0814        0.0000        9.1583        9.1583       9.076892       0.66430
  43    0.2613        0.0814        0.0000        9.1553        9.1553       9.073919       0.56041
  42    0.3336        0.0814        0.0000        9.1511        9.1511       9.069740       0.48723
  41    0.4307        0.0814        0.0000        9.1464        9.1464       9.064972       0.41459
  40    0.5894        0.0814        0.0000        9.1393        9.1394       9.057967       0.37255
  39     1.339        0.0814        0.0000        9.1127        9.1127       9.031353       0.29962
  38     1.782        0.0814        0.0000        9.1011        9.1011       9.019765       0.22062
  37     2.292        0.0814        0.0000        9.0901        9.0901       9.008698       0.18329
  36     2.964        0.0814        0.0000        9.0776        9.0776       8.996268       0.15603
  35     3.853        0.0814        0.0000        9.0629        9.0629       8.981478       0.14036
  34     5.035        0.0814        0.0000        9.0441        9.0441       8.962739       0.13386
  33     6.613        0.0814        0.0000        9.0191        9.0191       8.937738       0.13366
  32     8.786        0.0814        0.0000        8.9843        8.9843       8.902954       0.13509
  31     11.80        0.0814        0.0000        8.9327        8.9327       8.851338       0.14451
  30     15.07        0.0814        0.0000        8.8758        8.8759       8.794493       0.14676
  29     18.79        0.0814        0.0000        8.8110        8.8110       8.729665       0.14698
  28     23.16        0.0814        0.0000        8.7365        8.7366       8.655221       0.14395
  27     28.12        0.0813        0.0000        8.6554        8.6555       8.574107       0.13789
  26     33.73        0.0813        0.0000        8.5719        8.5719       8.490608       0.12554
  25     40.54        0.0813        0.0001        8.4812        8.4812       8.399884       0.11255
  24     48.69        0.0813        0.0001        8.3838        8.3839       8.302582       0.10069
  23     57.69        0.0813        0.0001        8.2861        8.2862       8.204847       0.09161
  22     68.43        0.0813        0.0001        8.1751        8.1751       8.093850       0.08726
  21     81.20        0.0813        0.0001        8.0457        8.0458       7.964492       0.08548
  20     96.49        0.0813        0.0001        7.8949        7.8951       7.813788       0.08318
  19     114.6        0.0812        0.0001        7.7162        7.7163       7.635078       0.08345
  18     136.5        0.0812        0.0002        7.5193        7.5195       7.438233       0.07569
  17     162.9        0.0812        0.0002        7.2913        7.2915       7.210340       0.07284
  16     196.4        0.0812        0.0002        6.9660        6.9662       6.885061       0.08188
  15     218.7        0.0812        0.0002        6.6648        6.6650       6.583859       0.11436
  14     243.0        0.0812        0.0002        6.2619        6.2622       6.181030       0.13971
  13     269.0        0.0812        0.0003        5.7576        5.7579       5.676647       0.16362
  12     297.5        0.0814        0.0003        5.1719        5.1722       5.090779       0.17376
  11     328.5        0.0817        0.0002        4.5757        4.5760       4.494310       0.16218
  10     361.9        0.0822        0.0002        3.9995        3.9998       3.917623       0.14591
   9     398.1        0.0830        0.0002        3.4655        3.4657       3.382727       0.12462
   8     437.6        0.0844        0.0002        2.9740        2.9743       2.889883       0.10537
   7     480.5        0.0866        0.0002        2.5307        2.5309       2.444251       0.08752
   6     533.0        0.0910        0.0002        2.0614        2.0616       1.970595       0.07620
   5     589.8        0.0989        0.0002        1.6150        1.6151       1.516199       0.06745
   4     651.6        0.1156        0.0001        1.1565        1.1566       1.041004       0.06498
   3     718.7        0.1523        0.0001        0.7390        0.7391       0.586773       0.05708
   2     792.3        0.2509        0.0001        0.3985        0.3985       0.147655       0.05036
   1     891.5        0.0000        0.0031        0.0000        0.0031       0.003043       0.01231
   0    1013.0        0.0002        0.0003        0.0000        0.0003       0.000086       0.00021



 Wavenumbers:  4000. -  4650. cm-1, ATM      1
 LEVEL PRESSURE   UPWARD FLUX   DIFDOWN FLUX  DIRDOWN FLUX  DOWNWARD FLUX   NET FLUX    HEATING RATE
          mb          W/m2          W/m2          W/m2        W/m2          W/m2       degree/day
  51    .06700        6.8788        0.0000       10.7795       10.7795       3.900772       0.00000
  50    .07753        6.8788        0.0000       10.7795       10.7795       3.900771       0.00080
  49    .09103        6.8788        0.0000       10.7795       10.7795       3.900769       0.00078
  48    0.1069        6.8788        0.0000       10.7795       10.7795       3.900768       0.00077
  47    0.1255        6.8788        0.0000       10.7795       10.7795       3.900766       0.00075
  46    0.1487        6.8788        0.0000       10.7795       10.7795       3.900764       0.00076
  45    0.1794        6.8788        0.0000       10.7795       10.7795       3.900761       0.00078
  44    0.2165        6.8788        0.0000       10.7795       10.7795       3.900758       0.00076
  43    0.2613        6.8788        0.0000       10.7795       10.7795       3.900754       0.00075
  42    0.3336        6.8788        0.0000       10.7795       10.7795       3.900748       0.00077
  41    0.4307        6.8788        0.0000       10.7795       10.7795       3.900739       0.00078
  40    0.5894        6.8788        0.0000       10.7795       10.7795       3.900724       0.00080
  39     1.339        6.8788        0.0000       10.7794       10.7794       3.900634       0.00101
  38     1.782        6.8788        0.0000       10.7793       10.7793       3.900564       0.00133
  37     2.292        6.8788        0.0000       10.7792       10.7792       3.900470       0.00156
  36     2.964        6.8788        0.0000       10.7791       10.7791       3.900329       0.00177
  35     3.853        6.8788        0.0000       10.7789       10.7789       3.900120       0.00198
  34     5.035        6.8788        0.0000       10.7786       10.7786       3.899812       0.00220
  33     6.613        6.8788        0.0000       10.7781       10.7781       3.899359       0.00242
  32     8.786        6.8788        0.0000       10.7774       10.7775       3.898689       0.00260
  31     11.80        6.8788        0.0001       10.7763       10.7764       3.897637       0.00295
  30     15.07        6.8788        0.0001       10.7751       10.7752       3.896401       0.00319
  29     18.79        6.8788        0.0001       10.7736       10.7737       3.894905       0.00339
  28     23.16        6.8788        0.0001       10.7717       10.7718       3.893046       0.00359
  27     28.12        6.8788        0.0001       10.7695       10.7696       3.890793       0.00383
  26     33.73        6.8788        0.0002       10.7667       10.7668       3.888011       0.00418
  25     40.54        6.8789        0.0002       10.7629       10.7631       3.884233       0.00469
  24     48.69        6.8790        0.0002       10.7579       10.7582       3.879191       0.00522
  23     57.69        6.8791        0.0003       10.7520       10.7523       3.873203       0.00561
  22     68.43        6.8793        0.0003       10.7446       10.7449       3.865681       0.00591
  21     81.20        6.8795        0.0004       10.7355       10.7359       3.856397       0.00614
  20     96.49        6.8799        0.0005       10.7245       10.7250       3.845067       0.00625
  19     114.6        6.8804        0.0006       10.7107       10.7113       3.830854       0.00664
  18     136.5        6.8812        0.0007       10.6942       10.6949       3.813668       0.00661
  17     162.9        6.8823        0.0008       10.6740       10.6748       3.792504       0.00676
  16     196.4        6.8842        0.0010       10.6464       10.6473       3.763137       0.00739
  15     218.7        6.8859        0.0011       10.6255       10.6265       3.740683       0.00852
  14     243.0        6.8883        0.0012       10.5980       10.5993       3.710991       0.01030
  13     269.0        6.8918        0.0013       10.5611       10.5624       3.670615       0.01310
  12     297.5        6.8970        0.0015       10.5119       10.5134       3.616440       0.01607
  11     328.5        6.9041        0.0016       10.4499       10.4515       3.547438       0.01876
  10     361.9        6.9133        0.0018       10.3702       10.3720       3.458606       0.02248
   9     398.1        6.9251        0.0019       10.2678       10.2697       3.344655       0.02655
   8     437.6        6.9401        0.0021       10.1390       10.1411       3.200995       0.03072
   7     480.5        6.9595        0.0023        9.9877        9.9900       3.030469       0.03349
   6     533.0        6.9897        0.0025        9.7937        9.7962       2.806511       0.03603
   5     589.8        7.0338        0.0027        9.5752        9.5779       2.544093       0.03895
   4     651.6        7.1061        0.0030        9.2958        9.2988       2.192676       0.04806
   3     718.7        7.2302        0.0032        8.9267        8.9299       1.699666       0.06196
   2     792.3        7.4714        0.0034        8.4542        8.4576       0.986207       0.08183
   1     891.5        1.1355        1.6970        0.0000        1.6970       0.561417       0.03615
   0    1013.0        1.1813        1.6182        0.0000        1.6182       0.436919       0.00864



 Wavenumbers:  4650. -  5150. cm-1, ATM      1
 LEVEL PRESSURE   UPWARD FLUX   DIFDOWN FLUX  DIRDOWN FLUX  DOWNWARD FLUX   NET FLUX    HEATING RATE
          mb          W/m2          W/m2          W/m2        W/m2          W/m2       degree/day
  51    .06700        4.9739        0.0000       10.2033       10.2033       5.229449       0.00000
  50    .07753        4.9739        0.0000       10.2031       10.2031       5.229214       0.18901
  49    .09103        4.9739        0.0000       10.2028       10.2028       5.228919       0.18428
  48    0.1069        4.9739        0.0000       10.2025       10.2025       5.228582       0.17931
  47    0.1255        4.9739        0.0000       10.2021       10.2021       5.228198       0.17426
  46    0.1487        4.9739        0.0000       10.2016       10.2016       5.227717       0.17536
  45    0.1794        4.9739        0.0000       10.2010       10.2010       5.227066       0.17850
  44    0.2165        4.9739        0.0000       10.2002       10.2002       5.226307       0.17277
  43    0.2613        4.9739        0.0000       10.1993       10.1993       5.225421       0.16690
  42    0.3336        4.9739        0.0000       10.1979       10.1979       5.223989       0.16702
  41    0.4307        4.9739        0.0000       10.1960       10.1960       5.222148       0.16002
  40    0.5894        4.9739        0.0000       10.1932       10.1932       5.219274       0.15283
  39     1.339        4.9739        0.0000       10.1816       10.1816       5.207682       0.13051
  38     1.782        4.9739        0.0000       10.1760       10.1760       5.202153       0.10527
  37     2.292        4.9739        0.0000       10.1706       10.1706       5.196695       0.09039
  36     2.964        4.9739        0.0000       10.1646       10.1647       5.190771       0.07437
  35     3.853        4.9739        0.0000       10.1584       10.1584       5.184554       0.05900
  34     5.035        4.9739        0.0000       10.1521       10.1521       5.178214       0.04529
  33     6.613        4.9739        0.0000       10.1456       10.1456       5.171749       0.03456
  32     8.786        4.9739        0.0001       10.1386       10.1386       5.164725       0.02728
  31     11.80        4.9739        0.0001       10.1295       10.1296       5.155660       0.02538
  30     15.07        4.9740        0.0001       10.1196       10.1197       5.145748       0.02559
  29     18.79        4.9740        0.0001       10.1076       10.1077       5.133694       0.02733
  28     23.16        4.9741        0.0002       10.0923       10.0924       5.118323       0.02972
  27     28.12        4.9742        0.0002       10.0731       10.0733       5.099137       0.03261
  26     33.73        4.9744        0.0002       10.0500       10.0503       5.075920       0.03491
  25     40.54        4.9746        0.0003       10.0201       10.0204       5.045843       0.03731
  24     48.69        4.9749        0.0004        9.9820        9.9823       5.007425       0.03976
  23     57.69        4.9753        0.0004        9.9384        9.9389       4.963569       0.04111
  22     68.43        4.9758        0.0005        9.8858        9.8862       4.910398       0.04180
  21     81.20        4.9766        0.0006        9.8234        9.8240       4.847401       0.04163
  20     96.49        4.9777        0.0007        9.7518        9.7524       4.774745       0.04010
  19     114.6        4.9792        0.0008        9.6719        9.6727       4.693539       0.03792
  18     136.5        4.9812        0.0010        9.5858        9.5868       4.605511       0.03385
  17     162.9        4.9841        0.0011        9.4940        9.4952       4.511075       0.03019
  16     196.4        4.9885        0.0013        9.3883        9.3896       4.401149       0.02767
  15     218.7        4.9919        0.0015        9.3229        9.3244       4.332493       0.02607
  14     243.0        4.9964        0.0017        9.2520        9.2536       4.257261       0.02609
  13     269.0        5.0023        0.0018        9.1717        9.1735       4.171162       0.02793
  12     297.5        5.0106        0.0020        9.0763        9.0783       4.067678       0.03069
  11     328.5        5.0214        0.0022        8.9650        8.9672       3.945776       0.03314
  10     361.9        5.0353        0.0024        8.8349        8.8373       3.802017       0.03637
   9     398.1        5.0534        0.0026        8.6820        8.6846       3.631251       0.03978
   8     437.6        5.0769        0.0028        8.5028        8.5056       3.428721       0.04330
   7     480.5        5.1075        0.0030        8.2948        8.2978       3.190287       0.04683
   6     533.0        5.1545        0.0033        8.0209        8.0242       2.869699       0.05157
   5     589.8        5.2199        0.0035        7.7063        7.7099       2.489904       0.05637
   4     651.6        5.3174        0.0038        7.3412        7.3450       2.027541       0.06323
   3     718.7        5.4664        0.0040        6.9387        6.9426       1.476232       0.06928
   2     792.3        5.7088        0.0042        6.5066        6.5108       0.802004       0.07733
   1     891.5        0.7876        1.2055        0.0000        1.2055       0.417891       0.03269
   0    1013.0        0.8289        1.1355        0.0000        1.1355       0.306592       0.00773



 Wavenumbers:  5150. -  6150. cm-1, ATM      1
 LEVEL PRESSURE   UPWARD FLUX   DIFDOWN FLUX  DIRDOWN FLUX  DOWNWARD FLUX   NET FLUX    HEATING RATE
          mb          W/m2          W/m2          W/m2        W/m2          W/m2       degree/day
  51    .06700       11.7770        0.0000       25.5798       25.5798      13.802771       0.00000
  50    .07753       11.7770        0.0000       25.5798       25.5798      13.802731       0.03163
  49    .09103       11.7770        0.0000       25.5797       25.5797      13.802680       0.03212
  48    0.1069       11.7770        0.0000       25.5797       25.5797      13.802619       0.03262
  47    0.1255       11.7770        0.0000       25.5796       25.5796      13.802546       0.03312
  46    0.1487       11.7770        0.0000       25.5795       25.5795      13.802450       0.03489
  45    0.1794       11.7770        0.0000       25.5794       25.5794      13.802315       0.03714
  44    0.2165       11.7770        0.0000       25.5792       25.5792      13.802149       0.03770
  43    0.2613       11.7770        0.0000       25.5790       25.5790      13.801946       0.03828
  42    0.3336       11.7770        0.0000       25.5786       25.5786      13.801599       0.04044
  41    0.4307       11.7770        0.0000       25.5782       25.5782      13.801128       0.04099
  40    0.5894       11.7770        0.0000       25.5774       25.5774      13.800338       0.04200
  39     1.339       11.7770        0.0000       25.5735       25.5736      13.796533       0.04284
  38     1.782       11.7770        0.0001       25.5713       25.5714      13.794317       0.04219
  37     2.292       11.7770        0.0001       25.5688       25.5688      13.791808       0.04155
  36     2.964       11.7770        0.0001       25.5656       25.5657      13.788619       0.04003
  35     3.853       11.7770        0.0001       25.5615       25.5616      13.784565       0.03847
  34     5.035       11.7771        0.0002       25.5562       25.5564      13.779343       0.03731
  33     6.613       11.7771        0.0002       25.5494       25.5496      13.772565       0.03623
  32     8.786       11.7771        0.0003       25.5406       25.5409      13.763779       0.03412
  31     11.80       11.7772        0.0004       25.5287       25.5290      13.751888       0.03329
  30     15.07       11.7772        0.0005       25.5167       25.5172      13.739955       0.03081
  29     18.79       11.7773        0.0006       25.5042       25.5048      13.727469       0.02831
  28     23.16       11.7774        0.0008       25.4907       25.4914      13.714006       0.02603
  27     28.12       11.7776        0.0009       25.4764       25.4774      13.699794       0.02416
  26     33.73       11.7777        0.0011       25.4620       25.4631      13.685365       0.02169
  25     40.54       11.7780        0.0013       25.4463       25.4476      13.669547       0.01962
  24     48.69       11.7784        0.0016       25.4294       25.4309      13.652551       0.01759
  23     57.69       11.7789        0.0019       25.4126       25.4145      13.635620       0.01587
  22     68.43       11.7795        0.0022       25.3944       25.3966      13.617176       0.01450
  21     81.20       11.7802        0.0026       25.3744       25.3770      13.596817       0.01345
  20     96.49       11.7812        0.0031       25.3519       25.3551      13.573877       0.01266
  19     114.6       11.7824        0.0037       25.3262       25.3299      13.547517       0.01231
  18     136.5       11.7838        0.0044       25.2962       25.3006      13.516785       0.01182
  17     162.9       11.7856        0.0052       25.2521       25.2573      13.471713       0.01441
  16     196.4       11.7881        0.0063       25.1593       25.1656      13.377491       0.02372
  15     218.7       11.7899        0.0070       25.0159       25.0229      13.233021       0.05485
  14     243.0       11.7921        0.0077       24.7089       24.7166      12.924511       0.10700
  13     269.0       11.7949        0.0084       24.1619       24.1702      12.375328       0.17815
  12     297.5       11.7987        0.0091       23.4544       23.4635      11.664723       0.21076
  11     328.5       11.8038        0.0098       22.7355       22.7453      10.941511       0.19664
  10     361.9       11.8104        0.0105       21.9224       21.9330      10.122564       0.20720
   9     398.1       11.8193        0.0112       20.9939       21.0051       9.185827       0.21824
   8     437.6       11.8318        0.0119       19.9833       19.9952       8.163491       0.21858
   7     480.5       11.8490        0.0126       18.9483       18.9609       7.111860       0.20654
   6     533.0       11.8784        0.0134       17.7796       17.7929       5.914519       0.19261
   5     589.8       11.9263        0.0141       16.6726       16.6867       4.760437       0.17130
   4     651.6       12.0143        0.0149       15.6343       15.6492       3.634964       0.15391
   3     718.7       12.1768        0.0158       14.7738       14.7896       2.612765       0.12846
   2     792.3       12.5077        0.0168       14.0291       14.0459       1.538220       0.12324
   1     891.5        2.1198        3.0663        0.0000        3.0663       0.946533       0.05035
   0    1013.0        2.1696        2.9721        0.0000        2.9721       0.802463       0.01000



 Wavenumbers:  6150. -  7700. cm-1, ATM      1
 LEVEL PRESSURE   UPWARD FLUX   DIFDOWN FLUX  DIRDOWN FLUX  DOWNWARD FLUX   NET FLUX    HEATING RATE
          mb          W/m2          W/m2          W/m2        W/m2          W/m2       degree/day
  51    .06700       18.9547        0.0000       47.3109       47.3109      28.356146       0.00000
  50    .07753       18.9547        0.0000       47.3108       47.3108      28.356089       0.04553
  49    .09103       18.9547        0.0000       47.3107       47.3107      28.356015       0.04583
  48    0.1069       18.9547        0.0000       47.3106       47.3106      28.355929       0.04614
  47    0.1255       18.9547        0.0000       47.3105       47.3105      28.355826       0.04645
  46    0.1487       18.9547        0.0000       47.3104       47.3104      28.355693       0.04852
  45    0.1794       18.9547        0.0000       47.3102       47.3102      28.355506       0.05127
  44    0.2165       18.9547        0.0000       47.3100       47.3100      28.355279       0.05167
  43    0.2613       18.9547        0.0000       47.3097       47.3097      28.355003       0.05210
  42    0.3336       18.9547        0.0000       47.3092       47.3092      28.354534       0.05471
  41    0.4307       18.9547        0.0000       47.3085       47.3086      28.353899       0.05521
  40    0.5894       18.9547        0.0001       47.3074       47.3075      28.352839       0.05633
  39     1.339       18.9546        0.0002       47.3022       47.3024      28.347747       0.05733
  38     1.782       18.9546        0.0002       47.2991       47.2994      28.344777       0.05655
  37     2.292       18.9545        0.0003       47.2956       47.2959      28.341401       0.05591
  36     2.964       18.9545        0.0004       47.2912       47.2916      28.337083       0.05421
  35     3.853       18.9544        0.0005       47.2855       47.2860      28.331548       0.05252
  34     5.035       18.9543        0.0007       47.2780       47.2787      28.324368       0.05130
  33     6.613       18.9542        0.0009       47.2683       47.2692      28.314980       0.05019
  32     8.786       18.9541        0.0012       47.2556       47.2567      28.302680       0.04777
  31     11.80       18.9538        0.0016       47.2380       47.2396      28.285776       0.04733
  30     15.07       18.9536        0.0020       47.2201       47.2221      28.268487       0.04464
  29     18.79       18.9533        0.0025       47.2008       47.2033      28.250006       0.04190
  28     23.16       18.9530        0.0031       47.1795       47.1826      28.229614       0.03943
  27     28.12       18.9526        0.0037       47.1565       47.1602      28.207618       0.03739
  26     33.73       18.9522        0.0045       47.1324       47.1369      28.184694       0.03447
  25     40.54       18.9517        0.0054       47.1054       47.1108      28.159054       0.03181
  24     48.69       18.9511        0.0065       47.0754       47.0819      28.130795       0.02924
  23     57.69       18.9504        0.0077       47.0449       47.0526      28.102167       0.02683
  22     68.43       18.9497        0.0091       47.0110       47.0201      28.070421       0.02496
  21     81.20       18.9487        0.0108       46.9729       46.9836      28.034915       0.02346
  20     96.49       18.9476        0.0128       46.9294       46.9422      27.994558       0.02227
  19     114.6       18.9463        0.0152       46.8790       46.8942      27.947900       0.02179
  18     136.5       18.9448        0.0180       46.8200       46.8380      27.893242       0.02102
  17     162.9       18.9430        0.0214       46.7361       46.7575      27.814558       0.02515
  16     196.4       18.9408        0.0258       46.5703       46.5960      27.655201       0.04011
  15     218.7       18.9397        0.0286       46.3473       46.3759      27.436240       0.08313
  14     243.0       18.9388        0.0316       45.9299       45.9614      27.022597       0.14347
  13     269.0       18.9389        0.0346       45.1708       45.2053      26.266428       0.24530
  12     297.5       18.9408        0.0375       44.0115       44.0490      25.108155       0.34353
  11     328.5       18.9452        0.0405       42.7242       42.7647      23.819556       0.35037
  10     361.9       18.9533        0.0436       41.3539       41.3975      22.444264       0.34796
   9     398.1       18.9671        0.0466       39.7953       39.8419      20.874753       0.36566
   8     437.6       18.9904        0.0495       37.9948       38.0442      19.053874       0.38932
   7     480.5       19.0274        0.0522       36.0647       36.1169      17.089538       0.38579
   6     533.0       19.0969        0.0552       33.7773       33.8325      14.735560       0.37868
   5     589.8       19.2182        0.0580       31.4082       31.4662      12.247934       0.36925
   4     651.6       19.4531        0.0603       28.8834       28.9437       9.490566       0.37708
   3     718.7       19.9065        0.0624       26.4104       26.4727       6.566205       0.36751
   2     792.3       20.8915        0.0641       24.0056       24.0697       3.178257       0.38856
   1     891.5        2.9946        4.4969        0.0000        4.4969       1.502372       0.14261
   0    1013.0        3.1147        4.2667        0.0000        4.2667       1.152022       0.02433



 Wavenumbers:  7700. -  8050. cm-1, ATM      1
 LEVEL PRESSURE   UPWARD FLUX   DIFDOWN FLUX  DIRDOWN FLUX  DOWNWARD FLUX   NET FLUX    HEATING RATE
          mb          W/m2          W/m2          W/m2        W/m2          W/m2       degree/day
  51    .06700        8.6095        0.0000       11.1810       11.1810       2.571466       0.00000
  50    .07753        8.6095        0.0000       11.1809       11.1809       2.571442       0.01914
  49    .09103        8.6095        0.0000       11.1809       11.1809       2.571412       0.01875
  48    0.1069        8.6095        0.0000       11.1809       11.1809       2.571378       0.01836
  47    0.1255        8.6095        0.0000       11.1809       11.1809       2.571338       0.01797
  46    0.1487        8.6095        0.0000       11.1808       11.1808       2.571288       0.01823
  45    0.1794        8.6096        0.0000       11.1808       11.1808       2.571220       0.01876
  44    0.2165        8.6096        0.0000       11.1807       11.1807       2.571139       0.01840
  43    0.2613        8.6096        0.0000       11.1806       11.1806       2.571043       0.01806
  42    0.3336        8.6096        0.0000       11.1805       11.1805       2.570885       0.01848
  41    0.4307        8.6097        0.0000       11.1803       11.1804       2.570674       0.01828
  40    0.5894        8.6098        0.0000       11.1801       11.1801       2.570331       0.01826
  39     1.339        8.6102        0.0001       11.1788       11.1789       2.568707       0.01829
  38     1.782        8.6104        0.0001       11.1781       11.1782       2.567753       0.01817
  37     2.292        8.6107        0.0001       11.1772       11.1773       2.566648       0.01829
  36     2.964        8.6111        0.0002       11.1761       11.1763       2.565198       0.01821
  35     3.853        8.6115        0.0002       11.1746       11.1748       2.563282       0.01818
  34     5.035        8.6122        0.0003       11.1726       11.1729       2.560736       0.01818
  33     6.613        8.6130        0.0004       11.1700       11.1704       2.557336       0.01818
  32     8.786        8.6142        0.0005       11.1664       11.1669       2.552755       0.01779
  31     11.80        8.6158        0.0007       11.1613       11.1620       2.546203       0.01834
  30     15.07        8.6176        0.0009       11.1558       11.1568       2.539173       0.01815
  29     18.79        8.6196        0.0012       11.1497       11.1508       2.531236       0.01800
  28     23.16        8.6220        0.0014       11.1425       11.1439       2.521973       0.01791
  27     28.12        8.6247        0.0017       11.1343       11.1361       2.511392       0.01799
  26     33.73        8.6277        0.0021       11.1252       11.1273       2.499567       0.01778
  25     40.54        8.6314        0.0025       11.1142       11.1167       2.485304       0.01769
  24     48.69        8.6359        0.0030       11.1010       11.1040       2.468145       0.01776
  23     57.69        8.6408        0.0035       11.0866       11.0901       2.449344       0.01762
  22     68.43        8.6467        0.0042       11.0695       11.0737       2.427018       0.01755
  21     81.20        8.6538        0.0050       11.0494       11.0543       2.400515       0.01751
  20     96.49        8.6624        0.0059       11.0255       11.0314       2.369068       0.01736
  19     114.6        8.6726        0.0070       10.9975       11.0046       2.331916       0.01735
  18     136.5        8.6850        0.0083       10.9648       10.9731       2.288134       0.01684
  17     162.9        8.6998        0.0099       10.9263       10.9362       2.236332       0.01656
  16     196.4        8.7195        0.0119       10.8773       10.8892       2.169653       0.01678
  15     218.7        8.7326        0.0132       10.8455       10.8588       2.126111       0.01653
  14     243.0        8.7472        0.0146       10.8114       10.8261       2.078933       0.01636
  13     269.0        8.7632        0.0162       10.7749       10.7911       2.027891       0.01656
  12     297.5        8.7809        0.0179       10.7357       10.7536       1.972679       0.01638
  11     328.5        8.8005        0.0197       10.6937       10.7134       1.912886       0.01626
  10     361.9        8.8223        0.0216       10.6489       10.6705       1.848186       0.01637
   9     398.1        8.8466        0.0237       10.6008       10.6245       1.777929       0.01637
   8     437.6        8.8738        0.0260       10.5491       10.5751       1.701308       0.01638
   7     480.5        8.9043        0.0284       10.4934       10.5219       1.617555       0.01645
   6     533.0        8.9441        0.0314       10.4243       10.4557       1.511545       0.01705
   5     589.8        8.9906        0.0346       10.3479       10.3825       1.391894       0.01776
   4     651.6        9.0464        0.0380       10.2613       10.2994       1.252970       0.01900
   3     718.7        9.1149        0.0417       10.1618       10.2034       1.088550       0.02066
   2     792.3        9.2021        0.0455       10.0439       10.0894       0.887281       0.02308
   1     891.5        1.7234        2.4583        0.0000        2.4583       0.734892       0.01297
   0    1013.0        1.7581        2.4083        0.0000        2.4083       0.650252       0.00588



 Wavenumbers:  8050. - 12850. cm-1, ATM      1
 LEVEL PRESSURE   UPWARD FLUX   DIFDOWN FLUX  DIRDOWN FLUX  DOWNWARD FLUX   NET FLUX    HEATING RATE
          mb          W/m2          W/m2          W/m2        W/m2          W/m2       degree/day
  51    .06700      112.7582        0.0000      156.5418      156.5418      43.783500       0.00000
  50    .07753      112.7582        0.0000      156.5417      156.5417      43.783500       0.00000
  49    .09103      112.7582        0.0001      156.5417      156.5417      43.783500      -0.00000
  48    0.1069      112.7582        0.0001      156.5416      156.5417      43.783500      -0.00000
  47    0.1255      112.7582        0.0002      156.5415      156.5417      43.783500      -0.00000
  46    0.1487      112.7582        0.0002      156.5414      156.5417      43.783500       0.00000
  45    0.1794      112.7581        0.0003      156.5413      156.5416      43.783500       0.00000
  44    0.2165      112.7581        0.0005      156.5412      156.5416      43.783500      -0.00000
  43    0.2613      112.7581        0.0006      156.5410      156.5416      43.783500      -0.00000
  42    0.3336      112.7580        0.0008      156.5407      156.5415      43.783500      -0.00000
  41    0.4307      112.7579        0.0011      156.5403      156.5414      43.783500       0.00000
  40    0.5894      112.7578        0.0016      156.5397      156.5413      43.783500       0.00000
  39     1.339      112.7570        0.0038      156.5367      156.5405      43.783500       0.00000
  38     1.782      112.7566        0.0051      156.5350      156.5401      43.783500      -0.00000
  37     2.292      112.7561        0.0067      156.5330      156.5396      43.783500      -0.00000
  36     2.964      112.7555        0.0087      156.5303      156.5390      43.783500       0.00000
  35     3.853      112.7547        0.0113      156.5268      156.5382      43.783500      -0.00000
  34     5.035      112.7535        0.0148      156.5222      156.5370      43.783500       0.00000
  33     6.613      112.7520        0.0195      156.5160      156.5355      43.783500       0.00000
  32     8.786      112.7500        0.0259      156.5076      156.5335      43.783500      -0.00000
  31     11.80      112.7471        0.0350      156.4957      156.5306      43.783500       0.00000
  30     15.07      112.7440        0.0448      156.4828      156.5275      43.783500       0.00000
  29     18.79      112.7405        0.0558      156.4682      156.5240      43.783500      -0.00000
  28     23.16      112.7364        0.0687      156.4512      156.5199      43.783500       0.00000
  27     28.12      112.7317        0.0835      156.4317      156.5152      43.783500       0.00000
  26     33.73      112.7265        0.1001      156.4099      156.5100      43.783500       0.00000
  25     40.54      112.7201        0.1202      156.3834      156.5036      43.783500       0.00000
  24     48.69      112.7124        0.1444      156.3515      156.4959      43.783500      -0.00000
  23     57.69      112.7040        0.1710      156.3164      156.4875      43.783500       0.00000
  22     68.43      112.6939        0.2028      156.2746      156.4774      43.783500       0.00000
  21     81.20      112.6818        0.2407      156.2246      156.4653      43.783500      -0.00000
  20     96.49      112.6675        0.2860      156.1649      156.4510      43.783500       0.00000
  19     114.6      112.6506        0.3399      156.0879      156.4278      43.777206       0.00294
  18     136.5      112.6306        0.4038      155.9962      156.4000      43.769402       0.00300
  17     162.9      112.6068        0.4802      155.8831      156.3632      43.756470       0.00413
  16     196.4      112.5760        0.5795      155.7199      156.2994      43.723404       0.00832
  15     218.7      112.5563        0.6448      155.5733      156.2181      43.661774       0.02340
  14     243.0      112.5362        0.7157      155.3367      156.0524      43.516192       0.05049
  13     269.0      112.5177        0.7925      154.9514      155.7439      43.226213       0.09407
  12     297.5      112.5040        0.8752      154.3896      155.2648      42.760803       0.13804
  11     328.5      112.4972        0.9644      153.7151      154.6795      42.182258       0.15730
  10     361.9      112.5018        1.0601      152.9087      153.9689      41.467131       0.18093
   9     398.1      112.5249        1.1626      151.8986      153.0612      40.536316       0.21686
   8     437.6      112.5792        1.2716      150.6031      151.8747      39.295550       0.26528
   7     480.5      112.6800        1.3869      149.0014      150.3883      37.708290       0.31173
   6     533.0      112.8852        1.5265      146.7375      148.2640      35.378881       0.37473
   5     589.8      113.2577        1.6728      143.8730      145.5458      32.288040       0.45878
   4     651.6      113.9857        1.8229      140.0955      141.9184      27.932720       0.59560
   3     718.7      115.3534        1.9752      135.5278      137.5030      22.149631       0.72677
   2     792.3      118.0947        2.1258      130.0690      132.1949      14.100170       0.92318
   1     891.5       19.8606       28.9206        0.0000       28.9206       9.060026       0.42889
   0    1013.0       20.4048       27.9518        0.0000       27.9518       7.546980       0.10506



 Wavenumbers: 12850. - 16000. cm-1, ATM      1
 LEVEL PRESSURE   UPWARD FLUX   DIFDOWN FLUX  DIRDOWN FLUX  DOWNWARD FLUX   NET FLUX    HEATING RATE
          mb          W/m2          W/m2          W/m2        W/m2          W/m2       degree/day
  51    .06700       80.6612        0.0000       98.0872       98.0872      17.426087       0.00000
  50    .07753       80.6612        0.0001       98.0864       98.0864      17.425294       0.63558
  49    .09103       80.6612        0.0002       98.0853       98.0855      17.424298       0.62265
  48    0.1069       80.6612        0.0003       98.0841       98.0843      17.423153       0.60950
  47    0.1255       80.6612        0.0004       98.0826       98.0830      17.421836       0.59667
  46    0.1487       80.6612        0.0005       98.0809       98.0814      17.420175       0.60576
  45    0.1794       80.6613        0.0007       98.0784       98.0792      17.417913       0.62093
  44    0.2165       80.6614        0.0010       98.0756       98.0766      17.415250       0.60562
  43    0.2613       80.6615        0.0013       98.0723       98.0736      17.412117       0.59056
  42    0.3336       80.6618        0.0017       98.0670       98.0688      17.407000       0.59670
  41    0.4307       80.6622        0.0024       98.0602       98.0626      17.400375       0.57602
  40    0.5894       80.6631        0.0034       98.0496       98.0530      17.389920       0.55597
  39     1.339       80.6703        0.0082       98.0043       98.0126      17.342300       0.53612
  38     1.782       80.6768        0.0111       97.9793       97.9904      17.313551       0.54734
  37     2.292       80.6865        0.0144       97.9498       97.9642      17.277634       0.59487
  36     2.964       80.7026        0.0187       97.9088       97.9275      17.224976       0.66101
  35     3.853       80.7284        0.0244       97.8503       97.8748      17.146433       0.74539
  34     5.035       80.7671        0.0320       97.7680       97.8000      17.032884       0.81115
  33     6.613       80.8213        0.0422       97.6562       97.6984      16.877081       0.83292
  32     8.786       80.8918        0.0558       97.5107       97.5665      16.674700       0.78598
  31     11.80       80.9837        0.0753       97.3179       97.3932      16.409506       0.74246
  30     15.07       81.0719        0.0963       97.1283       97.2246      16.152723       0.66296
  29     18.79       81.1620        0.1199       96.9300       97.0499      15.887853       0.60054
  28     23.16       81.2565        0.1474       96.7166       96.8640      15.607502       0.54211
  27     28.12       81.3518        0.1790       96.4935       96.6724      15.320598       0.48772
  26     33.73       81.4404        0.2142       96.2731       96.4873      15.046948       0.41144
  25     40.54       81.5263        0.2568       96.0408       96.2976      14.771328       0.34194
  24     48.69       81.6094        0.3082       95.7946       96.1028      14.493333       0.28768
  23     57.69       81.6811        0.3646       95.5573       95.9219      14.240863       0.23665
  22     68.43       81.7450        0.4319       95.3106       95.7425      13.997508       0.19131
  21     81.20       81.7919        0.5122       95.0643       95.5765      13.784552       0.14072
  20     96.49       81.8209        0.6079       94.8153       95.4232      13.602308       0.10059
  19     114.6       81.8525        0.7226       94.5411       95.2637      13.411162       0.08925
  18     136.5       81.8787        0.8586       94.2320       95.0906      13.211876       0.07663
  17     162.9       81.8998        1.0205       93.8753       94.8958      12.995994       0.06900
  16     196.4       81.9053        1.2305       93.4347       94.6651      12.759807       0.05945
  15     218.7       81.9014        1.3684       93.1513       94.5197      12.618289       0.05373
  14     243.0       81.8942        1.5183       92.8439       94.3622      12.468053       0.05211
  13     269.0       81.8839        1.6807       92.5111       94.1918      12.307935       0.05194
  12     297.5       81.8715        1.8562       92.1495       94.0057      12.134193       0.05153
  11     328.5       81.8593        2.0458       91.7554       93.8012      11.941878       0.05229
  10     361.9       81.8489        2.2500       91.3262       93.5762      11.727293       0.05429
   9     398.1       81.8423        2.4696       90.8575       93.3271      11.484853       0.05648
   8     437.6       81.8437        2.7053       90.3418       93.0471      11.203434       0.06017
   7     480.5       81.8572        2.9577       89.7728       92.7305      10.873234       0.06485
   6     533.0       81.8969        3.2679       89.0428       92.3107      10.413798       0.07391
   5     589.8       81.9815        3.6011       88.2038       91.8049       9.823365       0.08764
   4     651.6       82.1567        3.9567       87.1979       91.1546       8.997908       0.11288
   3     718.7       82.4595        4.3334       86.0161       90.3495       7.890003       0.13923
   2     792.3       82.9980        4.7273       84.5970       89.3243       6.326305       0.17934
   1     891.5       28.5004       33.5923        0.0000       33.5923       5.091951       0.10504
   0    1013.0       28.8187       33.1517        0.0000       33.1517       4.332921       0.05270



 Wavenumbers: 16000. - 22650. cm-1, ATM      1
 LEVEL PRESSURE   UPWARD FLUX   DIFDOWN FLUX  DIRDOWN FLUX  DOWNWARD FLUX   NET FLUX    HEATING RATE
          mb          W/m2          W/m2          W/m2        W/m2          W/m2       degree/day
  51    .06700      140.2790        0.0000      156.3892      156.3892      16.110262       0.00000
  50    .07753      140.2790        0.0004      156.3887      156.3891      16.110115       0.11816
  49    .09103      140.2789        0.0009      156.3879      156.3888      16.109900       0.13402
  48    0.1069      140.2789        0.0015      156.3871      156.3885      16.109613       0.15283
  47    0.1255      140.2789        0.0021      156.3861      156.3882      16.109229       0.17421
  46    0.1487      140.2790        0.0029      156.3847      156.3877      16.108663       0.20643
  45    0.1794      140.2791        0.0041      156.3828      156.3869      16.107777       0.24306
  44    0.2165      140.2793        0.0054      156.3805      156.3859      16.106577       0.27317
  43    0.2613      140.2797        0.0070      156.3776      156.3846      16.104947       0.30711
  42    0.3336      140.2804        0.0096      156.3726      156.3823      16.101850       0.36115
  41    0.4307      140.2817        0.0131      156.3657      156.3788      16.097180       0.40597
  40    0.5894      140.2842        0.0188      156.3537      156.3725      16.088276       0.47355
  39     1.339      140.3067        0.0457      156.2834      156.3292      16.022485       0.74068
  38     1.782      140.3275        0.0616      156.2324      156.2939      15.966440       1.06702
  37     2.292      140.3586        0.0799      156.1641      156.2439      15.885313       1.34366
  36     2.964      140.4105        0.1039      156.0605      156.1644      15.753888       1.64979
  35     3.853      140.4943        0.1356      155.9041      156.0396      15.545348       1.97908
  34     5.035      140.6208        0.1777      155.6774      155.8550      15.234223       2.22255
  33     6.613      140.7976        0.2338      155.3656      155.5994      14.801851       2.31146
  32     8.786      141.0278        0.3094      154.9577      155.2670      14.239240       2.18498
  31     11.80      141.3274        0.4173      154.4153      154.8326      13.505180       2.05514
  30     15.07      141.6144        0.5330      153.8804      154.4134      12.799042       1.82311
  29     18.79      141.9073        0.6636      153.3191      153.9827      12.075320       1.64090
  28     23.16      142.2135        0.8158      152.7126      153.5284      11.314879       1.47045
  27     28.12      142.5215        0.9896      152.0755      153.0651      10.543670       1.31100
  26     33.73      142.8056        1.1840      151.4409      152.6249       9.819277       1.08914
  25     40.54      143.0789        1.4186      150.7637      152.1822       9.103322       0.88822
  24     48.69      143.3404        1.7011      150.0338      151.7349       8.394520       0.73350
  23     57.69      143.5618        2.0110      149.3151      151.3262       7.764328       0.59071
  22     68.43      143.7546        2.3798      148.5476      150.9274       7.172749       0.46506
  21     81.20      143.8871        2.8188      147.7517      150.5705       6.683379       0.32337
  20     96.49      143.9547        3.3414      146.9127      150.2541       6.299349       0.21196
  19     114.6      143.9885        3.9601      145.9763      149.9364       5.947923       0.16409
  18     136.5      143.9973        4.6907      144.9088      149.5995       5.602215       0.13293
  17     162.9      143.9793        5.5566      143.6785      149.2352       5.255919       0.11069
  16     196.4      143.8944        6.6739      142.1651      148.8389       4.944465       0.07840
  15     218.7      143.8163        7.4039      141.2033      148.6073       4.791023       0.05826
  14     243.0      143.7210        8.1941      140.1753      148.3695       4.648489       0.04944
  13     269.0      143.6070        9.0466      139.0797      148.1263       4.519248       0.04193
  12     297.5      143.4737        9.9633      137.9141      147.8774       4.403645       0.03429
  11     328.5      143.3252       10.9487      136.6676      147.6163       4.291041       0.03062
  10     361.9      143.1612       12.0035      135.3392      147.3427       4.181545       0.02770
   9     398.1      142.9811       13.1319      133.9235      147.0554       4.074212       0.02501
   8     437.6      142.7862       14.3358      132.4163      146.7520       3.965818       0.02318
   7     480.5      142.5760       15.6173      130.8147      146.4320       3.855984       0.02157
   6     533.0      142.3179       17.1825      128.8599      146.0425       3.724530       0.02115
   5     589.8      142.0446       18.8548      126.7679      145.6228       3.578205       0.02172
   4     651.6      141.7632       20.6358      124.5274      145.1632       3.400025       0.02437
   3     718.7      141.4809       22.5270      122.1285      144.6555       3.174619       0.02833
   2     792.3      141.2164       24.5264      119.5548      144.0813       2.864902       0.03552
   1     891.5      102.3223      104.8214        0.0000      104.8214       2.499118       0.03113
   0    1013.0      102.4996      104.5808        0.0000      104.5808       2.081158       0.02902



 Wavenumbers: 22650. - 29000. cm-1, ATM      1
 LEVEL PRESSURE   UPWARD FLUX   DIFDOWN FLUX  DIRDOWN FLUX  DOWNWARD FLUX   NET FLUX    HEATING RATE
          mb          W/m2          W/m2          W/m2        W/m2          W/m2       degree/day
  51    .06700       58.1593        0.0000       59.0156       59.0156       0.856317       0.00000
  50    .07753       58.1592        0.0005       59.0151       59.0155       0.856317       0.00000
  49    .09103       58.1591        0.0010       59.0144       59.0154       0.856317      -0.00000
  48    0.1069       58.1590        0.0017       59.0136       59.0153       0.856317       0.00000
  47    0.1255       58.1588        0.0025       59.0127       59.0151       0.856317      -0.00000
  46    0.1487       58.1586        0.0034       59.0115       59.0149       0.856317       0.00000
  45    0.1794       58.1584        0.0048       59.0099       59.0147       0.856317       0.00000
  44    0.2165       58.1580        0.0063       59.0080       59.0144       0.856317       0.00000
  43    0.2613       58.1577        0.0082       59.0058       59.0140       0.856317      -0.00000
  42    0.3336       58.1571        0.0112       59.0022       59.0134       0.856317       0.00000
  41    0.4307       58.1563        0.0153       58.9973       59.0126       0.856317      -0.00000
  40    0.5894       58.1550        0.0219       58.9894       59.0113       0.856317       0.00000
  39     1.339       58.1488        0.0533       58.9518       59.0051       0.856317       0.00000
  38     1.782       58.1452        0.0718       58.9297       59.0015       0.856317       0.00000
  37     2.292       58.1410        0.0931       58.9042       58.9973       0.856317      -0.00000
  36     2.964       58.1355        0.1211       58.8706       58.9918       0.856317       0.00000
  35     3.853       58.1282        0.1581       58.8264       58.9845       0.856317      -0.00000
  34     5.035       58.1185        0.2072       58.7676       58.9748       0.856317       0.00000
  33     6.613       58.1056        0.2728       58.6891       58.9619       0.856317       0.00000
  32     8.786       58.0882        0.3611       58.5834       58.9445       0.856317       0.00000
  31     11.80       58.0634        0.4872       58.4324       58.9197       0.856317      -0.00000
  30     15.07       58.0368        0.6224       58.2706       58.8931       0.856317      -0.00000
  29     18.79       58.0067        0.7748       58.0882       58.8631       0.856317       0.00000
  28     23.16       57.9718        0.9524       57.8757       58.8281       0.856317       0.00000
  27     28.12       57.9319        1.1549       57.6333       58.7882       0.856317      -0.00000
  26     33.73       57.8874        1.3807       57.3631       58.7437       0.856317      -0.00000
  25     40.54       57.8339        1.6523       57.0379       58.6902       0.856317       0.00000
  24     48.69       57.7697        1.9781       56.6479       58.6260       0.856317       0.00000
  23     57.69       57.6995        2.3338       56.2221       58.5559       0.856317       0.00000
  22     68.43       57.6166        2.7543       55.7186       58.4729       0.856317       0.00000
  21     81.20       57.5186        3.2510       55.1239       58.3749       0.856317      -0.00000
  20     96.49       57.4030        3.8365       54.4228       58.2593       0.856317       0.00000
  19     114.6       57.2675        4.5228       53.6010       58.1238       0.856317       0.00000
  18     136.5       57.1091        5.3237       52.6418       57.9655       0.856317       0.00000
  17     162.9       56.9239        6.2599       51.5203       57.7802       0.856317       0.00000
  16     196.4       56.6890        7.4459       50.0994       57.5453       0.856317       0.00000
  15     218.7       56.5379        8.2080       49.1863       57.3942       0.856317      -0.00000
  14     243.0       56.3765        9.0215       48.2113       57.2328       0.856317       0.00000
  13     269.0       56.2047        9.8861       47.1749       57.0610       0.856317       0.00000
  12     297.5       56.0228       10.8008       46.0783       56.8791       0.856317      -0.00000
  11     328.5       55.8304       11.7671       44.9195       56.6867       0.856317       0.00000
  10     361.9       55.6279       12.7824       43.7018       56.4842       0.856317       0.00000
   9     398.1       55.4154       13.8467       42.4250       56.2717       0.856317       0.00000
   8     437.6       55.1931       14.9578       41.0916       56.0494       0.856317      -0.00000
   7     480.5       54.9615       16.1133       39.7045       55.8178       0.856317       0.00000
   6     533.0       54.6854       17.4875       38.0543       55.5418       0.856317      -0.00000
   5     589.8       54.3985       18.9118       36.3431       55.2549       0.856317       0.00000
   4     651.6       54.1021       20.3789       34.5795       54.9584       0.856317      -0.00000
   3     718.7       53.7971       21.8831       32.7702       54.6534       0.856317      -0.00000
   2     792.3       53.4850       23.4157       30.9256       54.3413       0.856317       0.00000
   1     891.5       42.1138       42.9682        0.0000       42.9682       0.854475       0.00016
   0    1013.0       42.0840       42.9384        0.0000       42.9384       0.854475       0.00000



 Wavenumbers: 29000. - 38000. cm-1, ATM      1
 LEVEL PRESSURE   UPWARD FLUX   DIFDOWN FLUX  DIRDOWN FLUX  DOWNWARD FLUX   NET FLUX    HEATING RATE
          mb          W/m2          W/m2          W/m2        W/m2          W/m2       degree/day
  51    .06700        8.7147        0.0000       20.8114       20.8114      12.096682       0.00000
  50    .07753        8.7145        0.0003       20.8070       20.8074      12.092874       3.05152
  49    .09103        8.7143        0.0007       20.8009       20.8016      12.087337       3.46081
  48    0.1069        8.7140        0.0012       20.7928       20.7939      12.079928       3.94425
  47    0.1255        8.7137        0.0017       20.7820       20.7837      12.070023       4.49029
  46    0.1487        8.7134        0.0024       20.7665       20.7688      12.055460       5.30838
  45    0.1794        8.7129        0.0033       20.7424       20.7457      12.032795       6.22197
  44    0.2165        8.7124        0.0044       20.7103       20.7147      12.002273       6.94332
  43    0.2613        8.7118        0.0056       20.6675       20.6731      11.961279       7.72723
  42    0.3336        8.7109        0.0077       20.5880       20.5956      11.884719       8.92614
  41    0.4307        8.7098        0.0104       20.4722       20.4826      11.772768       9.73390
  40    0.5894        8.7083        0.0147       20.2637       20.2784      11.570087      10.77831
  39     1.339        8.7048        0.0331       19.0984       19.1315      10.426631      12.87323
  38     1.782        8.7053        0.0427       18.4394       18.4820       9.776725      12.37317
  37     2.292        8.7079        0.0529       17.7714       17.8243       9.116405      10.93661
  36     2.964        8.7144        0.0656       17.0421       17.1077       8.393321       9.07689
  35     3.853        8.7272        0.0815       16.2678       16.3494       7.622203       7.31805
  34     5.035        8.7482        0.1016       15.4803       15.5820       6.833796       5.63205
  33     6.613        8.7787        0.1274       14.7157       14.8431       6.064331       4.11356
  32     8.786        8.8191        0.1611       13.9936       14.1547       5.335530       2.83040
  31     11.80        8.8719        0.2081       13.2835       13.4916       4.619750       2.00396
  30     15.07        8.9227        0.2568       12.7394       12.9962       4.073440       1.41046
  29     18.79        8.9753        0.3108       12.2666       12.5774       3.602151       1.06856
  28     23.16        9.0311        0.3722       11.8300       12.2022       3.171161       0.83339
  27     28.12        9.0882        0.4410       11.4279       11.8688       2.780603       0.66392
  26     33.73        9.1410        0.5168       11.0695       11.5862       2.445205       0.50428
  25     40.54        9.1911        0.6073       10.7209       11.3282       2.137126       0.38221
  24     48.69        9.2383        0.7147       10.3742       11.0889       1.850634       0.29647
  23     57.69        9.2770        0.8310       10.0549       10.8859       1.608910       0.22658
  22     68.43        9.3083        0.9674        9.7327       10.7001       1.391886       0.17061
  21     81.20        9.3231        1.1285        9.4134       10.5419       1.218813       0.11436
  20     96.49        9.3195        1.3178        9.0887       10.4065       1.087052       0.07272
  19     114.6        9.3055        1.5365        8.7388       10.2753       0.969756       0.05477
  18     136.5        9.2842        1.7866        8.3549       10.1414       0.857195       0.04328
  17     162.9        9.2557        2.0716        7.9311       10.0027       0.746971       0.03523
  16     196.4        9.2079        2.4245        7.4333        9.8579       0.649938       0.02442
  15     218.7        9.1735        2.6466        7.1295        9.7761       0.602607       0.01797
  14     243.0        9.1358        2.8786        6.8161        9.6947       0.558899       0.01516
  13     269.0        9.0946        3.1199        6.4943        9.6142       0.519648       0.01273
  12     297.5        9.0499        3.3692        6.1657        9.5350       0.485045       0.01026
  11     328.5        9.0033        3.6258        5.8295        9.4552       0.451911       0.00901
  10     361.9        8.9551        3.8869        5.4886        9.3755       0.420397       0.00797
   9     398.1        8.9055        4.1521        5.1440        9.2961       0.390528       0.00696
   8     437.6        8.8551        4.4199        4.7969        9.2168       0.361731       0.00616
   7     480.5        8.8040        4.6881        4.4504        9.1384       0.334393       0.00537
   6     533.0        8.7454        4.9938        4.0563        9.0500       0.304586       0.00479
   5     589.8        8.6875        5.2951        3.6682        8.9633       0.275722       0.00428
   4     651.6        8.6313        5.5883        3.2905        8.8788       0.247477       0.00386
   3     718.7        8.5772        5.8718        2.9252        8.7970       0.219807       0.00348
   2     792.3        8.5259        6.1422        2.5764        8.7187       0.192716       0.00311
   1     891.5        6.7835        6.9481        0.0000        6.9481       0.164637       0.00239
   0    1013.0        6.7857        6.9235        0.0000        6.9235       0.137777       0.00187



 Wavenumbers: 38000. - 50000. cm-1, ATM      1
 LEVEL PRESSURE   UPWARD FLUX   DIFDOWN FLUX  DIRDOWN FLUX  DOWNWARD FLUX   NET FLUX    HEATING RATE
          mb          W/m2          W/m2          W/m2        W/m2          W/m2       degree/day
  51    .06700        0.0061        0.0000        1.2836        1.2836       1.277518       0.00000
  50    .07753        0.0061        0.0001        1.2812        1.2812       1.275183       1.87150
  49    .09103        0.0060        0.0002        1.2777        1.2778       1.271851       2.08247
  48    0.1069        0.0059        0.0002        1.2731        1.2734       1.267473       2.33059
  47    0.1255        0.0058        0.0004        1.2672        1.2675       1.261717       2.60908
  46    0.1487        0.0057        0.0005        1.2586        1.2591       1.253391       3.03499
  45    0.1794        0.0055        0.0007        1.2455        1.2462       1.240623       3.50520
  44    0.2165        0.0054        0.0009        1.2282        1.2291       1.223697       3.85037
  43    0.2613        0.0052        0.0011        1.2054        1.2065       1.201348       4.21261
  42    0.3336        0.0049        0.0015        1.1639        1.1654       1.160524       4.75970
  41    0.4307        0.0045        0.0020        1.1051        1.1070       1.102565       5.03943
  40    0.5894        0.0039        0.0026        1.0039        1.0064       1.002524       5.32007
  39     1.339        0.0022        0.0035        0.5438        0.5473       0.545104       5.14971
  38     1.782        0.0016        0.0032        0.3635        0.3666       0.365006       3.42879
  37     2.292        0.0012        0.0027        0.2356        0.2383       0.237058       2.11916
  36     2.964        0.0009        0.0022        0.1455        0.1477       0.146786       1.13318
  35     3.853        0.0006        0.0017        0.0858        0.0875       0.086906       0.56828
  34     5.035        0.0004        0.0013        0.0488        0.0501       0.049701       0.26578
  33     6.613        0.0003        0.0010        0.0273        0.0282       0.027974       0.11615
  32     8.786        0.0002        0.0007        0.0144        0.0151       0.014928       0.05067
  31     11.80        0.0001        0.0004        0.0065        0.0070       0.006903       0.02247
  30     15.07        0.0000        0.0003        0.0031        0.0034       0.003329       0.00923
  29     18.79        0.0000        0.0002        0.0014        0.0016       0.001583       0.00396
  28     23.16        0.0000        0.0001        0.0006        0.0007       0.000720       0.00167
  27     28.12        0.0000        0.0001        0.0003        0.0003       0.000317       0.00069
  26     33.73        0.0000        0.0000        0.0001        0.0001       0.000140       0.00027
  25     40.54        0.0000        0.0000        0.0000        0.0001       0.000057       0.00010
  24     48.69        0.0000        0.0000        0.0000        0.0000       0.000021       0.00004
  23     57.69        0.0000        0.0000        0.0000        0.0000       0.000008       0.00001
  22     68.43        0.0000        0.0000        0.0000        0.0000       0.000003       0.00000
  21     81.20        0.0000        0.0000        0.0000        0.0000       0.000001       0.00000
  20     96.49        0.0000        0.0000        0.0000        0.0000       0.000000       0.00000
  19     114.6        0.0000        0.0000        0.0000        0.0000       0.000000       0.00000
  18     136.5        0.0000        0.0000        0.0000        0.0000       0.000000       0.00000
  17     162.9        0.0000        0.0000        0.0000        0.0000       0.000000       0.00000
  16     196.4        0.0000        0.0000        0.0000        0.0000       0.000000       0.00000
  15     218.7        0.0000        0.0000        0.0000        0.0000       0.000000       0.00000
  14     243.0        0.0000        0.0000        0.0000        0.0000       0.000000       0.00000
  13     269.0        0.0000        0.0000        0.0000        0.0000       0.000000       0.00000
  12     297.5        0.0000        0.0000        0.0000        0.0000       0.000000       0.00000
  11     328.5        0.0000        0.0000        0.0000        0.0000       0.000000       0.00000
  10     361.9        0.0000        0.0000        0.0000        0.0000       0.000000       0.00000
   9     398.1        0.0000        0.0000        0.0000        0.0000       0.000000       0.00000
   8     437.6        0.0000        0.0000        0.0000        0.0000       0.000000       0.00000
   7     480.5        0.0000        0.0000        0.0000        0.0000       0.000000       0.00000
   6     533.0        0.0000        0.0000        0.0000        0.0000       0.000000       0.00000
   5     589.8        0.0000        0.0000        0.0000        0.0000       0.000000       0.00000
   4     651.6        0.0000        0.0000        0.0000        0.0000       0.000000       0.00000
   3     718.7        0.0000        0.0000        0.0000        0.0000       0.000000       0.00000
   2     792.3        0.0000        0.0000        0.0000        0.0000       0.000000       0.00000
   1     891.5        0.0000        0.0000        0.0000        0.0000       0.000000       0.00000
   0    1013.0        0.0000        0.0000        0.0000        0.0000       0.000000       0.00000



 Wavenumbers:   820. -  2600. cm-1, ATM      1
 LEVEL PRESSURE   UPWARD FLUX   DIFDOWN FLUX  DIRDOWN FLUX  DOWNWARD FLUX   NET FLUX    HEATING RATE
          mb          W/m2          W/m2          W/m2        W/m2          W/m2       degree/day
  51    .06700        1.6590        0.0000        6.0047        6.0047       4.345670       0.00000
  50    .07753        1.6590        0.0000        6.0008        6.0008       4.341817       3.08826
  49    .09103        1.6590        0.0000        5.9999        5.9999       4.340932       0.55362
  48    0.1069        1.6590        0.0000        5.9989        5.9989       4.339942       0.52657
  47    0.1255        1.6590        0.0000        5.9978        5.9978       4.338825       0.50654
  46    0.1487        1.6590        0.0000        5.9964        5.9964       4.337468       0.49462
  45    0.1794        1.6590        0.0000        5.9947        5.9947       4.335749       0.47205
  44    0.2165        1.6590        0.0000        5.9929        5.9929       4.333906       0.41916
  43    0.2613        1.6590        0.0000        5.9909        5.9909       4.331946       0.36938
  42    0.3336        1.6590        0.0000        5.9880        5.9880       4.329068       0.33562
  41    0.4307        1.6590        0.0000        5.9846        5.9846       4.325598       0.30171
  40    0.5894        1.6590        0.0000        5.9791        5.9791       4.320091       0.29282
  39     1.339        1.6590        0.0000        5.9536        5.9536       4.294598       0.28700
  38     1.782        1.6590        0.0000        5.9395        5.9395       4.280457       0.26923
  37     2.292        1.6590        0.0000        5.9237        5.9237       4.264702       0.26094
  36     2.964        1.6590        0.0000        5.9039        5.9039       4.244923       0.24829
  35     3.853        1.6590        0.0000        5.8793        5.8793       4.220260       0.23405
  34     5.035        1.6590        0.0000        5.8487        5.8487       4.189688       0.21839
  33     6.613        1.6590        0.0000        5.8108        5.8108       4.151712       0.20302
  32     8.786        1.6591        0.0000        5.7631        5.7631       4.104072       0.18502
  31     11.80        1.6591        0.0000        5.7039        5.7039       4.044792       0.16597
  30     15.07        1.6591        0.0000        5.6539        5.6539       3.994727       0.12926
  29     18.79        1.6592        0.0000        5.6127        5.6127       3.953562       0.09333
  28     23.16        1.6592        0.0000        5.5794        5.5794       3.920150       0.06461
  27     28.12        1.6593        0.0000        5.5518        5.5518       3.892542       0.04693
  26     33.73        1.6593        0.0000        5.5268        5.5268       3.867441       0.03774
  25     40.54        1.6594        0.0000        5.4993        5.4993       3.839938       0.03412
  24     48.69        1.6595        0.0000        5.4678        5.4678       3.808323       0.03272
  23     57.69        1.6596        0.0000        5.4340        5.4340       3.774453       0.03175
  22     68.43        1.6597        0.0000        5.3947        5.3948       3.735078       0.03095
  21     81.20        1.6598        0.0000        5.3497        5.3497       3.689921       0.02984
  20     96.49        1.6600        0.0000        5.2982        5.2982       3.638252       0.02852
  19     114.6        1.6602        0.0000        5.2389        5.2389       3.578738       0.02779
  18     136.5        1.6604        0.0000        5.1716        5.1717       3.511239       0.02595
  17     162.9        1.6608        0.0000        5.0890        5.0891       3.428263       0.02652
  16     196.4        1.6614        0.0000        4.9668        4.9668       3.305423       0.03092
  15     218.7        1.6620        0.0000        4.8585        4.8585       3.196460       0.04137
  14     243.0        1.6630        0.0000        4.7078        4.7079       3.044873       0.05258
  13     269.0        1.6644        0.0000        4.5343        4.5343       2.869856       0.05677
  12     297.5        1.6667        0.0000        4.3419        4.3420       2.675236       0.05772
  11     328.5        1.6698        0.0000        4.1281        4.1281       2.458332       0.05898
  10     361.9        1.6739        0.0000        3.8786        3.8787       2.204773       0.06415
   9     398.1        1.6792        0.0000        3.6159        3.6160       1.936751       0.06244
   8     437.6        1.6861        0.0000        3.3759        3.3759       1.689826       0.05279
   7     480.5        1.6945        0.0000        3.1957        3.1958       1.501306       0.03702
   6     533.0        1.7073        0.0000        3.0467        3.0467       1.339438       0.02604
   5     589.8        1.7262        0.0001        2.9023        2.9023       1.176164       0.02424
   4     651.6        1.7590        0.0001        2.7183        2.7184       0.959331       0.02965
   3     718.7        1.8164        0.0001        2.5058        2.5059       0.689520       0.03391
   2     792.3        1.9288        0.0001        2.2756        2.2757       0.346899       0.03929
   1     891.5        0.1447        0.2802        0.0000        0.2802       0.135483       0.01799
   0    1013.0        0.1710        0.2342        0.0000        0.2342       0.063242       0.00502

  Modules and versions used in this calculation:

       rrtmg_sw.1col.f90:  $Revision$                    rrtmg_sw_init.f90:  $Revision$        
     rrtmgsw_cldprop.f90:  $Revision$                  rrtmgsw_cldprmc.f90:  NOT USED          
     rrtmg_sw_reftra.f90:  $Revision$                  rrtmg_sw_spcvrt.f90:  NOT USED          
     rrtmg_sw_spcvmc.f90:  NOT USED                    rrtmgsw_setcoef.f90:  NOT USED          
     rrtmg_sw_taumol.f90:  $Revision$                  rrtmg_sw_vrtqdr.f90:  NOT USED          
                rrtatm.f:  NOT USED                             util_xxx.f:  NOT USED          
                 extra.f:  NOT USED                       rrtmg_sw_k_g.f90:  $Revision$        

