

 Wavenumbers:   820. - 50000. cm-1, ATM      1
 LEVEL PRESSURE   UPWARD FLUX   DIFDOWN FLUX  DIRDOWN FLUX  DOWNWARD FLUX   NET FLUX    HEATING RATE
          mb          W/m2          W/m2          W/m2        W/m2          W/m2       degree/day
  51    .06700      279.1656        0.0000      617.8126      617.8126     338.646944       0.00000
  50    .07753      279.1652        0.0013      617.7947      617.7960     338.630825      12.91924
  49    .09103      279.1646        0.0029      617.7778      617.7806     338.616046       9.23722
  48    0.1069      279.1640        0.0047      617.7581      617.7628     338.598826       9.16672
  47    0.1255      279.1633        0.0068      617.7340      617.7408     338.577535       9.65232
  46    0.1487      279.1625        0.0095      617.7009      617.7104     338.547927      10.79223
  45    0.1794      279.1614        0.0131      617.6521      617.6652     338.503817      12.10915
  44    0.2165      279.1603        0.0174      617.5895      617.6069     338.446660      13.00243
  43    0.2613      279.1590        0.0225      617.5089      617.5314     338.372367      14.00381
  42    0.3336      279.1573        0.0308      617.3641      617.3950     338.237699      15.70098
  41    0.4307      279.1553        0.0418      617.1591      617.2010     338.045702      16.69372
  40    0.5894      279.1528        0.0595      616.8005      616.8600     337.707201      18.00105
  39     1.339      279.1564        0.1394      614.9443      615.0837     335.927304      20.03840
  38     1.782      279.1688        0.1842      613.9670      614.1513     334.982418      17.98910
  37     2.292      279.1926        0.2352      613.0059      613.2411     334.048432      15.46925
  36     2.964      279.2379        0.3014      611.9577      612.2590     333.021111      12.89599
  35     3.853      279.3172        0.3881      610.8024      611.1905     331.873261      10.89330
  34     5.035      279.4418        0.5025      609.5327      610.0352     330.593384       9.14292
  33     6.613      279.6185        0.6542      608.1464      608.8007     329.182125       7.54459
  32     8.786      279.8481        0.8578      606.6250      607.4828     327.634677       6.00973
  31     11.80      280.1421        1.1474      604.8486      605.9960     325.853914       4.98557
  30     15.07      280.4177        1.4563      603.2440      604.7002     324.282533       4.05700
  29     18.79      280.6932        1.8037      601.6511      603.4548     322.761620       3.44838
  28     23.16      280.9738        2.2072      599.9927      602.1999     321.226106       2.96919
  27     28.12      281.2463        2.6662      598.2881      600.9542     319.707975       2.58072
  26     33.73      281.4803        3.1776      596.5951      599.7727     318.292407       2.12834
  25     40.54      281.6805        3.7931      594.7727      598.5658     316.885346       1.74562
  24     48.69      281.8417        4.5312      592.7865      597.3177     315.475958       1.45850
  23     57.69      281.9412        5.3375      590.7959      596.1334     314.192163       1.20336
  22     68.43      281.9755        6.2921      588.6191      594.9112     312.935673       0.98777
  21     81.20      281.8992        7.4230      586.2690      593.6920     311.792831       0.75517
  20     96.49      281.6996        8.7609      583.6961      592.4570     310.757420       0.57147
  19     114.6      281.4180       10.3331      580.7708      591.1039     309.685854       0.50035
  18     136.5      281.0492       12.1717      577.4359      589.6076     308.558358       0.43355
  17     162.9      280.5803       14.3261      573.5624      587.8886     307.308316       0.39956
  16     196.4      279.9031       17.0687      568.5907      585.6594     305.756289       0.39066
  15     218.7      279.4356       18.8389      565.0572      583.8961     304.460490       0.49197
  14     243.0      278.9199       20.7348      560.7495      581.4843     302.564380       0.65763
  13     269.0      278.3545       22.7571      555.3947      578.1518     299.797247       0.89765
  12     297.5      277.7398       24.9056      548.9964      573.9020     296.162227       1.07811
  11     328.5      277.0800       27.1856      542.0895      569.2751     292.195102       1.07865
  10     361.9      276.3771       29.5924      534.6242      564.2166     287.839526       1.10200
   9     398.1      275.6321       32.1293      526.4204      558.5498     282.917702       1.14667
   8     437.6      274.8508       34.7939      517.3907      552.1846     277.333791       1.19388
   7     480.5      274.0384       37.5831      507.7216      545.3046     271.266250       1.19164
   6     533.0      273.0835       40.9255      495.9006      536.8262     263.742623       1.21031
   5     589.8      272.1331       44.4196      483.0788      527.4984     255.365274       1.24347
   4     651.6      271.2646       48.0507      468.6907      516.7414     245.476746       1.35228
   3     718.7      270.5692       51.8090      453.2257      505.0347     234.465535       1.38380
   2     792.3      270.2812       55.6715      436.4928      492.1643     221.883107       1.44306
   1     891.5      241.1640      113.9671      332.1022      446.0693     204.905288       1.44473
   0    1013.0      242.3920      116.4593      311.6261      428.0854     185.693437       1.33398



 Wavenumbers:  2600. -  3250. cm-1, ATM      1
 LEVEL PRESSURE   UPWARD FLUX   DIFDOWN FLUX  DIRDOWN FLUX  DOWNWARD FLUX   NET FLUX    HEATING RATE
          mb          W/m2          W/m2          W/m2        W/m2          W/m2       degree/day
  51    .06700        0.5546        0.0000        5.4450        5.4450       4.890421       0.00000
  50    .07753        0.5546        0.0000        5.4450        5.4450       4.890413       0.00640
  49    .09103        0.5546        0.0000        5.4450        5.4450       4.890403       0.00627
  48    0.1069        0.5546        0.0000        5.4450        5.4450       4.890392       0.00613
  47    0.1255        0.5546        0.0000        5.4450        5.4450       4.890378       0.00599
  46    0.1487        0.5546        0.0000        5.4450        5.4450       4.890362       0.00608
  45    0.1794        0.5546        0.0000        5.4450        5.4450       4.890339       0.00625
  44    0.2165        0.5546        0.0000        5.4449        5.4449       4.890312       0.00612
  43    0.2613        0.5546        0.0000        5.4449        5.4449       4.890280       0.00600
  42    0.3336        0.5546        0.0000        5.4448        5.4448       4.890227       0.00617
  41    0.4307        0.5546        0.0000        5.4448        5.4448       4.890156       0.00620
  40    0.5894        0.5546        0.0000        5.4446        5.4446       4.890036       0.00637
  39     1.339        0.5546        0.0000        5.4439        5.4439       4.889329       0.00797
  38     1.782        0.5546        0.0000        5.4434        5.4434       4.888786       0.01034
  37     2.292        0.5546        0.0000        5.4427        5.4427       4.888070       0.01186
  36     2.964        0.5546        0.0000        5.4416        5.4416       4.887031       0.01304
  35     3.853        0.5546        0.0000        5.4402        5.4402       4.885554       0.01402
  34     5.035        0.5546        0.0000        5.4381        5.4381       4.883498       0.01468
  33     6.613        0.5546        0.0000        5.4353        5.4353       4.880717       0.01487
  32     8.786        0.5546        0.0000        5.4317        5.4317       4.877085       0.01411
  31     11.80        0.5546        0.0000        5.4269        5.4269       4.872305       0.01338
  30     15.07        0.5546        0.0000        5.4224        5.4224       4.867778       0.01169
  29     18.79        0.5546        0.0000        5.4180        5.4180       4.863366       0.01000
  28     23.16        0.5546        0.0000        5.4135        5.4135       4.858879       0.00868
  27     28.12        0.5546        0.0000        5.4088        5.4088       4.854231       0.00790
  26     33.73        0.5546        0.0000        5.4036        5.4036       4.848989       0.00788
  25     40.54        0.5546        0.0000        5.3966        5.3967       4.842046       0.00861
  24     48.69        0.5546        0.0000        5.3872        5.3872       4.832566       0.00981
  23     57.69        0.5546        0.0000        5.3754        5.3754       4.820778       0.01105
  22     68.43        0.5546        0.0000        5.3599        5.3599       4.805284       0.01218
  21     81.20        0.5546        0.0000        5.3401        5.3401       4.785442       0.01311
  20     96.49        0.5547        0.0000        5.3155        5.3155       4.760863       0.01357
  19     114.6        0.5547        0.0000        5.2853        5.2853       4.730648       0.01411
  18     136.5        0.5547        0.0001        5.2504        5.2505       4.695715       0.01343
  17     162.9        0.5548        0.0001        5.2111        5.2111       4.656334       0.01259
  16     196.4        0.5549        0.0001        5.1640        5.1641       4.609175       0.01187
  15     218.7        0.5551        0.0001        5.1331        5.1332       4.578131       0.01179
  14     243.0        0.5553        0.0001        5.0962        5.0963       4.541033       0.01287
  13     269.0        0.5556        0.0001        5.0511        5.0512       4.495583       0.01474
  12     297.5        0.5561        0.0001        4.9956        4.9957       4.439599       0.01660
  11     328.5        0.5568        0.0001        4.9304        4.9305       4.373669       0.01793
  10     361.9        0.5578        0.0001        4.8511        4.8512       4.293439       0.02030
   9     398.1        0.5591        0.0001        4.7507        4.7508       4.191707       0.02370
   8     437.6        0.5609        0.0002        4.6220        4.6222       4.061246       0.02789
   7     480.5        0.5634        0.0002        4.4625        4.4626       3.899198       0.03183
   6     533.0        0.5675        0.0002        4.2460        4.2462       3.678741       0.03546
   5     589.8        0.5735        0.0002        3.9954        3.9956       3.422049       0.03810
   4     651.6        0.5834        0.0002        3.7089        3.7090       3.125686       0.04053
   3     718.7        0.5991        0.0002        3.4018        3.4020       2.802874       0.04057
   2     792.3        0.6266        0.0002        3.0564        3.0566       2.430058       0.04276
   1     891.5        0.4202        0.2831        2.0723        2.3553       1.935167       0.04211
   0    1013.0        0.4853        0.2340        1.6725        1.9065       1.421175       0.03569



 Wavenumbers:  3250. -  4000. cm-1, ATM      1
 LEVEL PRESSURE   UPWARD FLUX   DIFDOWN FLUX  DIRDOWN FLUX  DOWNWARD FLUX   NET FLUX    HEATING RATE
          mb          W/m2          W/m2          W/m2        W/m2          W/m2       degree/day
  51    .06700        0.0056        0.0000        9.1795        9.1795       9.173939       0.00000
  50    .07753        0.0056        0.0000        9.1747        9.1747       9.169097       3.88148
  49    .09103        0.0056        0.0000        9.1713        9.1713       9.165709       2.11747
  48    0.1069        0.0056        0.0000        9.1688        9.1688       9.163184       1.34402
  47    0.1255        0.0056        0.0000        9.1665        9.1665       9.160925       1.02422
  46    0.1487        0.0056        0.0000        9.1641        9.1641       9.158483       0.88991
  45    0.1794        0.0056        0.0000        9.1612        9.1612       9.155605       0.79008
  44    0.2165        0.0056        0.0000        9.1583        9.1583       9.152685       0.66430
  43    0.2613        0.0056        0.0000        9.1553        9.1553       9.149712       0.56041
  42    0.3336        0.0056        0.0000        9.1511        9.1511       9.145533       0.48723
  41    0.4307        0.0056        0.0000        9.1464        9.1464       9.140765       0.41459
  40    0.5894        0.0056        0.0000        9.1393        9.1394       9.133759       0.37255
  39     1.339        0.0056        0.0000        9.1127        9.1127       9.107146       0.29962
  38     1.782        0.0056        0.0000        9.1011        9.1011       9.095557       0.22062
  37     2.292        0.0056        0.0000        9.0901        9.0901       9.084491       0.18329
  36     2.964        0.0056        0.0000        9.0776        9.0776       9.072061       0.15603
  35     3.853        0.0056        0.0000        9.0629        9.0629       9.057271       0.14036
  34     5.035        0.0056        0.0000        9.0441        9.0441       9.038532       0.13386
  33     6.613        0.0056        0.0000        9.0191        9.0191       9.013530       0.13366
  32     8.786        0.0056        0.0000        8.9843        8.9843       8.978747       0.13509
  31     11.80        0.0056        0.0000        8.9327        8.9327       8.927130       0.14451
  30     15.07        0.0056        0.0000        8.8758        8.8759       8.870285       0.14676
  29     18.79        0.0056        0.0000        8.8110        8.8110       8.805458       0.14698
  28     23.16        0.0056        0.0000        8.7365        8.7366       8.731013       0.14395
  27     28.12        0.0056        0.0000        8.6554        8.6555       8.649900       0.13789
  26     33.73        0.0055        0.0000        8.5719        8.5719       8.566401       0.12554
  25     40.54        0.0055        0.0001        8.4812        8.4812       8.475677       0.11255
  24     48.69        0.0055        0.0001        8.3838        8.3839       8.378376       0.10069
  23     57.69        0.0055        0.0001        8.2861        8.2862       8.280640       0.09161
  22     68.43        0.0055        0.0001        8.1751        8.1751       8.169644       0.08726
  21     81.20        0.0055        0.0001        8.0457        8.0458       8.040286       0.08548
  20     96.49        0.0055        0.0001        7.8949        7.8950       7.889582       0.08318
  19     114.6        0.0054        0.0001        7.7162        7.7163       7.710873       0.08344
  18     136.5        0.0054        0.0002        7.5193        7.5194       7.514029       0.07569
  17     162.9        0.0054        0.0002        7.2913        7.2915       7.286138       0.07284
  16     196.4        0.0054        0.0002        6.9660        6.9662       6.960865       0.08188
  15     218.7        0.0053        0.0002        6.6648        6.6650       6.659675       0.11435
  14     243.0        0.0053        0.0002        6.2619        6.2622       6.256879       0.13970
  13     269.0        0.0053        0.0003        5.7576        5.7579       5.752574       0.16359
  12     297.5        0.0053        0.0003        5.1719        5.1722       5.166873       0.17371
  11     328.5        0.0053        0.0002        4.5757        4.5760       4.570694       0.16210
  10     361.9        0.0053        0.0002        3.9995        3.9998       3.994486       0.14579
   9     398.1        0.0053        0.0002        3.4655        3.4657       3.460378       0.12444
   8     437.6        0.0054        0.0002        2.9740        2.9742       2.968843       0.10509
   7     480.5        0.0055        0.0002        2.5307        2.5309       2.525329       0.08710
   6     533.0        0.0058        0.0002        2.0614        2.0616       2.055761       0.07554
   5     589.8        0.0063        0.0002        1.6150        1.6151       1.608833       0.06634
   4     651.6        0.0073        0.0001        1.1565        1.1566       1.149247       0.06285
   3     718.7        0.0096        0.0001        0.7390        0.7391       0.729453       0.05276
   2     792.3        0.0158        0.0001        0.3985        0.3985       0.382714       0.03977
   1     891.5        0.0008        0.0118        0.0914        0.1032       0.102379       0.02386
   0    1013.0        0.0074        0.0012        0.0075        0.0087       0.001303       0.00702



 Wavenumbers:  4000. -  4650. cm-1, ATM      1
 LEVEL PRESSURE   UPWARD FLUX   DIFDOWN FLUX  DIRDOWN FLUX  DOWNWARD FLUX   NET FLUX    HEATING RATE
          mb          W/m2          W/m2          W/m2        W/m2          W/m2       degree/day
  51    .06700        1.6327        0.0000       10.7795       10.7795       9.146839       0.00000
  50    .07753        1.6327        0.0000       10.7795       10.7795       9.146838       0.00080
  49    .09103        1.6327        0.0000       10.7795       10.7795       9.146836       0.00078
  48    0.1069        1.6327        0.0000       10.7795       10.7795       9.146835       0.00076
  47    0.1255        1.6327        0.0000       10.7795       10.7795       9.146833       0.00075
  46    0.1487        1.6327        0.0000       10.7795       10.7795       9.146831       0.00076
  45    0.1794        1.6327        0.0000       10.7795       10.7795       9.146828       0.00078
  44    0.2165        1.6327        0.0000       10.7795       10.7795       9.146825       0.00076
  43    0.2613        1.6327        0.0000       10.7795       10.7795       9.146821       0.00075
  42    0.3336        1.6327        0.0000       10.7795       10.7795       9.146815       0.00077
  41    0.4307        1.6327        0.0000       10.7795       10.7795       9.146806       0.00077
  40    0.5894        1.6327        0.0000       10.7795       10.7795       9.146791       0.00080
  39     1.339        1.6327        0.0000       10.7794       10.7794       9.146701       0.00101
  38     1.782        1.6327        0.0000       10.7793       10.7793       9.146632       0.00133
  37     2.292        1.6327        0.0000       10.7792       10.7792       9.146538       0.00156
  36     2.964        1.6327        0.0000       10.7791       10.7791       9.146397       0.00176
  35     3.853        1.6327        0.0000       10.7789       10.7789       9.146189       0.00197
  34     5.035        1.6327        0.0000       10.7786       10.7786       9.145883       0.00219
  33     6.613        1.6327        0.0000       10.7781       10.7781       9.145431       0.00241
  32     8.786        1.6327        0.0000       10.7774       10.7774       9.144765       0.00259
  31     11.80        1.6327        0.0000       10.7763       10.7764       9.143718       0.00293
  30     15.07        1.6327        0.0001       10.7751       10.7752       9.142491       0.00317
  29     18.79        1.6327        0.0001       10.7736       10.7737       9.141007       0.00336
  28     23.16        1.6326        0.0001       10.7717       10.7718       9.139165       0.00356
  27     28.12        1.6326        0.0001       10.7695       10.7696       9.136937       0.00379
  26     33.73        1.6326        0.0001       10.7667       10.7668       9.134190       0.00413
  25     40.54        1.6326        0.0002       10.7629       10.7631       9.130467       0.00462
  24     48.69        1.6326        0.0002       10.7579       10.7581       9.125508       0.00513
  23     57.69        1.6326        0.0002       10.7520       10.7522       9.119635       0.00551
  22     68.43        1.6326        0.0003       10.7446       10.7449       9.112281       0.00578
  21     81.20        1.6326        0.0003       10.7355       10.7358       9.103235       0.00598
  20     96.49        1.6326        0.0004       10.7245       10.7248       9.092242       0.00607
  19     114.6        1.6326        0.0004       10.7107       10.7112       9.078517       0.00641
  18     136.5        1.6327        0.0005       10.6942       10.6947       9.062010       0.00635
  17     162.9        1.6328        0.0006       10.6740       10.6746       9.041820       0.00645
  16     196.4        1.6330        0.0008       10.6464       10.6471       9.014062       0.00699
  15     218.7        1.6333        0.0008       10.6255       10.6263       8.993012       0.00799
  14     243.0        1.6336        0.0009       10.5980       10.5990       8.965332       0.00960
  13     269.0        1.6342        0.0010       10.5611       10.5621       8.927895       0.01214
  12     297.5        1.6351        0.0011       10.5119       10.5131       8.877980       0.01480
  11     328.5        1.6363        0.0012       10.4499       10.4511       8.814799       0.01718
  10     361.9        1.6379        0.0014       10.3702       10.3715       8.733597       0.02054
   9     398.1        1.6400        0.0015       10.2678       10.2693       8.629277       0.02430
   8     437.6        1.6426        0.0016       10.1390       10.1406       8.498019       0.02806
   7     480.5        1.6459        0.0017        9.9877        9.9894       8.343559       0.03034
   6     533.0        1.6509        0.0019        9.7937        9.7956       8.144667       0.03200
   5     589.8        1.6581        0.0021        9.5752        9.5772       7.919129       0.03348
   4     651.6        1.6694        0.0022        9.2958        9.2980       7.628594       0.03973
   3     718.7        1.6879        0.0024        8.9267        8.9291       7.241201       0.04868
   2     792.3        1.7208        0.0025        8.4542        8.4567       6.735870       0.05796
   1     891.5        1.0402        0.8432        6.2533        7.0966       6.056338       0.05782
   0    1013.0        1.1085        0.7737        5.6771        6.4508       5.342256       0.04958



 Wavenumbers:  4650. -  5150. cm-1, ATM      1
 LEVEL PRESSURE   UPWARD FLUX   DIFDOWN FLUX  DIRDOWN FLUX  DOWNWARD FLUX   NET FLUX    HEATING RATE
          mb          W/m2          W/m2          W/m2        W/m2          W/m2       degree/day
  51    .06700        1.1818        0.0000       10.2033       10.2033       9.021578       0.00000
  50    .07753        1.1818        0.0000       10.2031       10.2031       9.021342       0.18901
  49    .09103        1.1818        0.0000       10.2028       10.2028       9.021048       0.18428
  48    0.1069        1.1818        0.0000       10.2025       10.2025       9.020711       0.17931
  47    0.1255        1.1818        0.0000       10.2021       10.2021       9.020326       0.17426
  46    0.1487        1.1818        0.0000       10.2016       10.2016       9.019845       0.17536
  45    0.1794        1.1818        0.0000       10.2010       10.2010       9.019195       0.17850
  44    0.2165        1.1818        0.0000       10.2002       10.2002       9.018436       0.17277
  43    0.2613        1.1818        0.0000       10.1993       10.1993       9.017550       0.16690
  42    0.3336        1.1818        0.0000       10.1979       10.1979       9.016118       0.16702
  41    0.4307        1.1818        0.0000       10.1960       10.1960       9.014277       0.16002
  40    0.5894        1.1818        0.0000       10.1932       10.1932       9.011403       0.15283
  39     1.339        1.1818        0.0000       10.1816       10.1816       8.999812       0.13050
  38     1.782        1.1818        0.0000       10.1760       10.1760       8.994283       0.10526
  37     2.292        1.1818        0.0000       10.1706       10.1706       8.988827       0.09037
  36     2.964        1.1818        0.0000       10.1646       10.1647       8.982905       0.07435
  35     3.853        1.1817        0.0000       10.1584       10.1584       8.976691       0.05897
  34     5.035        1.1817        0.0000       10.1521       10.1521       8.970356       0.04525
  33     6.613        1.1817        0.0000       10.1456       10.1456       8.963901       0.03451
  32     8.786        1.1817        0.0001       10.1386       10.1386       8.956893       0.02722
  31     11.80        1.1817        0.0001       10.1295       10.1296       8.947858       0.02530
  30     15.07        1.1817        0.0001       10.1196       10.1197       8.937985       0.02549
  29     18.79        1.1817        0.0001       10.1076       10.1077       8.925987       0.02721
  28     23.16        1.1817        0.0001       10.0923       10.0924       8.910694       0.02957
  27     28.12        1.1817        0.0002       10.0731       10.0733       8.891614       0.03243
  26     33.73        1.1817        0.0002       10.0500       10.0502       8.868539       0.03469
  25     40.54        1.1817        0.0002       10.0201       10.0204       8.838662       0.03707
  24     48.69        1.1817        0.0003        9.9820        9.9822       8.800526       0.03946
  23     57.69        1.1817        0.0003        9.9384        9.9388       8.757031       0.04077
  22     68.43        1.1818        0.0004        9.8858        9.8861       8.704357       0.04141
  21     81.20        1.1819        0.0005        9.8234        9.8239       8.642045       0.04118
  20     96.49        1.1820        0.0005        9.7518        9.7523       8.570331       0.03958
  19     114.6        1.1822        0.0006        9.6719        9.6726       8.490418       0.03731
  18     136.5        1.1824        0.0008        9.5858        9.5866       8.404162       0.03317
  17     162.9        1.1828        0.0009        9.4940        9.4949       8.312177       0.02940
  16     196.4        1.1834        0.0011        9.3883        9.3894       8.205995       0.02673
  15     218.7        1.1838        0.0012        9.3229        9.3241       8.140265       0.02496
  14     243.0        1.1845        0.0013        9.2520        9.2533       8.068794       0.02479
  13     269.0        1.1854        0.0014        9.1717        9.1731       7.987703       0.02631
  12     297.5        1.1867        0.0016        9.0763        9.0779       7.891153       0.02864
  11     328.5        1.1884        0.0017        8.9650        8.9667       7.778256       0.03070
  10     361.9        1.1907        0.0019        8.8349        8.8368       7.646096       0.03344
   9     398.1        1.1937        0.0020        8.6820        8.6841       7.490392       0.03628
   8     437.6        1.1975        0.0022        8.5028        8.5050       7.307462       0.03911
   7     480.5        1.2026        0.0024        8.2948        8.2972       7.094577       0.04181
   6     533.0        1.2103        0.0025        8.0209        8.0234       6.813100       0.04528
   5     589.8        1.2211        0.0027        7.7063        7.7091       6.487953       0.04826
   4     651.6        1.2370        0.0029        7.3412        7.3441       6.107115       0.05208
   3     718.7        1.2608        0.0030        6.9387        6.9417       5.680841       0.05357
   2     792.3        1.2982        0.0031        6.5066        6.5097       5.211538       0.05382
   1     891.5        0.7889        0.6421        4.7628        5.4049       4.616027       0.05068
   0    1013.0        0.8549        0.5810        4.2544        4.8355       3.980596       0.04412



 Wavenumbers:  5150. -  6150. cm-1, ATM      1
 LEVEL PRESSURE   UPWARD FLUX   DIFDOWN FLUX  DIRDOWN FLUX  DOWNWARD FLUX   NET FLUX    HEATING RATE
          mb          W/m2          W/m2          W/m2        W/m2          W/m2       degree/day
  51    .06700        2.9821        0.0000       25.5798       25.5798      22.597681       0.00000
  50    .07753        2.9821        0.0000       25.5798       25.5798      22.597641       0.03157
  49    .09103        2.9821        0.0000       25.5797       25.5797      22.597590       0.03205
  48    0.1069        2.9821        0.0000       25.5797       25.5797      22.597529       0.03256
  47    0.1255        2.9821        0.0000       25.5796       25.5796      22.597456       0.03306
  46    0.1487        2.9821        0.0000       25.5795       25.5795      22.597360       0.03484
  45    0.1794        2.9821        0.0000       25.5794       25.5794      22.597225       0.03708
  44    0.2165        2.9821        0.0000       25.5792       25.5792      22.597060       0.03764
  43    0.2613        2.9821        0.0000       25.5790       25.5790      22.596857       0.03822
  42    0.3336        2.9821        0.0000       25.5786       25.5786      22.596511       0.04038
  41    0.4307        2.9821        0.0000       25.5782       25.5782      22.596040       0.04092
  40    0.5894        2.9821        0.0000       25.5774       25.5774      22.595252       0.04193
  39     1.339        2.9821        0.0000       25.5735       25.5736      22.591453       0.04276
  38     1.782        2.9821        0.0000       25.5713       25.5713      22.589243       0.04209
  37     2.292        2.9821        0.0001       25.5688       25.5688      22.586741       0.04143
  36     2.964        2.9821        0.0001       25.5656       25.5656      22.583564       0.03989
  35     3.853        2.9821        0.0001       25.5615       25.5616      22.579526       0.03832
  34     5.035        2.9820        0.0001       25.5562       25.5564      22.574328       0.03713
  33     6.613        2.9820        0.0002       25.5494       25.5496      22.567586       0.03604
  32     8.786        2.9820        0.0002       25.5406       25.5408      22.558852       0.03392
  31     11.80        2.9819        0.0003       25.5287       25.5290      22.547043       0.03306
  30     15.07        2.9819        0.0004       25.5167       25.5171      22.535207       0.03056
  29     18.79        2.9818        0.0005       25.5042       25.5047      22.522839       0.02804
  28     23.16        2.9818        0.0006       25.4907       25.4913      22.509523       0.02575
  27     28.12        2.9817        0.0008       25.4764       25.4772      22.495490       0.02385
  26     33.73        2.9816        0.0009       25.4620       25.4629      22.481284       0.02136
  25     40.54        2.9816        0.0011       25.4463       25.4473      22.465770       0.01925
  24     48.69        2.9815        0.0013       25.4294       25.4307      22.449184       0.01716
  23     57.69        2.9814        0.0015       25.4126       25.4141      22.432745       0.01541
  22     68.43        2.9813        0.0018       25.3944       25.3962      22.414925       0.01401
  21     81.20        2.9812        0.0022       25.3744       25.3766      22.395346       0.01294
  20     96.49        2.9811        0.0026       25.3519       25.3545      22.373370       0.01213
  19     114.6        2.9810        0.0030       25.3262       25.3292      22.348192       0.01176
  18     136.5        2.9809        0.0036       25.2962       25.2998      22.318905       0.01126
  17     162.9        2.9808        0.0043       25.2521       25.2564      22.275615       0.01384
  16     196.4        2.9806        0.0052       25.1593       25.1645      22.183818       0.02311
  15     218.7        2.9806        0.0057       25.0159       25.0216      22.041068       0.05420
  14     243.0        2.9806        0.0063       24.7089       24.7152      21.734636       0.10628
  13     269.0        2.9806        0.0068       24.1619       24.1687      21.188055       0.17731
  12     297.5        2.9808        0.0074       23.4544       23.4617      20.480905       0.20973
  11     328.5        2.9812        0.0079       22.7355       22.7434      19.762151       0.19543
  10     361.9        2.9818        0.0084       21.9224       21.9309      18.949040       0.20573
   9     398.1        2.9827        0.0089       20.9939       21.0028      18.020104       0.21642
   8     437.6        2.9841        0.0094       19.9833       19.9927      17.008573       0.21627
   7     480.5        2.9862        0.0098       18.9483       18.9581      15.971911       0.20360
   6     533.0        2.9898        0.0103       17.7796       17.7899      14.800038       0.18852
   5     589.8        2.9959        0.0107       16.6726       16.6833      13.687415       0.16515
   4     651.6        3.0072        0.0112       15.6343       15.6455      12.638347       0.14346
   3     718.7        3.0277        0.0117       14.7738       14.7855      11.757797       0.11066
   2     792.3        3.0679        0.0123       14.0291       14.0414      10.973544       0.08995
   1     891.5        1.9212        1.4362       10.4952       11.9314      10.010120       0.08198
   0    1013.0        2.0058        1.3362        9.6579       10.9941       8.988280       0.07095



 Wavenumbers:  6150. -  7700. cm-1, ATM      1
 LEVEL PRESSURE   UPWARD FLUX   DIFDOWN FLUX  DIRDOWN FLUX  DOWNWARD FLUX   NET FLUX    HEATING RATE
          mb          W/m2          W/m2          W/m2        W/m2          W/m2       degree/day
  51    .06700        4.6125        0.0000       47.3109       47.3109      42.698363       0.00000
  50    .07753        4.6125        0.0000       47.3108       47.3108      42.698306       0.04553
  49    .09103        4.6125        0.0000       47.3107       47.3107      42.698232       0.04583
  48    0.1069        4.6125        0.0000       47.3106       47.3106      42.698146       0.04614
  47    0.1255        4.6125        0.0000       47.3105       47.3105      42.698043       0.04645
  46    0.1487        4.6125        0.0000       47.3104       47.3104      42.697910       0.04852
  45    0.1794        4.6125        0.0000       47.3102       47.3102      42.697723       0.05127
  44    0.2165        4.6125        0.0000       47.3100       47.3100      42.697496       0.05167
  43    0.2613        4.6125        0.0000       47.3097       47.3097      42.697220       0.05210
  42    0.3336        4.6125        0.0000       47.3092       47.3092      42.696751       0.05471
  41    0.4307        4.6125        0.0000       47.3085       47.3086      42.696116       0.05521
  40    0.5894        4.6124        0.0001       47.3074       47.3075      42.695056       0.05633
  39     1.339        4.6124        0.0001       47.3022       47.3023      42.689964       0.05733
  38     1.782        4.6123        0.0002       47.2991       47.2993      42.686994       0.05655
  37     2.292        4.6123        0.0003       47.2956       47.2959      42.683618       0.05591
  36     2.964        4.6122        0.0003       47.2912       47.2915      42.679300       0.05421
  35     3.853        4.6121        0.0004       47.2855       47.2859      42.673766       0.05252
  34     5.035        4.6120        0.0006       47.2780       47.2786      42.666585       0.05129
  33     6.613        4.6119        0.0007       47.2683       47.2691      42.657198       0.05019
  32     8.786        4.6117        0.0010       47.2556       47.2566      42.644898       0.04777
  31     11.80        4.6114        0.0013       47.2380       47.2394      42.627995       0.04732
  30     15.07        4.6110        0.0017       47.2201       47.2217      42.610709       0.04463
  29     18.79        4.6107        0.0021       47.2008       47.2029      42.592230       0.04190
  28     23.16        4.6103        0.0026       47.1795       47.1821      42.571841       0.03943
  27     28.12        4.6098        0.0031       47.1565       47.1596      42.549849       0.03738
  26     33.73        4.6092        0.0038       47.1324       47.1362      42.526930       0.03446
  25     40.54        4.6086        0.0045       47.1054       47.1099      42.501296       0.03180
  24     48.69        4.6078        0.0054       47.0754       47.0808      42.473047       0.02923
  23     57.69        4.6069        0.0064       47.0449       47.0514      42.444430       0.02682
  22     68.43        4.6059        0.0076       47.0110       47.0186      42.412700       0.02494
  21     81.20        4.6047        0.0090       46.9729       46.9819      42.377216       0.02345
  20     96.49        4.6032        0.0107       46.9294       46.9401      42.336889       0.02226
  19     114.6        4.6014        0.0127       46.8790       46.8917      42.290276       0.02176
  18     136.5        4.5994        0.0151       46.8200       46.8351      42.235683       0.02099
  17     162.9        4.5969        0.0179       46.7361       46.7540      42.157117       0.02511
  16     196.4        4.5938        0.0216       46.5703       46.5918      41.998060       0.04004
  15     218.7        4.5917        0.0239       46.3473       46.3712      41.779475       0.08299
  14     243.0        4.5896        0.0263       45.9299       45.9562      41.366596       0.14320
  13     269.0        4.5875        0.0288       45.1708       45.1995      40.612033       0.24478
  12     297.5        4.5856        0.0311       44.0115       44.0426      39.456983       0.34258
  11     328.5        4.5839        0.0334       42.7242       42.7577      38.173768       0.34890
  10     361.9        4.5826        0.0358       41.3539       41.3897      36.807100       0.34578
   9     398.1        4.5820        0.0380       39.7953       39.8333      35.251244       0.36248
   8     437.6        4.5827        0.0401       37.9948       38.0348      33.452158       0.38466
   7     480.5        4.5850        0.0419       36.0647       36.1066      31.521582       0.37916
   6     533.0        4.5913        0.0438       33.7773       33.8211      29.229824       0.36867
   5     589.8        4.6042        0.0454       31.4082       31.4536      26.849425       0.35333
   4     651.6        4.6314        0.0465       28.8834       28.9299      24.298492       0.34885
   3     718.7        4.6846        0.0473       26.4104       26.4577      21.773116       0.31737
   2     792.3        4.7941        0.0479       24.0056       24.0535      19.259347       0.28830
   1     891.5        2.9331        2.3440       17.0359       19.3798      16.446714       0.23934
   0    1013.0        3.1554        2.0901       14.9344       17.0245      13.869072       0.17898



 Wavenumbers:  7700. -  8050. cm-1, ATM      1
 LEVEL PRESSURE   UPWARD FLUX   DIFDOWN FLUX  DIRDOWN FLUX  DOWNWARD FLUX   NET FLUX    HEATING RATE
          mb          W/m2          W/m2          W/m2        W/m2          W/m2       degree/day
  51    .06700        2.3812        0.0000       11.1810       11.1810       8.799748       0.00000
  50    .07753        2.3812        0.0000       11.1809       11.1809       8.799728       0.01550
  49    .09103        2.3812        0.0000       11.1809       11.1809       8.799704       0.01520
  48    0.1069        2.3812        0.0000       11.1809       11.1809       8.799676       0.01488
  47    0.1255        2.3812        0.0000       11.1809       11.1809       8.799644       0.01456
  46    0.1487        2.3812        0.0000       11.1808       11.1808       8.799603       0.01477
  45    0.1794        2.3812        0.0000       11.1808       11.1808       8.799548       0.01520
  44    0.2165        2.3812        0.0000       11.1807       11.1807       8.799482       0.01491
  43    0.2613        2.3812        0.0000       11.1806       11.1806       8.799405       0.01463
  42    0.3336        2.3812        0.0000       11.1805       11.1805       8.799276       0.01497
  41    0.4307        2.3813        0.0000       11.1803       11.1804       8.799106       0.01481
  40    0.5894        2.3813        0.0000       11.1801       11.1801       8.798828       0.01479
  39     1.339        2.3814        0.0001       11.1788       11.1789       8.797512       0.01481
  38     1.782        2.3814        0.0001       11.1781       11.1781       8.796740       0.01471
  37     2.292        2.3815        0.0001       11.1772       11.1773       8.795845       0.01481
  36     2.964        2.3815        0.0001       11.1761       11.1762       8.794671       0.01474
  35     3.853        2.3816        0.0002       11.1746       11.1748       8.793120       0.01472
  34     5.035        2.3818        0.0002       11.1726       11.1728       8.791060       0.01472
  33     6.613        2.3820        0.0003       11.1700       11.1703       8.788309       0.01471
  32     8.786        2.3822        0.0004       11.1664       11.1668       8.784604       0.01439
  31     11.80        2.3825        0.0005       11.1613       11.1618       8.779309       0.01482
  30     15.07        2.3829        0.0007       11.1558       11.1565       8.773632       0.01466
  29     18.79        2.3833        0.0009       11.1497       11.1506       8.767228       0.01452
  28     23.16        2.3838        0.0011       11.1425       11.1436       8.759762       0.01444
  27     28.12        2.3844        0.0013       11.1343       11.1356       8.751242       0.01448
  26     33.73        2.3850        0.0016       11.1252       11.1267       8.741734       0.01430
  25     40.54        2.3858        0.0019       11.1142       11.1161       8.730283       0.01421
  24     48.69        2.3867        0.0022       11.1010       11.1033       8.716532       0.01423
  23     57.69        2.3878        0.0027       11.0866       11.0893       8.701497       0.01409
  22     68.43        2.3890        0.0031       11.0695       11.0727       8.683686       0.01400
  21     81.20        2.3905        0.0037       11.0494       11.0531       8.662603       0.01393
  20     96.49        2.3923        0.0044       11.0255       11.0300       8.637675       0.01376
  19     114.6        2.3944        0.0052       10.9975       11.0028       8.608346       0.01369
  18     136.5        2.3970        0.0062       10.9648       10.9710       8.573953       0.01323
  17     162.9        2.4002        0.0074       10.9263       10.9337       8.533497       0.01293
  16     196.4        2.4043        0.0089       10.8773       10.8861       8.481802       0.01301
  15     218.7        2.4071        0.0099       10.8455       10.8554       8.448276       0.01273
  14     243.0        2.4102        0.0109       10.8114       10.8224       8.412159       0.01253
  13     269.0        2.4136        0.0121       10.7749       10.7869       8.373327       0.01260
  12     297.5        2.4174        0.0133       10.7357       10.7490       8.331612       0.01237
  11     328.5        2.4216        0.0147       10.6937       10.7084       8.286772       0.01219
  10     361.9        2.4263        0.0161       10.6489       10.6650       8.238643       0.01218
   9     398.1        2.4316        0.0176       10.6008       10.6184       8.186840       0.01207
   8     437.6        2.4375        0.0193       10.5491       10.5684       8.130885       0.01196
   7     480.5        2.4442        0.0211       10.4934       10.5145       8.070329       0.01189
   6     533.0        2.4530        0.0232       10.4243       10.4475       7.994557       0.01219
   5     589.8        2.4633        0.0256       10.3479       10.3735       7.910141       0.01253
   4     651.6        2.4759        0.0280       10.2613       10.2894       7.813496       0.01322
   3     718.7        2.4915        0.0307       10.1618       10.1924       7.700919       0.01415
   2     792.3        2.5116        0.0335       10.0439       10.0774       7.565704       0.01551
   1     891.5        1.6652        1.1228        7.9120        9.0348       7.369628       0.01669
   0    1013.0        1.6985        1.1013        7.7096        8.8109       7.112410       0.01786



 Wavenumbers:  8050. - 12850. cm-1, ATM      1
 LEVEL PRESSURE   UPWARD FLUX   DIFDOWN FLUX  DIRDOWN FLUX  DOWNWARD FLUX   NET FLUX    HEATING RATE
          mb          W/m2          W/m2          W/m2        W/m2          W/m2       degree/day
  51    .06700       39.3160        0.0000      156.5418      156.5418     117.225708       0.00000
  50    .07753       39.3160        0.0000      156.5417      156.5417     117.225708      -0.00000
  49    .09103       39.3160        0.0001      156.5417      156.5417     117.225708       0.00000
  48    0.1069       39.3160        0.0001      156.5416      156.5417     117.225708       0.00000
  47    0.1255       39.3159        0.0001      156.5415      156.5417     117.225708      -0.00000
  46    0.1487       39.3159        0.0002      156.5414      156.5416     117.225708      -0.00000
  45    0.1794       39.3159        0.0003      156.5413      156.5416     117.225708       0.00000
  44    0.2165       39.3158        0.0004      156.5412      156.5415     117.225708       0.00000
  43    0.2613       39.3157        0.0005      156.5410      156.5414     117.225708      -0.00000
  42    0.3336       39.3156        0.0006      156.5407      156.5413     117.225708       0.00000
  41    0.4307       39.3155        0.0009      156.5403      156.5412     117.225708      -0.00000
  40    0.5894       39.3152        0.0012      156.5397      156.5409     117.225708       0.00000
  39     1.339       39.3140        0.0030      156.5367      156.5397     117.225708       0.00000
  38     1.782       39.3133        0.0040      156.5350      156.5390     117.225708      -0.00000
  37     2.292       39.3125        0.0052      156.5330      156.5382     117.225708       0.00000
  36     2.964       39.3114        0.0068      156.5303      156.5371     117.225708       0.00000
  35     3.853       39.3100        0.0088      156.5268      156.5357     117.225708       0.00000
  34     5.035       39.3081        0.0116      156.5222      156.5338     117.225708       0.00000
  33     6.613       39.3055        0.0152      156.5160      156.5312     117.225708      -0.00000
  32     8.786       39.3021        0.0202      156.5076      156.5278     117.225708       0.00000
  31     11.80       39.2972        0.0273      156.4957      156.5229     117.225708       0.00000
  30     15.07       39.2920        0.0349      156.4828      156.5177     117.225708       0.00000
  29     18.79       39.2860        0.0435      156.4682      156.5117     117.225708      -0.00000
  28     23.16       39.2791        0.0536      156.4512      156.5048     117.225708       0.00000
  27     28.12       39.2711        0.0651      156.4317      156.4968     117.225708      -0.00000
  26     33.73       39.2622        0.0780      156.4099      156.4879     117.225708       0.00000
  25     40.54       39.2514        0.0936      156.3834      156.4771     117.225708       0.00000
  24     48.69       39.2383        0.1125      156.3515      156.4640     117.225708      -0.00000
  23     57.69       39.2240        0.1333      156.3164      156.4497     117.225708       0.00000
  22     68.43       39.2069        0.1580      156.2746      156.4326     117.225708      -0.00000
  21     81.20       39.1864        0.1876      156.2246      156.4122     117.225708       0.00000
  20     96.49       39.1621        0.2228      156.1649      156.3878     117.225708       0.00000
  19     114.6       39.1331        0.2648      156.0879      156.3527     117.219596       0.00285
  18     136.5       39.0987        0.3146      155.9962      156.3107     117.212005       0.00292
  17     162.9       39.0577        0.3740      155.8831      156.2570     117.199372       0.00404
  16     196.4       39.0043        0.4512      155.7199      156.1712     117.166851       0.00819
  15     218.7       38.9693        0.5020      155.5733      156.0753     117.106006       0.02310
  14     243.0       38.9315        0.5572      155.3367      155.8939     116.962370       0.04982
  13     269.0       38.8911        0.6168      154.9514      155.5682     116.677067       0.09255
  12     297.5       38.8487        0.6808      154.3896      155.0704     116.221679       0.13506
  11     328.5       38.8046        0.7498      153.7151      154.4649     115.660299       0.15264
  10     361.9       38.7594        0.8237      152.9087      153.7324     114.973044       0.17388
   9     398.1       38.7144        0.9025      151.8986      152.8011     114.086770       0.20648
   8     437.6       38.6719        0.9861      150.6031      151.5893     112.917402       0.25002
   7     480.5       38.6347        1.0741      149.0014      150.0755     111.440853       0.28999
   6     533.0       38.6046        1.1800      146.7375      147.9176     109.312944       0.34231
   5     589.8       38.6012        1.2901      143.8730      145.1631     106.561886       0.40835
   4     651.6       38.6586        1.4017      140.0955      141.4972     102.838580       0.50917
   3     718.7       38.8238        1.5134      135.5278      137.0412      98.217362       0.58076
   2     792.3       39.2076        1.6221      130.0690      131.6911      92.483566       0.65760
   1     891.5       29.3750       15.6899       97.9892      113.6790      84.304037       0.69604
   0    1013.0       30.6582       14.8900       90.6268      105.5168      74.858676       0.65584



 Wavenumbers: 12850. - 16000. cm-1, ATM      1
 LEVEL PRESSURE   UPWARD FLUX   DIFDOWN FLUX  DIRDOWN FLUX  DOWNWARD FLUX   NET FLUX    HEATING RATE
          mb          W/m2          W/m2          W/m2        W/m2          W/m2       degree/day
  51    .06700       50.7728        0.0000       98.0872       98.0872      47.314398       0.00000
  50    .07753       50.7728        0.0001       98.0864       98.0864      47.313613       0.62942
  49    .09103       50.7728        0.0001       98.0853       98.0854      47.312628       0.61566
  48    0.1069       50.7728        0.0002       98.0841       98.0843      47.311498       0.60153
  47    0.1255       50.7728        0.0003       98.0826       98.0830      47.310201       0.58758
  46    0.1487       50.7727        0.0005       98.0809       98.0813      47.308569       0.59499
  45    0.1794       50.7727        0.0006       98.0784       98.0791      47.306354       0.60825
  44    0.2165       50.7727        0.0008       98.0756       98.0765      47.303754       0.59137
  43    0.2613       50.7727        0.0011       98.0723       98.0734      47.300706       0.57453
  42    0.3336       50.7728        0.0015       98.0670       98.0685      47.295750       0.57785
  41    0.4307       50.7729        0.0020       98.0602       98.0622      47.289369       0.55483
  40    0.5894       50.7731        0.0029       98.0496       98.0525      47.279379       0.53124
  39     1.339       50.7763        0.0071       98.0043       98.0115      47.235197       0.49741
  38     1.782       50.7795        0.0096       97.9793       97.9889      47.209377       0.49156
  37     2.292       50.7845        0.0125       97.9498       97.9623      47.177702       0.52462
  36     2.964       50.7931        0.0162       97.9088       97.9250      47.131918       0.57473
  35     3.853       50.8072        0.0212       97.8503       97.8715      47.064290       0.64180
  34     5.035       50.8287        0.0278       97.7680       97.7957      46.967047       0.69466
  33     6.613       50.8588        0.0365       97.6562       97.6927      46.833951       0.71153
  32     8.786       50.8978        0.0483       97.5107       97.5590      46.661200       0.67090
  31     11.80       50.9483        0.0652       97.3179       97.3831      46.434816       0.63380
  30     15.07       50.9961        0.0833       97.1283       97.2117      46.215533       0.56615
  29     18.79       51.0445        0.1038       96.9300       97.0338      45.989271       0.51301
  28     23.16       51.0945        0.1276       96.7166       96.8441      45.749687       0.46328
  27     28.12       51.1439        0.1548       96.4935       96.6483      45.504346       0.41706
  26     33.73       51.1884        0.1852       96.2731       96.4583      45.269964       0.35240
  25     40.54       51.2294        0.2220       96.0408       96.2628      45.033404       0.29348
  24     48.69       51.2665        0.2663       95.7946       96.0609      44.794370       0.24736
  23     57.69       51.2954        0.3150       95.5573       95.8723      44.576861       0.20388
  22     68.43       51.3169        0.3730       95.3106       95.6836      44.366685       0.16523
  21     81.20       51.3248        0.4421       95.0643       95.5064      44.181643       0.12227
  20     96.49       51.3178        0.5245       94.8153       95.3398      44.021957       0.08814
  19     114.6       51.3099        0.6232       94.5411       95.1642      43.854303       0.07828
  18     136.5       51.2932        0.7401       94.2320       94.9721      43.678941       0.06743
  17     162.9       51.2664        0.8792       93.8753       94.7545      43.488105       0.06100
  16     196.4       51.2173        1.0595       93.4347       94.4941      43.276853       0.05317
  15     218.7       51.1798        1.1778       93.1513       94.3290      43.149237       0.04845
  14     243.0       51.1368        1.3063       92.8439       94.1502      43.013384       0.04712
  13     269.0       51.0882        1.4455       92.5111       93.9566      42.868416       0.04703
  12     297.5       51.0340        1.5958       92.1495       93.7452      42.711269       0.04661
  11     328.5       50.9752        1.7580       91.7554       93.5134      42.538188       0.04706
  10     361.9       50.9124        1.9326       91.3262       93.2588      42.346418       0.04852
   9     398.1       50.8460        2.1202       90.8575       92.9778      42.131799       0.05000
   8     437.6       50.7776        2.3215       90.3418       92.6633      41.885652       0.05263
   7     480.5       50.7087        2.5367       89.7728       92.3095      41.600806       0.05594
   6     533.0       50.6327        2.8010       89.0428       91.8438      41.211112       0.06269
   5     589.8       50.5676        3.0845       88.2038       91.2883      40.720724       0.07279
   4     651.6       50.5324        3.3866       87.1979       90.5845      40.052158       0.09143
   3     718.7       50.5402        3.7059       86.0161       89.7220      39.181836       0.10938
   2     792.3       50.6328        4.0387       84.5970       88.6357      38.002908       0.13521
   1     891.5       45.5042       15.4341       66.1393       81.5735      36.069285       0.16454
   0    1013.0       46.1203       15.5641       63.8774       79.4416      33.321228       0.19081



 Wavenumbers: 16000. - 22650. cm-1, ATM      1
 LEVEL PRESSURE   UPWARD FLUX   DIFDOWN FLUX  DIRDOWN FLUX  DOWNWARD FLUX   NET FLUX    HEATING RATE
          mb          W/m2          W/m2          W/m2        W/m2          W/m2       degree/day
  51    .06700      117.4273        0.0000      156.3892      156.3892      38.961951       0.00000
  50    .07753      117.4272        0.0004      156.3887      156.3890      38.961814       0.10957
  49    .09103      117.4272        0.0008      156.3879      156.3888      38.961615       0.12428
  48    0.1069      117.4271        0.0014      156.3871      156.3885      38.961349       0.14172
  47    0.1255      117.4271        0.0020      156.3861      156.3880      38.960993       0.16154
  46    0.1487      117.4270        0.0028      156.3847      156.3875      38.960468       0.19142
  45    0.1794      117.4270        0.0038      156.3828      156.3866      38.959647       0.22539
  44    0.2165      117.4270        0.0051      156.3805      156.3856      38.958533       0.25331
  43    0.2613      117.4272        0.0066      156.3776      156.3842      38.957022       0.28478
  42    0.3336      117.4275        0.0090      156.3726      156.3817      38.954150       0.33489
  41    0.4307      117.4282        0.0123      156.3657      156.3780      38.949820       0.37645
  40    0.5894      117.4298        0.0176      156.3537      156.3713      38.941563       0.43911
  39     1.339      117.4458        0.0429      156.2834      156.3263      38.880558       0.68680
  38     1.782      117.4615        0.0577      156.2324      156.2901      38.828592       0.98936
  37     2.292      117.4856        0.0749      156.1641      156.2390      38.753372       1.24583
  36     2.964      117.5264        0.0974      156.0605      156.1579      38.631524       1.52957
  35     3.853      117.5930        0.1271      155.9041      156.0312      38.438197       1.83470
  34     5.035      117.6942        0.1666      155.6774      155.8440      38.149809       2.06012
  33     6.613      117.8357        0.2192      155.3656      155.5849      37.749113       2.14212
  32     8.786      118.0199        0.2901      154.9577      155.2477      37.227855       2.02438
  31     11.80      118.2585        0.3913      154.4153      154.8065      36.547983       1.90343
  30     15.07      118.4858        0.4997      153.8804      154.3801      35.894226       1.68787
  29     18.79      118.7166        0.6220      153.3191      153.9411      35.224450       1.51859
  28     23.16      118.9561        0.7645      152.7126      153.4771      34.520983       1.36028
  27     28.12      119.1949        0.9273      152.0755      153.0028      33.807865       1.21225
  26     33.73      119.4118        1.1092      151.4409      152.5501      33.138332       1.00666
  25     40.54      119.6155        1.3287      150.7637      152.0924      32.476887       0.82060
  24     48.69      119.8045        1.5930      150.0338      151.6268      31.822353       0.67734
  23     57.69      119.9573        1.8828      149.3151      151.1980      31.240677       0.54523
  22     68.43      120.0803        2.2275      148.5476      150.7751      30.694888       0.42906
  21     81.20      120.1459        2.6378      147.7517      150.3895      30.243600       0.29820
  20     96.49      120.1490        3.1259      146.9127      150.0386      29.889612       0.19538
  19     114.6      120.1142        3.7036      145.9763      149.6799      29.565703       0.15124
  18     136.5      120.0469        4.3853      144.9088      149.2941      29.247218       0.12246
  17     162.9      119.9430        5.1928      143.6785      148.8713      28.928369       0.10192
  16     196.4      119.7571        6.2338      142.1651      148.3989      28.641785       0.07214
  15     218.7      119.6163        6.9136      141.2033      148.1170      28.500681       0.05357
  14     243.0      119.4547        7.6490      140.1753      147.8243      28.369684       0.04543
  13     269.0      119.2705        8.4418      139.0797      147.5215      28.251001       0.03850
  12     297.5      119.0629        9.2938      137.9141      147.2079      28.144965       0.03145
  11     328.5      118.8346       10.2089      136.6676      146.8765      28.041815       0.02805
  10     361.9      118.5852       11.1877      135.3392      146.5269      27.941674       0.02534
   9     398.1      118.3135       12.2338      133.9235      146.1573      27.843719       0.02282
   8     437.6      118.0200       13.3488      132.4163      145.7651      27.745061       0.02109
   7     480.5      117.7038       14.5346      130.8147      145.3492      27.645429       0.01957
   6     533.0      117.3141       15.9809      128.8599      144.8408      27.526702       0.01910
   5     589.8      116.8966       17.5240      126.7679      144.2919      27.395295       0.01951
   4     651.6      116.4556       19.1646      124.5274      143.6921      27.236487       0.02172
   3     718.7      115.9951       20.9038      122.1285      143.0322      27.037189       0.02505
   2     792.3      115.5280       22.7387      119.5548      142.2936      26.765529       0.03116
   1     891.5      109.3007       42.4698       93.1106      135.5805      26.279780       0.04133
   0    1013.0      108.8207       44.6277       89.7281      134.3557      25.535069       0.05171



 Wavenumbers: 22650. - 29000. cm-1, ATM      1
 LEVEL PRESSURE   UPWARD FLUX   DIFDOWN FLUX  DIRDOWN FLUX  DOWNWARD FLUX   NET FLUX    HEATING RATE
          mb          W/m2          W/m2          W/m2        W/m2          W/m2       degree/day
  51    .06700       50.3961        0.0000       59.0156       59.0156       8.619529       0.00000
  50    .07753       50.3960        0.0004       59.0151       59.0155       8.619529       0.00000
  49    .09103       50.3958        0.0010       59.0144       59.0153       8.619529       0.00000
  48    0.1069       50.3957        0.0016       59.0136       59.0152       8.619529      -0.00000
  47    0.1255       50.3955        0.0023       59.0127       59.0150       8.619529      -0.00000
  46    0.1487       50.3952        0.0033       59.0115       59.0147       8.619529       0.00000
  45    0.1794       50.3949        0.0045       59.0099       59.0144       8.619529      -0.00000
  44    0.2165       50.3945        0.0060       59.0080       59.0140       8.619529       0.00000
  43    0.2613       50.3940        0.0077       59.0058       59.0136       8.619529       0.00000
  42    0.3336       50.3933        0.0106       59.0022       59.0128       8.619529       0.00000
  41    0.4307       50.3922        0.0145       58.9973       59.0118       8.619529      -0.00000
  40    0.5894       50.3906        0.0208       58.9894       59.0101       8.619529       0.00000
  39     1.339       50.3827        0.0505       58.9518       59.0022       8.619529       0.00000
  38     1.782       50.3781        0.0679       58.9297       58.9976       8.619529      -0.00000
  37     2.292       50.3727        0.0881       58.9042       58.9923       8.619529       0.00000
  36     2.964       50.3657        0.1146       58.8706       58.9852       8.619529       0.00000
  35     3.853       50.3564        0.1496       58.8264       58.9760       8.619529      -0.00000
  34     5.035       50.3441        0.1960       58.7676       58.9636       8.619529      -0.00000
  33     6.613       50.3276        0.2581       58.6891       58.9472       8.619529       0.00000
  32     8.786       50.3055        0.3416       58.5834       58.9250       8.619529      -0.00000
  31     11.80       50.2738        0.4608       58.4324       58.8933       8.619529      -0.00000
  30     15.07       50.2398        0.5886       58.2706       58.8593       8.619529       0.00000
  29     18.79       50.2014        0.7327       58.0882       58.8209       8.619529      -0.00000
  28     23.16       50.1567        0.9005       57.8757       58.7762       8.619529       0.00000
  27     28.12       50.1056        1.0918       57.6333       58.7252       8.619529       0.00000
  26     33.73       50.0486        1.3051       57.3631       58.6681       8.619529       0.00000
  25     40.54       49.9799        1.5616       57.0379       58.5995       8.619529      -0.00000
  24     48.69       49.8974        1.8691       56.6479       58.5170       8.619529       0.00000
  23     57.69       49.8072        2.2046       56.2221       58.4267       8.619529       0.00000
  22     68.43       49.7002        2.6012       55.7186       58.3197       8.619529      -0.00000
  21     81.20       49.5735        3.0691       55.1239       58.1931       8.619529       0.00000
  20     96.49       49.4237        3.6204       54.4228       58.0432       8.619529       0.00000
  19     114.6       49.2474        4.2659       53.6010       57.8669       8.619529       0.00000
  18     136.5       49.0406        5.0184       52.6418       57.6601       8.619529      -0.00000
  17     162.9       48.7975        5.8967       51.5203       57.4171       8.619529       0.00000
  16     196.4       48.4873        7.0074       50.0994       57.1068       8.619529       0.00000
  15     218.7       48.2866        7.7198       49.1863       56.9061       8.619529      -0.00000
  14     243.0       48.0710        8.4792       48.2113       56.6905       8.619529       0.00000
  13     269.0       47.8404        9.2850       47.1749       56.4599       8.619529      -0.00000
  12     297.5       47.5946       10.1359       46.0783       56.2142       8.619529       0.00000
  11     328.5       47.3330       11.0329       44.9195       55.9525       8.619529      -0.00000
  10     361.9       47.0556       11.9733       43.7018       55.6751       8.619529       0.00000
   9     398.1       46.7620       12.9565       42.4250       55.3816       8.619529      -0.00000
   8     437.6       46.4523       13.9802       41.0916       55.0718       8.619529       0.00000
   7     480.5       46.1263       15.0414       39.7045       54.7458       8.619529      -0.00000
   6     533.0       45.7333       16.2985       38.0543       54.3528       8.619529       0.00000
   5     589.8       45.3191       17.5956       36.3431       53.9387       8.619529      -0.00000
   4     651.6       44.8845       18.9245       34.5795       53.5040       8.619529       0.00000
   3     718.7       44.4295       20.2788       32.7702       53.0490       8.619529       0.00000
   2     792.3       43.9550       21.6490       30.9256       52.5745       8.619529       0.00000
   1     891.5       41.7860       27.4774       22.9282       50.4055       8.619509       0.00000
   0    1013.0       41.1497       28.9362       20.8330       49.7692       8.619509       0.00000



 Wavenumbers: 29000. - 38000. cm-1, ATM      1
 LEVEL PRESSURE   UPWARD FLUX   DIFDOWN FLUX  DIRDOWN FLUX  DOWNWARD FLUX   NET FLUX    HEATING RATE
          mb          W/m2          W/m2          W/m2        W/m2          W/m2       degree/day
  51    .06700        7.5418        0.0000       20.8114       20.8114      13.269546       0.00000
  50    .07753        7.5416        0.0003       20.8070       20.8074      13.265741       3.05026
  49    .09103        7.5414        0.0007       20.8009       20.8016      13.260206       3.45936
  48    0.1069        7.5411        0.0012       20.7928       20.7939      13.252799       3.94257
  47    0.1255        7.5408        0.0017       20.7820       20.7837      13.242899       4.48835
  46    0.1487        7.5404        0.0023       20.7665       20.7688      13.228342       5.30605
  45    0.1794        7.5399        0.0032       20.7424       20.7456      13.205688       6.21918
  44    0.2165        7.5394        0.0042       20.7103       20.7146      13.175180       6.94013
  43    0.2613        7.5388        0.0055       20.6675       20.6730      13.134205       7.72357
  42    0.3336        7.5378        0.0075       20.5880       20.5955      13.057683       8.92175
  41    0.4307        7.5366        0.0101       20.4722       20.4824      12.945789       9.72886
  40    0.5894        7.5348        0.0143       20.2637       20.2780      12.743222      10.77230
  39     1.339        7.5300        0.0322       19.0984       19.1306      11.600625      12.86356
  38     1.782        7.5294        0.0415       18.4394       18.4808      10.951444      12.35935
  37     2.292        7.5306        0.0514       17.7714       17.8228      10.292156      10.91954
  36     2.964        7.5350        0.0636       17.0421       17.1058       9.570713       9.05629
  35     3.853        7.5446        0.0789       16.2678       16.3468       8.802165       7.29366
  34     5.035        7.5610        0.0982       15.4803       15.5786       8.017558       5.60491
  33     6.613        7.5852        0.1229       14.7157       14.8386       7.253351       4.08545
  32     8.786        7.6173        0.1552       13.9936       14.1487       6.531408       2.80377
  31     11.80        7.6589        0.2000       13.2835       13.4836       5.824664       1.97866
  30     15.07        7.6987        0.2465       12.7394       12.9859       5.287205       1.38761
  29     18.79        7.7394        0.2979       12.2666       12.5645       4.825181       1.04755
  28     23.16        7.7821        0.3563       11.8300       12.1863       4.404191       0.81406
  27     28.12        7.8254        0.4216       11.4279       11.8495       4.024100       0.64613
  26     33.73        7.8640        0.4935       11.0695       11.5629       3.698875       0.48898
  25     40.54        7.8989        0.5792       10.7209       11.3001       3.401211       0.36929
  24     48.69        7.9295        0.6808       10.3742       11.0549       3.125433       0.28539
  23     57.69        7.9518        0.7905       10.0549       10.8454       2.893613       0.21730
  22     68.43        7.9655        0.9191        9.7327       10.6518       2.686254       0.16301
  21     81.20        7.9625        1.0706        9.4134       10.4840       2.521493       0.10887
  20     96.49        7.9406        1.2484        9.0887       10.3371       2.396504       0.06898
  19     114.6        7.9065        1.4533        8.7388       10.1921       2.285638       0.05177
  18     136.5        7.8621        1.6869        8.3549       10.0418       2.179673       0.04075
  17     162.9        7.8068        1.9521        7.9311        9.8832       2.076378       0.03302
  16     196.4        7.7264        2.2790        7.4333        9.7123       1.985931       0.02277
  15     218.7        7.6713        2.4838        7.1295        9.6133       1.942023       0.01667
  14     243.0        7.6114        2.6969        6.8161        9.5130       1.901630       0.01401
  13     269.0        7.5464        2.9176        6.4943        9.4119       1.865506       0.01172
  12     297.5        7.4764        3.1445        6.1657        9.3102       1.833797       0.00940
  11     328.5        7.4025        3.3766        5.8295        9.2060       1.803577       0.00822
  10     361.9        7.3249        3.6112        5.4886        9.0999       1.774981       0.00724
   9     398.1        7.2437        3.8477        5.1440        8.9917       1.748028       0.00628
   8     437.6        7.1592        4.0844        4.7969        8.8814       1.722196       0.00552
   7     480.5        7.0715        4.3190        4.4504        8.7694       1.697832       0.00479
   6     533.0        6.9677        4.5829        4.0563        8.6392       1.671467       0.00424
   5     589.8        6.8606        4.8386        3.6682        8.5068       1.646160       0.00376
   4     651.6        6.7510        5.0822        3.2905        8.3727       1.621632       0.00335
   3     718.7        6.6390        5.3117        2.9252        8.2369       1.597856       0.00299
   2     792.3        6.5250        5.5234        2.5764        8.0998       1.574844       0.00264
   1     891.5        6.1940        6.0037        1.7376        7.7413       1.547237       0.00235
   0    1013.0        6.0435        6.1552        1.4060        7.5612       1.517691       0.00205



 Wavenumbers: 38000. - 50000. cm-1, ATM      1
 LEVEL PRESSURE   UPWARD FLUX   DIFDOWN FLUX  DIRDOWN FLUX  DOWNWARD FLUX   NET FLUX    HEATING RATE
          mb          W/m2          W/m2          W/m2        W/m2          W/m2       degree/day
  51    .06700        0.0061        0.0000        1.2836        1.2836       1.277518       0.00000
  50    .07753        0.0061        0.0001        1.2812        1.2812       1.275183       1.87150
  49    .09103        0.0060        0.0002        1.2777        1.2778       1.271851       2.08247
  48    0.1069        0.0059        0.0002        1.2731        1.2734       1.267473       2.33059
  47    0.1255        0.0058        0.0004        1.2672        1.2675       1.261717       2.60908
  46    0.1487        0.0057        0.0005        1.2586        1.2591       1.253391       3.03499
  45    0.1794        0.0055        0.0007        1.2455        1.2462       1.240623       3.50520
  44    0.2165        0.0054        0.0009        1.2282        1.2291       1.223697       3.85037
  43    0.2613        0.0052        0.0011        1.2054        1.2065       1.201348       4.21261
  42    0.3336        0.0049        0.0015        1.1639        1.1654       1.160524       4.75970
  41    0.4307        0.0045        0.0020        1.1051        1.1070       1.102565       5.03943
  40    0.5894        0.0039        0.0026        1.0039        1.0064       1.002524       5.32007
  39     1.339        0.0022        0.0035        0.5438        0.5473       0.545104       5.14971
  38     1.782        0.0016        0.0032        0.3635        0.3666       0.365006       3.42879
  37     2.292        0.0012        0.0027        0.2356        0.2383       0.237058       2.11916
  36     2.964        0.0009        0.0022        0.1455        0.1477       0.146786       1.13318
  35     3.853        0.0006        0.0017        0.0858        0.0875       0.086906       0.56828
  34     5.035        0.0004        0.0013        0.0488        0.0501       0.049701       0.26578
  33     6.613        0.0003        0.0010        0.0273        0.0282       0.027974       0.11615
  32     8.786        0.0002        0.0007        0.0144        0.0151       0.014928       0.05067
  31     11.80        0.0001        0.0004        0.0065        0.0070       0.006903       0.02247
  30     15.07        0.0000        0.0003        0.0031        0.0034       0.003329       0.00923
  29     18.79        0.0000        0.0002        0.0014        0.0016       0.001583       0.00396
  28     23.16        0.0000        0.0001        0.0006        0.0007       0.000720       0.00167
  27     28.12        0.0000        0.0001        0.0003        0.0003       0.000317       0.00069
  26     33.73        0.0000        0.0000        0.0001        0.0001       0.000140       0.00027
  25     40.54        0.0000        0.0000        0.0000        0.0001       0.000057       0.00010
  24     48.69        0.0000        0.0000        0.0000        0.0000       0.000021       0.00004
  23     57.69        0.0000        0.0000        0.0000        0.0000       0.000008       0.00001
  22     68.43        0.0000        0.0000        0.0000        0.0000       0.000003       0.00000
  21     81.20        0.0000        0.0000        0.0000        0.0000       0.000001       0.00000
  20     96.49        0.0000        0.0000        0.0000        0.0000       0.000000       0.00000
  19     114.6        0.0000        0.0000        0.0000        0.0000       0.000000       0.00000
  18     136.5        0.0000        0.0000        0.0000        0.0000       0.000000       0.00000
  17     162.9        0.0000        0.0000        0.0000        0.0000       0.000000       0.00000
  16     196.4        0.0000        0.0000        0.0000        0.0000       0.000000       0.00000
  15     218.7        0.0000        0.0000        0.0000        0.0000       0.000000       0.00000
  14     243.0        0.0000        0.0000        0.0000        0.0000       0.000000       0.00000
  13     269.0        0.0000        0.0000        0.0000        0.0000       0.000000       0.00000
  12     297.5        0.0000        0.0000        0.0000        0.0000       0.000000       0.00000
  11     328.5        0.0000        0.0000        0.0000        0.0000       0.000000       0.00000
  10     361.9        0.0000        0.0000        0.0000        0.0000       0.000000       0.00000
   9     398.1        0.0000        0.0000        0.0000        0.0000       0.000000       0.00000
   8     437.6        0.0000        0.0000        0.0000        0.0000       0.000000       0.00000
   7     480.5        0.0000        0.0000        0.0000        0.0000       0.000000       0.00000
   6     533.0        0.0000        0.0000        0.0000        0.0000       0.000000       0.00000
   5     589.8        0.0000        0.0000        0.0000        0.0000       0.000000       0.00000
   4     651.6        0.0000        0.0000        0.0000        0.0000       0.000000       0.00000
   3     718.7        0.0000        0.0000        0.0000        0.0000       0.000000       0.00000
   2     792.3        0.0000        0.0000        0.0000        0.0000       0.000000       0.00000
   1     891.5        0.0000        0.0000        0.0000        0.0000       0.000000       0.00000
   0    1013.0        0.0000        0.0000        0.0000        0.0000       0.000000       0.00000



 Wavenumbers:   820. -  2600. cm-1, ATM      1
 LEVEL PRESSURE   UPWARD FLUX   DIFDOWN FLUX  DIRDOWN FLUX  DOWNWARD FLUX   NET FLUX    HEATING RATE
          mb          W/m2          W/m2          W/m2        W/m2          W/m2       degree/day
  51    .06700        0.3549        0.0000        6.0047        6.0047       5.649726       0.00000
  50    .07753        0.3549        0.0000        6.0008        6.0008       5.645873       3.08820
  49    .09103        0.3549        0.0000        5.9999        5.9999       5.644988       0.55357
  48    0.1069        0.3549        0.0000        5.9989        5.9989       5.643999       0.52651
  47    0.1255        0.3549        0.0000        5.9978        5.9978       5.642881       0.50648
  46    0.1487        0.3549        0.0000        5.9964        5.9964       5.641525       0.49456
  45    0.1794        0.3549        0.0000        5.9947        5.9947       5.639805       0.47198
  44    0.2165        0.3549        0.0000        5.9929        5.9929       5.637963       0.41909
  43    0.2613        0.3549        0.0000        5.9909        5.9909       5.636004       0.36931
  42    0.3336        0.3549        0.0000        5.9880        5.9880       5.633126       0.33554
  41    0.4307        0.3549        0.0000        5.9846        5.9846       5.629657       0.30163
  40    0.5894        0.3549        0.0000        5.9791        5.9791       5.624152       0.29274
  39     1.339        0.3549        0.0000        5.9536        5.9536       5.598666       0.28692
  38     1.782        0.3549        0.0000        5.9395        5.9395       5.584528       0.26916
  37     2.292        0.3549        0.0000        5.9237        5.9237       5.568778       0.26087
  36     2.964        0.3549        0.0000        5.9039        5.9039       5.549005       0.24821
  35     3.853        0.3549        0.0000        5.8793        5.8793       5.524350       0.23398
  34     5.035        0.3549        0.0000        5.8487        5.8487       5.493789       0.21832
  33     6.613        0.3549        0.0000        5.8108        5.8108       5.455827       0.20295
  32     8.786        0.3549        0.0000        5.7631        5.7631       5.408206       0.18494
  31     11.80        0.3549        0.0000        5.7039        5.7039       5.348953       0.16589
  30     15.07        0.3549        0.0000        5.6539        5.6539       5.298917       0.12918
  29     18.79        0.3550        0.0000        5.6127        5.6127       5.257785       0.09326
  28     23.16        0.3550        0.0000        5.5794        5.5794       5.224411       0.06453
  27     28.12        0.3550        0.0000        5.5518        5.5518       5.196846       0.04686
  26     33.73        0.3550        0.0000        5.5268        5.5268       5.171794       0.03767
  25     40.54        0.3550        0.0000        5.4993        5.4993       5.144349       0.03405
  24     48.69        0.3550        0.0000        5.4678        5.4678       5.112805       0.03264
  23     57.69        0.3550        0.0000        5.4340        5.4340       5.079011       0.03168
  22     68.43        0.3550        0.0000        5.3947        5.3948       5.039730       0.03088
  21     81.20        0.3550        0.0000        5.3497        5.3497       4.994685       0.02976
  20     96.49        0.3551        0.0000        5.2982        5.2982       4.943158       0.02844
  19     114.6        0.3551        0.0000        5.2389        5.2389       4.883816       0.02771
  18     136.5        0.3551        0.0000        5.1716        5.1717       4.816535       0.02587
  17     162.9        0.3552        0.0000        5.0890        5.0890       4.733866       0.02642
  16     196.4        0.3553        0.0000        4.9668        4.9668       4.611563       0.03079
  15     218.7        0.3554        0.0000        4.8585        4.8585       4.503113       0.04117
  14     243.0        0.3555        0.0000        4.7078        4.7079       4.352354       0.05229
  13     269.0        0.3557        0.0000        4.5343        4.5343       4.178556       0.05638
  12     297.5        0.3561        0.0000        4.3419        4.3420       3.985886       0.05714
  11     328.5        0.3566        0.0000        4.1281        4.1281       3.771585       0.05827
  10     361.9        0.3572        0.0000        3.8786        3.8787       3.521478       0.06328
   9     398.1        0.3580        0.0000        3.6159        3.6159       3.257915       0.06140
   8     437.6        0.3591        0.0000        3.3759        3.3759       3.016765       0.05156
   7     480.5        0.3605        0.0000        3.1957        3.1958       2.835318       0.03564
   6     533.0        0.3625        0.0000        3.0467        3.0467       2.684181       0.02431
   5     589.8        0.3656        0.0000        2.9023        2.9023       2.536737       0.02189
   4     651.6        0.3710        0.0000        2.7183        2.7184       2.347382       0.02589
   3     718.7        0.3803        0.0000        2.5058        2.5059       2.125562       0.02788
   2     792.3        0.3977        0.0000        2.2756        2.2757       1.877956       0.02840
   1     891.5        0.2344        0.2090        1.5745        1.7835       1.549069       0.02799
   0    1013.0        0.2837        0.1686        1.2413        1.4099       1.126171       0.02936

  Modules and versions used in this calculation:

       rrtmg_sw.1col.f90:  $Revision$                    rrtmg_sw_init.f90:  $Revision$        
     rrtmgsw_cldprop.f90:  $Revision$                  rrtmgsw_cldprmc.f90:  NOT USED          
     rrtmg_sw_reftra.f90:  $Revision$                  rrtmg_sw_spcvrt.f90:  NOT USED          
     rrtmg_sw_spcvmc.f90:  NOT USED                    rrtmgsw_setcoef.f90:  NOT USED          
     rrtmg_sw_taumol.f90:  $Revision$                  rrtmg_sw_vrtqdr.f90:  NOT USED          
                rrtatm.f:  NOT USED                             util_xxx.f:  NOT USED          
                 extra.f:  NOT USED                       rrtmg_sw_k_g.f90:  $Revision$        

