

 Wavenumbers:   820. - 50000. cm-1, ATM      1
 LEVEL PRESSURE   UPWARD FLUX   DIFDOWN FLUX  DIRDOWN FLUX  DOWNWARD FLUX   NET FLUX    HEATING RATE
          mb          W/m2          W/m2          W/m2        W/m2          W/m2       degree/day
  51    .06700      267.4569        0.0000      617.8126      617.8126     350.355728       0.00000
  50    .07753      267.4564        0.0013      617.7947      617.7960     350.339611      12.91776
  49    .09103      267.4558        0.0029      617.7778      617.7806     350.324835       9.23551
  48    0.1069      267.4551        0.0047      617.7581      617.7628     350.307618       9.16476
  47    0.1255      267.4544        0.0068      617.7340      617.7408     350.286332       9.65006
  46    0.1487      267.4536        0.0094      617.7009      617.7103     350.256732      10.78952
  45    0.1794      267.4525        0.0130      617.6521      617.6651     350.212634      12.10594
  44    0.2165      267.4513        0.0173      617.5895      617.6068     350.155492      12.99881
  43    0.2613      267.4500        0.0223      617.5089      617.5312     350.081221      13.99971
  42    0.3336      267.4481        0.0306      617.3641      617.3947     349.946595      15.69614
  41    0.4307      267.4460        0.0415      617.1591      617.2006     349.754660      16.68825
  40    0.5894      267.4433        0.0591      616.8005      616.8596     349.416280      17.99464
  39     1.339      267.4453        0.1383      614.9443      615.0826     347.637282      20.02828
  38     1.782      267.4566        0.1827      613.9670      614.1498     346.693165      17.97447
  37     2.292      267.4788        0.2332      613.0059      613.2391     345.760292      15.45081
  36     2.964      267.5217        0.2988      611.9577      612.2565     344.734776      12.87333
  35     3.853      267.5974        0.3848      610.8024      611.1872     343.589793      10.86610
  34     5.035      267.7166        0.4981      609.5327      610.0308     342.314197       9.11233
  33     6.613      267.8860        0.6485      608.1464      608.7949     340.908902       7.51271
  32     8.786      268.1060        0.8502      606.6250      607.4752     339.369235       5.97951
  31     11.80      268.3871        1.1371      604.8486      605.9858     337.598666       4.95704
  30     15.07      268.6500        1.4432      603.2440      604.6871     336.037138       4.03156
  29     18.79      268.9121        1.7873      601.6511      603.4385     334.526375       3.42536
  28     23.16      269.1781        2.1870      599.9927      602.1797     333.001588       2.94845
  27     28.12      269.4353        2.6417      598.2881      600.9297     331.494403       2.56211
  26     33.73      269.6541        3.1482      596.5951      599.7433     330.089180       2.11279
  25     40.54      269.8381        3.7578      594.7727      598.5305     328.692405       1.73286
  24     48.69      269.9819        4.4887      592.7865      597.2752     327.293269       1.44789
  23     57.69      270.0644        5.2871      590.7959      596.0830     326.018653       1.19476
  22     68.43      270.0805        6.2323      588.6191      594.8514     324.770837       0.98095
  21     81.20      269.9857        7.3520      586.2690      593.6209     323.635215       0.75040
  20     96.49      269.7670        8.6764      583.6961      592.3725     322.605509       0.56832
  19     114.6      269.4638       10.2325      580.7708      591.0033     321.539497       0.49775
  18     136.5      269.0703       12.0520      577.4359      589.4879     320.417551       0.43142
  17     162.9      268.5729       14.1836      573.5624      587.7461     319.173195       0.39775
  16     196.4      267.8606       16.8964      568.5907      585.4871     317.626524       0.38932
  15     218.7      267.3706       18.6470      565.0572      583.7042     316.333586       0.49088
  14     243.0      266.8306       20.5215      560.7495      581.2710     314.440453       0.65660
  13     269.0      266.2386       22.5205      555.3947      577.9152     311.676612       0.89658
  12     297.5      265.5946       24.6438      548.9964      573.6402     308.045601       1.07692
  11     328.5      264.9022       26.8963      542.0895      568.9858     304.083642       1.07725
  10     361.9      264.1628       29.2735      534.6242      563.8977     299.734935       1.10027
   9     398.1      263.3762       31.7783      526.4204      558.1988     294.822585       1.14447
   8     437.6      262.5466       34.4083      517.3907      551.7990     289.252309       1.19096
   7     480.5      261.6772       37.1601      507.7216      544.8816     283.204405       1.18779
   6     533.0      260.6423       40.4563      495.9006      536.3569     275.714623       1.20487
   5     589.8      259.5868       43.9000      483.0788      526.9788     267.392035       1.23534
   4     651.6      258.5652       47.4766      468.6907      516.1673     257.602087       1.33880
   3     718.7      257.6339       51.1759      453.2257      504.4017     246.767730       1.36158
   2     792.3      256.9339       54.9749      436.4928      491.4677     234.533812       1.40309
   1     891.5      256.7333       59.8455      413.9344      473.7799     217.046588       1.48808
   0    1013.0      258.3042       65.3286      388.4125      453.7411     195.436892       1.50047



 Wavenumbers:  2600. -  3250. cm-1, ATM      1
 LEVEL PRESSURE   UPWARD FLUX   DIFDOWN FLUX  DIRDOWN FLUX  DOWNWARD FLUX   NET FLUX    HEATING RATE
          mb          W/m2          W/m2          W/m2        W/m2          W/m2       degree/day
  51    .06700        0.4690        0.0000        5.4450        5.4450       4.976022       0.00000
  50    .07753        0.4690        0.0000        5.4450        5.4450       4.976014       0.00640
  49    .09103        0.4690        0.0000        5.4450        5.4450       4.976004       0.00627
  48    0.1069        0.4690        0.0000        5.4450        5.4450       4.975993       0.00613
  47    0.1255        0.4690        0.0000        5.4450        5.4450       4.975980       0.00599
  46    0.1487        0.4690        0.0000        5.4450        5.4450       4.975963       0.00608
  45    0.1794        0.4690        0.0000        5.4450        5.4450       4.975940       0.00625
  44    0.2165        0.4690        0.0000        5.4449        5.4449       4.975913       0.00612
  43    0.2613        0.4690        0.0000        5.4449        5.4449       4.975882       0.00600
  42    0.3336        0.4690        0.0000        5.4448        5.4448       4.975829       0.00617
  41    0.4307        0.4690        0.0000        5.4448        5.4448       4.975757       0.00620
  40    0.5894        0.4690        0.0000        5.4446        5.4446       4.975638       0.00637
  39     1.339        0.4690        0.0000        5.4439        5.4439       4.974930       0.00797
  38     1.782        0.4690        0.0000        5.4434        5.4434       4.974387       0.01034
  37     2.292        0.4690        0.0000        5.4427        5.4427       4.973671       0.01186
  36     2.964        0.4690        0.0000        5.4416        5.4416       4.972633       0.01304
  35     3.853        0.4690        0.0000        5.4402        5.4402       4.971155       0.01402
  34     5.035        0.4690        0.0000        5.4381        5.4381       4.969100       0.01468
  33     6.613        0.4690        0.0000        5.4353        5.4353       4.966319       0.01487
  32     8.786        0.4690        0.0000        5.4317        5.4317       4.962687       0.01411
  31     11.80        0.4690        0.0000        5.4269        5.4269       4.957906       0.01338
  30     15.07        0.4690        0.0000        5.4224        5.4224       4.953380       0.01169
  29     18.79        0.4690        0.0000        5.4180        5.4180       4.948968       0.01000
  28     23.16        0.4690        0.0000        5.4135        5.4135       4.944482       0.00867
  27     28.12        0.4690        0.0000        5.4088        5.4088       4.939834       0.00790
  26     33.73        0.4690        0.0000        5.4036        5.4036       4.934593       0.00788
  25     40.54        0.4690        0.0000        5.3966        5.3967       4.927652       0.00861
  24     48.69        0.4690        0.0000        5.3872        5.3872       4.918174       0.00981
  23     57.69        0.4690        0.0000        5.3754        5.3754       4.906389       0.01105
  22     68.43        0.4690        0.0000        5.3599        5.3599       4.890900       0.01218
  21     81.20        0.4690        0.0000        5.3401        5.3401       4.871064       0.01311
  20     96.49        0.4690        0.0000        5.3155        5.3155       4.846494       0.01356
  19     114.6        0.4691        0.0000        5.2853        5.2853       4.816291       0.01410
  18     136.5        0.4691        0.0001        5.2504        5.2505       4.781375       0.01343
  17     162.9        0.4691        0.0001        5.2111        5.2111       4.742018       0.01258
  16     196.4        0.4692        0.0001        5.1640        5.1641       4.694900       0.01186
  15     218.7        0.4693        0.0001        5.1331        5.1332       4.663893       0.01177
  14     243.0        0.4694        0.0001        5.0962        5.0963       4.626858       0.01285
  13     269.0        0.4697        0.0001        5.0511        5.0512       4.581505       0.01471
  12     297.5        0.4700        0.0001        4.9956        4.9957       4.525666       0.01656
  11     328.5        0.4705        0.0001        4.9304        4.9305       4.459943       0.01787
  10     361.9        0.4712        0.0001        4.8511        4.8512       4.379999       0.02023
   9     398.1        0.4722        0.0001        4.7507        4.7508       4.278667       0.02361
   8     437.6        0.4734        0.0001        4.6220        4.6222       4.148771       0.02777
   7     480.5        0.4751        0.0002        4.4625        4.4626       3.987520       0.03167
   6     533.0        0.4778        0.0002        4.2460        4.2462       3.768385       0.03525
   5     589.8        0.4818        0.0002        3.9954        3.9956       3.513749       0.03780
   4     651.6        0.4882        0.0002        3.7089        3.7090       3.220871       0.04005
   3     718.7        0.4980        0.0002        3.4018        3.4020       2.904022       0.03982
   2     792.3        0.5140        0.0002        3.0564        3.0566       2.542573       0.04145
   1     891.5        0.5504        0.0002        2.5828        2.5830       2.032602       0.04340
   0    1013.0        0.6358        0.0002        2.0845        2.0847       1.448861       0.04053



 Wavenumbers:  3250. -  4000. cm-1, ATM      1
 LEVEL PRESSURE   UPWARD FLUX   DIFDOWN FLUX  DIRDOWN FLUX  DOWNWARD FLUX   NET FLUX    HEATING RATE
          mb          W/m2          W/m2          W/m2        W/m2          W/m2       degree/day
  51    .06700        0.0005        0.0000        9.1795        9.1795       9.179035       0.00000
  50    .07753        0.0005        0.0000        9.1747        9.1747       9.174193       3.88148
  49    .09103        0.0005        0.0000        9.1713        9.1713       9.170805       2.11747
  48    0.1069        0.0005        0.0000        9.1688        9.1688       9.168280       1.34402
  47    0.1255        0.0005        0.0000        9.1665        9.1665       9.166021       1.02422
  46    0.1487        0.0005        0.0000        9.1641        9.1641       9.163579       0.88991
  45    0.1794        0.0005        0.0000        9.1612        9.1612       9.160701       0.79008
  44    0.2165        0.0005        0.0000        9.1583        9.1583       9.157781       0.66430
  43    0.2613        0.0005        0.0000        9.1553        9.1553       9.154808       0.56041
  42    0.3336        0.0005        0.0000        9.1511        9.1511       9.150629       0.48723
  41    0.4307        0.0005        0.0000        9.1464        9.1464       9.145861       0.41459
  40    0.5894        0.0005        0.0000        9.1393        9.1394       9.138855       0.37255
  39     1.339        0.0005        0.0000        9.1127        9.1127       9.112241       0.29962
  38     1.782        0.0005        0.0000        9.1011        9.1011       9.100653       0.22062
  37     2.292        0.0005        0.0000        9.0901        9.0901       9.089587       0.18329
  36     2.964        0.0005        0.0000        9.0776        9.0776       9.077157       0.15603
  35     3.853        0.0005        0.0000        9.0629        9.0629       9.062367       0.14036
  34     5.035        0.0005        0.0000        9.0441        9.0441       9.043628       0.13386
  33     6.613        0.0005        0.0000        9.0191        9.0191       9.018626       0.13366
  32     8.786        0.0005        0.0000        8.9843        8.9843       8.983843       0.13509
  31     11.80        0.0005        0.0000        8.9327        8.9327       8.932226       0.14451
  30     15.07        0.0005        0.0000        8.8758        8.8759       8.875381       0.14676
  29     18.79        0.0005        0.0000        8.8110        8.8110       8.810554       0.14698
  28     23.16        0.0005        0.0000        8.7365        8.7366       8.736109       0.14395
  27     28.12        0.0005        0.0000        8.6554        8.6555       8.654996       0.13789
  26     33.73        0.0004        0.0000        8.5719        8.5719       8.571497       0.12554
  25     40.54        0.0004        0.0001        8.4812        8.4812       8.480773       0.11255
  24     48.69        0.0004        0.0001        8.3838        8.3839       8.383472       0.10069
  23     57.69        0.0004        0.0001        8.2861        8.2862       8.285736       0.09161
  22     68.43        0.0004        0.0001        8.1751        8.1751       8.174740       0.08726
  21     81.20        0.0004        0.0001        8.0457        8.0458       8.045382       0.08548
  20     96.49        0.0004        0.0001        7.8949        7.8950       7.894678       0.08318
  19     114.6        0.0003        0.0001        7.7162        7.7163       7.715969       0.08344
  18     136.5        0.0003        0.0002        7.5193        7.5194       7.519125       0.07569
  17     162.9        0.0003        0.0002        7.2913        7.2915       7.291234       0.07284
  16     196.4        0.0003        0.0002        6.9660        6.9662       6.965961       0.08187
  15     218.7        0.0002        0.0002        6.6648        6.6650       6.664773       0.11435
  14     243.0        0.0002        0.0002        6.2619        6.2622       6.261978       0.13970
  13     269.0        0.0002        0.0003        5.7576        5.7579       5.757679       0.16359
  12     297.5        0.0002        0.0003        5.1719        5.1722       5.171988       0.17371
  11     328.5        0.0001        0.0002        4.5757        4.5760       4.575829       0.16209
  10     361.9        0.0001        0.0002        3.9995        3.9998       3.999654       0.14578
   9     398.1        0.0001        0.0002        3.4655        3.4657       3.465598       0.12442
   8     437.6        0.0001        0.0002        2.9740        2.9742       2.974151       0.10507
   7     480.5        0.0001        0.0002        2.5307        2.5309       2.530780       0.08708
   6     533.0        0.0001        0.0002        2.0614        2.0616       2.061486       0.07549
   5     589.8        0.0001        0.0002        1.6150        1.6151       1.615060       0.06626
   4     651.6        0.0001        0.0001        1.1565        1.1566       1.156522       0.06271
   3     718.7        0.0001        0.0001        0.7390        0.7391       0.739035       0.05247
   2     792.3        0.0001        0.0001        0.3985        0.3985       0.398419       0.03906
   1     891.5        0.0003        0.0000        0.1139        0.1139       0.113652       0.02423
   0    1013.0        0.0029        0.0000        0.0094        0.0094       0.006521       0.00744



 Wavenumbers:  4000. -  4650. cm-1, ATM      1
 LEVEL PRESSURE   UPWARD FLUX   DIFDOWN FLUX  DIRDOWN FLUX  DOWNWARD FLUX   NET FLUX    HEATING RATE
          mb          W/m2          W/m2          W/m2        W/m2          W/m2       degree/day
  51    .06700        1.8950        0.0000       10.7795       10.7795       8.884539       0.00000
  50    .07753        1.8950        0.0000       10.7795       10.7795       8.884538       0.00080
  49    .09103        1.8950        0.0000       10.7795       10.7795       8.884537       0.00078
  48    0.1069        1.8950        0.0000       10.7795       10.7795       8.884535       0.00076
  47    0.1255        1.8950        0.0000       10.7795       10.7795       8.884534       0.00075
  46    0.1487        1.8950        0.0000       10.7795       10.7795       8.884532       0.00076
  45    0.1794        1.8950        0.0000       10.7795       10.7795       8.884529       0.00078
  44    0.2165        1.8950        0.0000       10.7795       10.7795       8.884525       0.00076
  43    0.2613        1.8950        0.0000       10.7795       10.7795       8.884521       0.00075
  42    0.3336        1.8950        0.0000       10.7795       10.7795       8.884515       0.00077
  41    0.4307        1.8950        0.0000       10.7795       10.7795       8.884506       0.00077
  40    0.5894        1.8950        0.0000       10.7795       10.7795       8.884491       0.00080
  39     1.339        1.8950        0.0000       10.7794       10.7794       8.884402       0.00101
  38     1.782        1.8950        0.0000       10.7793       10.7793       8.884332       0.00133
  37     2.292        1.8950        0.0000       10.7792       10.7792       8.884238       0.00156
  36     2.964        1.8950        0.0000       10.7791       10.7791       8.884098       0.00176
  35     3.853        1.8950        0.0000       10.7789       10.7789       8.883890       0.00197
  34     5.035        1.8950        0.0000       10.7786       10.7786       8.883583       0.00219
  33     6.613        1.8950        0.0000       10.7781       10.7781       8.883132       0.00241
  32     8.786        1.8950        0.0000       10.7774       10.7774       8.882466       0.00259
  31     11.80        1.8950        0.0000       10.7763       10.7764       8.881419       0.00293
  30     15.07        1.8950        0.0001       10.7751       10.7752       8.880192       0.00317
  29     18.79        1.8949        0.0001       10.7736       10.7737       8.878709       0.00336
  28     23.16        1.8949        0.0001       10.7717       10.7718       8.876868       0.00356
  27     28.12        1.8949        0.0001       10.7695       10.7696       8.874640       0.00379
  26     33.73        1.8949        0.0001       10.7667       10.7668       8.871894       0.00413
  25     40.54        1.8949        0.0002       10.7629       10.7631       8.868173       0.00462
  24     48.69        1.8949        0.0002       10.7579       10.7581       8.863217       0.00513
  23     57.69        1.8949        0.0002       10.7520       10.7522       8.857347       0.00550
  22     68.43        1.8949        0.0003       10.7446       10.7449       8.849998       0.00578
  21     81.20        1.8949        0.0003       10.7355       10.7358       8.840959       0.00597
  20     96.49        1.8949        0.0004       10.7245       10.7249       8.829975       0.00606
  19     114.6        1.8949        0.0005       10.7107       10.7112       8.816264       0.00640
  18     136.5        1.8950        0.0005       10.6942       10.6947       8.799774       0.00634
  17     162.9        1.8950        0.0006       10.6740       10.6747       8.779606       0.00645
  16     196.4        1.8952        0.0008       10.6464       10.6471       8.751879       0.00698
  15     218.7        1.8955        0.0008       10.6255       10.6263       8.730851       0.00798
  14     243.0        1.8958        0.0009       10.5980       10.5990       8.703195       0.00959
  13     269.0        1.8963        0.0010       10.5611       10.5621       8.665786       0.01214
  12     297.5        1.8972        0.0011       10.5119       10.5131       8.615904       0.01479
  11     328.5        1.8984        0.0013       10.4499       10.4511       8.552764       0.01717
  10     361.9        1.8999        0.0014       10.3702       10.3716       8.471616       0.02053
   9     398.1        1.9019        0.0015       10.2678       10.2693       8.367379       0.02428
   8     437.6        1.9044        0.0016       10.1390       10.1406       8.236257       0.02803
   7     480.5        1.9074        0.0018        9.9877        9.9895       8.082026       0.03029
   6     533.0        1.9120        0.0019        9.7937        9.7956       7.883577       0.03192
   5     589.8        1.9184        0.0021        9.5752        9.5773       7.658828       0.03336
   4     651.6        1.9282        0.0023        9.2958        9.2981       7.369889       0.03951
   3     718.7        1.9433        0.0024        8.9267        8.9291       6.985830       0.04827
   2     792.3        1.9683        0.0025        8.4542        8.4568       6.488477       0.05704
   1     891.5        2.0257        0.0027        7.7948        7.7975       5.771811       0.06098
   0    1013.0        2.1591        0.0028        7.0767        7.0794       4.920359       0.05912



 Wavenumbers:  4650. -  5150. cm-1, ATM      1
 LEVEL PRESSURE   UPWARD FLUX   DIFDOWN FLUX  DIRDOWN FLUX  DOWNWARD FLUX   NET FLUX    HEATING RATE
          mb          W/m2          W/m2          W/m2        W/m2          W/m2       degree/day
  51    .06700        1.3353        0.0000       10.2033       10.2033       8.868013       0.00000
  50    .07753        1.3353        0.0000       10.2031       10.2031       8.867778       0.18901
  49    .09103        1.3353        0.0000       10.2028       10.2028       8.867483       0.18428
  48    0.1069        1.3353        0.0000       10.2025       10.2025       8.867146       0.17931
  47    0.1255        1.3353        0.0000       10.2021       10.2021       8.866761       0.17426
  46    0.1487        1.3353        0.0000       10.2016       10.2016       8.866280       0.17536
  45    0.1794        1.3353        0.0000       10.2010       10.2010       8.865630       0.17850
  44    0.2165        1.3353        0.0000       10.2002       10.2002       8.864871       0.17277
  43    0.2613        1.3353        0.0000       10.1993       10.1993       8.863985       0.16690
  42    0.3336        1.3353        0.0000       10.1979       10.1979       8.862553       0.16702
  41    0.4307        1.3353        0.0000       10.1960       10.1960       8.860712       0.16002
  40    0.5894        1.3353        0.0000       10.1932       10.1932       8.857839       0.15283
  39     1.339        1.3353        0.0000       10.1816       10.1816       8.846247       0.13050
  38     1.782        1.3353        0.0000       10.1760       10.1760       8.840719       0.10525
  37     2.292        1.3353        0.0000       10.1706       10.1706       8.835263       0.09037
  36     2.964        1.3353        0.0000       10.1646       10.1647       8.829340       0.07435
  35     3.853        1.3353        0.0000       10.1584       10.1584       8.823126       0.05897
  34     5.035        1.3353        0.0000       10.1521       10.1521       8.816792       0.04525
  33     6.613        1.3353        0.0000       10.1456       10.1456       8.810337       0.03451
  32     8.786        1.3353        0.0001       10.1386       10.1386       8.803330       0.02721
  31     11.80        1.3353        0.0001       10.1295       10.1296       8.794295       0.02529
  30     15.07        1.3353        0.0001       10.1196       10.1197       8.784425       0.02548
  29     18.79        1.3353        0.0001       10.1076       10.1077       8.772428       0.02720
  28     23.16        1.3353        0.0001       10.0923       10.0924       8.757138       0.02957
  27     28.12        1.3352        0.0002       10.0731       10.0733       8.738062       0.03243
  26     33.73        1.3352        0.0002       10.0500       10.0502       8.714993       0.03469
  25     40.54        1.3352        0.0002       10.0201       10.0204       8.685123       0.03706
  24     48.69        1.3352        0.0003        9.9820        9.9822       8.646997       0.03945
  23     57.69        1.3353        0.0003        9.9384        9.9388       8.603515       0.04076
  22     68.43        1.3353        0.0004        9.8858        9.8862       8.550859       0.04139
  21     81.20        1.3353        0.0005        9.8234        9.8239       8.488570       0.04116
  20     96.49        1.3354        0.0006        9.7518        9.7523       8.416889       0.03956
  19     114.6        1.3356        0.0007        9.6719        9.6726       8.337021       0.03729
  18     136.5        1.3357        0.0008        9.5858        9.5866       8.250827       0.03314
  17     162.9        1.3360        0.0009        9.4940        9.4950       8.158927       0.02938
  16     196.4        1.3365        0.0011        9.3883        9.3894       8.052873       0.02669
  15     218.7        1.3369        0.0012        9.3229        9.3241       7.987241       0.02492
  14     243.0        1.3374        0.0013        9.2520        9.2533       7.915891       0.02475
  13     269.0        1.3382        0.0015        9.1717        9.1731       7.834953       0.02626
  12     297.5        1.3393        0.0016        9.0763        9.0779       7.738603       0.02858
  11     328.5        1.3408        0.0018        8.9650        8.9667       7.625963       0.03063
  10     361.9        1.3427        0.0019        8.8349        8.8368       7.494131       0.03335
   9     398.1        1.3452        0.0021        8.6820        8.6841       7.338857       0.03618
   8     437.6        1.3485        0.0022        8.5028        8.5050       7.156494       0.03899
   7     480.5        1.3528        0.0024        8.2948        8.2972       6.944364       0.04166
   6     533.0        1.3594        0.0026        8.0209        8.0235       6.664070       0.04509
   5     589.8        1.3685        0.0028        7.7063        7.7091       6.340628       0.04801
   4     651.6        1.3817        0.0029        7.3412        7.3441       5.962440       0.05172
   3     718.7        1.4012        0.0031        6.9387        6.9417       5.540480       0.05303
   2     792.3        1.4309        0.0032        6.5066        6.5098       5.078860       0.05294
   1     891.5        1.4928        0.0033        5.9361        5.9394       4.446577       0.05380
   0    1013.0        1.6181        0.0034        5.3025        5.3059       3.687782       0.05269



 Wavenumbers:  5150. -  6150. cm-1, ATM      1
 LEVEL PRESSURE   UPWARD FLUX   DIFDOWN FLUX  DIRDOWN FLUX  DOWNWARD FLUX   NET FLUX    HEATING RATE
          mb          W/m2          W/m2          W/m2        W/m2          W/m2       degree/day
  51    .06700        3.4143        0.0000       25.5798       25.5798      22.165552       0.00000
  50    .07753        3.4143        0.0000       25.5798       25.5798      22.165513       0.03157
  49    .09103        3.4143        0.0000       25.5797       25.5797      22.165461       0.03205
  48    0.1069        3.4143        0.0000       25.5797       25.5797      22.165400       0.03256
  47    0.1255        3.4143        0.0000       25.5796       25.5796      22.165327       0.03306
  46    0.1487        3.4143        0.0000       25.5795       25.5795      22.165232       0.03484
  45    0.1794        3.4143        0.0000       25.5794       25.5794      22.165097       0.03708
  44    0.2165        3.4143        0.0000       25.5792       25.5792      22.164931       0.03764
  43    0.2613        3.4143        0.0000       25.5790       25.5790      22.164728       0.03822
  42    0.3336        3.4143        0.0000       25.5786       25.5786      22.164382       0.04038
  41    0.4307        3.4143        0.0000       25.5782       25.5782      22.163911       0.04092
  40    0.5894        3.4143        0.0000       25.5774       25.5774      22.163123       0.04193
  39     1.339        3.4142        0.0000       25.5735       25.5736      22.159325       0.04276
  38     1.782        3.4142        0.0000       25.5713       25.5713      22.157114       0.04209
  37     2.292        3.4142        0.0001       25.5688       25.5688      22.154612       0.04143
  36     2.964        3.4142        0.0001       25.5656       25.5656      22.151435       0.03989
  35     3.853        3.4142        0.0001       25.5615       25.5616      22.147397       0.03832
  34     5.035        3.4142        0.0001       25.5562       25.5564      22.142199       0.03713
  33     6.613        3.4141        0.0002       25.5494       25.5496      22.135457       0.03604
  32     8.786        3.4141        0.0002       25.5406       25.5408      22.126723       0.03392
  31     11.80        3.4141        0.0003       25.5287       25.5290      22.114915       0.03306
  30     15.07        3.4140        0.0004       25.5167       25.5171      22.103079       0.03056
  29     18.79        3.4140        0.0005       25.5042       25.5047      22.090711       0.02804
  28     23.16        3.4139        0.0006       25.4907       25.4913      22.077395       0.02575
  27     28.12        3.4138        0.0008       25.4764       25.4772      22.063363       0.02385
  26     33.73        3.4138        0.0009       25.4620       25.4629      22.049157       0.02136
  25     40.54        3.4137        0.0011       25.4463       25.4473      22.033643       0.01925
  24     48.69        3.4136        0.0013       25.4294       25.4307      22.017058       0.01716
  23     57.69        3.4135        0.0016       25.4126       25.4142      22.000620       0.01541
  22     68.43        3.4135        0.0018       25.3944       25.3963      21.982802       0.01401
  21     81.20        3.4134        0.0022       25.3744       25.3766      21.963224       0.01294
  20     96.49        3.4133        0.0026       25.3519       25.3545      21.941250       0.01213
  19     114.6        3.4132        0.0031       25.3262       25.3292      21.916074       0.01176
  18     136.5        3.4131        0.0037       25.2962       25.2998      21.886791       0.01126
  17     162.9        3.4129        0.0043       25.2521       25.2564      21.843505       0.01384
  16     196.4        3.4128        0.0052       25.1593       25.1645      21.751717       0.02310
  15     218.7        3.4127        0.0058       25.0159       25.0217      21.608976       0.05419
  14     243.0        3.4127        0.0064       24.7089       24.7153      21.302562       0.10627
  13     269.0        3.4127        0.0069       24.1619       24.1688      20.756016       0.17730
  12     297.5        3.4129        0.0074       23.4544       23.4618      20.048931       0.20971
  11     328.5        3.4132        0.0080       22.7355       22.7435      19.330283       0.19540
  10     361.9        3.4136        0.0085       21.9224       21.9310      18.517340       0.20568
   9     398.1        3.4143        0.0090       20.9939       21.0030      17.588670       0.21636
   8     437.6        3.4153        0.0095       19.9833       19.9928      16.577565       0.21618
   7     480.5        3.4167        0.0100       18.9483       18.9582      15.541564       0.20347
   6     533.0        3.4191        0.0104       17.7796       17.7900      14.370937       0.18832
   5     589.8        3.4230        0.0109       16.6726       16.6835      13.260525       0.16482
   4     651.6        3.4298        0.0114       15.6343       15.6457      12.215846       0.14286
   3     718.7        3.4418        0.0119       14.7738       14.7857      11.343890       0.10958
   2     792.3        3.4637        0.0126       14.0291       14.0417      10.577956       0.08784
   1     891.5        3.5194        0.0133       13.0822       13.0955       9.576102       0.08525
   0    1013.0        3.6752        0.0141       12.0384       12.0525       8.377245       0.08324



 Wavenumbers:  6150. -  7700. cm-1, ATM      1
 LEVEL PRESSURE   UPWARD FLUX   DIFDOWN FLUX  DIRDOWN FLUX  DOWNWARD FLUX   NET FLUX    HEATING RATE
          mb          W/m2          W/m2          W/m2        W/m2          W/m2       degree/day
  51    .06700        5.0527        0.0000       47.3109       47.3109      42.258196       0.00000
  50    .07753        5.0527        0.0000       47.3108       47.3108      42.258140       0.04553
  49    .09103        5.0527        0.0000       47.3107       47.3107      42.258066       0.04583
  48    0.1069        5.0527        0.0000       47.3106       47.3106      42.257980       0.04614
  47    0.1255        5.0527        0.0000       47.3105       47.3105      42.257877       0.04645
  46    0.1487        5.0527        0.0000       47.3104       47.3104      42.257744       0.04852
  45    0.1794        5.0527        0.0000       47.3102       47.3102      42.257557       0.05127
  44    0.2165        5.0526        0.0000       47.3100       47.3100      42.257330       0.05167
  43    0.2613        5.0526        0.0000       47.3097       47.3097      42.257054       0.05210
  42    0.3336        5.0526        0.0000       47.3092       47.3092      42.256585       0.05471
  41    0.4307        5.0526        0.0000       47.3085       47.3086      42.255950       0.05521
  40    0.5894        5.0526        0.0001       47.3074       47.3075      42.254890       0.05633
  39     1.339        5.0525        0.0001       47.3022       47.3023      42.249798       0.05733
  38     1.782        5.0525        0.0002       47.2991       47.2993      42.246828       0.05655
  37     2.292        5.0524        0.0003       47.2956       47.2959      42.243452       0.05591
  36     2.964        5.0524        0.0003       47.2912       47.2915      42.239134       0.05421
  35     3.853        5.0523        0.0004       47.2855       47.2859      42.233599       0.05252
  34     5.035        5.0522        0.0006       47.2780       47.2786      42.226419       0.05129
  33     6.613        5.0520        0.0007       47.2683       47.2691      42.217031       0.05019
  32     8.786        5.0518        0.0010       47.2556       47.2566      42.204732       0.04776
  31     11.80        5.0515        0.0013       47.2380       47.2394      42.187829       0.04732
  30     15.07        5.0512        0.0017       47.2201       47.2218      42.170543       0.04463
  29     18.79        5.0509        0.0021       47.2008       47.2029      42.152064       0.04190
  28     23.16        5.0504        0.0026       47.1795       47.1821      42.131675       0.03943
  27     28.12        5.0500        0.0032       47.1565       47.1596      42.109683       0.03738
  26     33.73        5.0494        0.0038       47.1324       47.1362      42.086764       0.03446
  25     40.54        5.0488        0.0045       47.1054       47.1099      42.061131       0.03180
  24     48.69        5.0480        0.0054       47.0754       47.0809      42.032882       0.02923
  23     57.69        5.0471        0.0064       47.0449       47.0514      42.004266       0.02682
  22     68.43        5.0461        0.0076       47.0110       47.0186      41.972537       0.02494
  21     81.20        5.0449        0.0091       46.9729       46.9819      41.937053       0.02345
  20     96.49        5.0434        0.0108       46.9294       46.9401      41.896727       0.02226
  19     114.6        5.0417        0.0128       46.8790       46.8918      41.850116       0.02176
  18     136.5        5.0396        0.0152       46.8200       46.8351      41.795526       0.02099
  17     162.9        5.0372        0.0180       46.7361       46.7541      41.716965       0.02511
  16     196.4        5.0340        0.0217       46.5703       46.5919      41.557920       0.04003
  15     218.7        5.0320        0.0240       46.3473       46.3713      41.339352       0.08298
  14     243.0        5.0299        0.0265       45.9299       45.9564      40.926508       0.14319
  13     269.0        5.0277        0.0290       45.1708       45.1997      40.172023       0.24475
  12     297.5        5.0256        0.0313       44.0115       44.0428      39.017132       0.34253
  11     328.5        5.0237        0.0336       42.7242       42.7579      37.734190       0.34883
  10     361.9        5.0220        0.0360       41.3539       41.3900      36.367968       0.34567
   9     398.1        5.0207        0.0383       39.7953       39.8336      34.812829       0.36231
   8     437.6        5.0202        0.0404       37.9948       38.0351      33.014908       0.38441
   7     480.5        5.0208        0.0422       36.0647       36.1069      31.086166       0.37880
   6     533.0        5.0236        0.0442       33.7773       33.8215      28.797829       0.36812
   5     589.8        5.0306        0.0458       31.4082       31.4540      26.423379       0.35245
   4     651.6        5.0463        0.0470       28.8834       28.9303      23.884057       0.34726
   3     718.7        5.0767        0.0478       26.4104       26.4582      21.381522       0.31450
   2     792.3        5.1352        0.0484       24.0056       24.0540      18.918851       0.28244
   1     891.5        5.2860        0.0490       21.2348       21.2838      15.997759       0.24857
   0    1013.0        5.6900        0.0496       18.6150       18.6646      12.974616       0.20991



 Wavenumbers:  7700. -  8050. cm-1, ATM      1
 LEVEL PRESSURE   UPWARD FLUX   DIFDOWN FLUX  DIRDOWN FLUX  DOWNWARD FLUX   NET FLUX    HEATING RATE
          mb          W/m2          W/m2          W/m2        W/m2          W/m2       degree/day
  51    .06700        2.6986        0.0000       11.1810       11.1810       8.482340       0.00000
  50    .07753        2.6986        0.0000       11.1809       11.1809       8.482321       0.01564
  49    .09103        2.6986        0.0000       11.1809       11.1809       8.482296       0.01532
  48    0.1069        2.6986        0.0000       11.1809       11.1809       8.482268       0.01500
  47    0.1255        2.6986        0.0000       11.1809       11.1809       8.482236       0.01468
  46    0.1487        2.6986        0.0000       11.1808       11.1808       8.482195       0.01490
  45    0.1794        2.6986        0.0000       11.1808       11.1808       8.482139       0.01533
  44    0.2165        2.6986        0.0000       11.1807       11.1807       8.482073       0.01504
  43    0.2613        2.6986        0.0000       11.1806       11.1806       8.481995       0.01475
  42    0.3336        2.6987        0.0000       11.1805       11.1805       8.481865       0.01510
  41    0.4307        2.6987        0.0000       11.1803       11.1804       8.481693       0.01493
  40    0.5894        2.6987        0.0000       11.1801       11.1801       8.481413       0.01492
  39     1.339        2.6988        0.0001       11.1788       11.1789       8.480086       0.01494
  38     1.782        2.6988        0.0001       11.1781       11.1781       8.479307       0.01484
  37     2.292        2.6989        0.0001       11.1772       11.1773       8.478405       0.01494
  36     2.964        2.6990        0.0001       11.1761       11.1762       8.477220       0.01487
  35     3.853        2.6991        0.0002       11.1746       11.1748       8.475656       0.01484
  34     5.035        2.6993        0.0002       11.1726       11.1728       8.473579       0.01484
  33     6.613        2.6995        0.0003       11.1700       11.1703       8.470804       0.01483
  32     8.786        2.6997        0.0004       11.1664       11.1668       8.467068       0.01451
  31     11.80        2.7001        0.0006       11.1613       11.1619       8.461727       0.01495
  30     15.07        2.7005        0.0007       11.1558       11.1565       8.456001       0.01478
  29     18.79        2.7010        0.0009       11.1497       11.1506       8.449541       0.01465
  28     23.16        2.7016        0.0011       11.1425       11.1436       8.442010       0.01456
  27     28.12        2.7022        0.0013       11.1343       11.1356       8.433417       0.01461
  26     33.73        2.7030        0.0016       11.1252       11.1268       8.423825       0.01442
  25     40.54        2.7038        0.0019       11.1142       11.1161       8.412273       0.01433
  24     48.69        2.7049        0.0023       11.1010       11.1033       8.398399       0.01436
  23     57.69        2.7061        0.0027       11.0866       11.0893       8.383230       0.01422
  22     68.43        2.7075        0.0032       11.0695       11.0727       8.365258       0.01413
  21     81.20        2.7092        0.0038       11.0494       11.0532       8.343982       0.01406
  20     96.49        2.7112        0.0045       11.0255       11.0300       8.318823       0.01389
  19     114.6        2.7137        0.0053       10.9975       11.0029       8.289218       0.01382
  18     136.5        2.7166        0.0063       10.9648       10.9711       8.254495       0.01335
  17     162.9        2.7202        0.0075       10.9263       10.9338       8.213644       0.01306
  16     196.4        2.7249        0.0090       10.8773       10.8863       8.161432       0.01314
  15     218.7        2.7280        0.0100       10.8455       10.8556       8.127562       0.01286
  14     243.0        2.7315        0.0111       10.8114       10.8226       8.091068       0.01266
  13     269.0        2.7353        0.0123       10.7749       10.7872       8.051824       0.01273
  12     297.5        2.7396        0.0135       10.7357       10.7493       8.009655       0.01251
  11     328.5        2.7443        0.0149       10.6937       10.7086       7.964315       0.01233
  10     361.9        2.7496        0.0164       10.6489       10.6652       7.915637       0.01232
   9     398.1        2.7555        0.0179       10.6008       10.6187       7.863226       0.01221
   8     437.6        2.7621        0.0196       10.5491       10.5687       7.806592       0.01211
   7     480.5        2.7696        0.0214       10.4934       10.5149       7.745281       0.01204
   6     533.0        2.7794        0.0236       10.4243       10.4479       7.668534       0.01235
   5     589.8        2.7909        0.0260       10.3479       10.3739       7.582996       0.01270
   4     651.6        2.8049        0.0286       10.2613       10.2899       7.485031       0.01340
   3     718.7        2.8221        0.0312       10.1618       10.1930       7.370880       0.01435
   2     792.3        2.8442        0.0341       10.0439       10.0780       7.233760       0.01573
   1     891.5        2.8817        0.0378        9.8626        9.9004       7.018651       0.01830
   0    1013.0        2.9417        0.0420        9.6103        9.6523       6.710664       0.02139



 Wavenumbers:  8050. - 12850. cm-1, ATM      1
 LEVEL PRESSURE   UPWARD FLUX   DIFDOWN FLUX  DIRDOWN FLUX  DOWNWARD FLUX   NET FLUX    HEATING RATE
          mb          W/m2          W/m2          W/m2        W/m2          W/m2       degree/day
  51    .06700       33.4734        0.0000      156.5418      156.5418     123.068389       0.00000
  50    .07753       33.4733        0.0000      156.5417      156.5417     123.068389       0.00000
  49    .09103       33.4733        0.0001      156.5417      156.5417     123.068389       0.00000
  48    0.1069       33.4733        0.0001      156.5416      156.5417     123.068389      -0.00000
  47    0.1255       33.4733        0.0001      156.5415      156.5417     123.068389      -0.00000
  46    0.1487       33.4732        0.0002      156.5414      156.5416     123.068389      -0.00000
  45    0.1794       33.4732        0.0003      156.5413      156.5416     123.068389       0.00000
  44    0.2165       33.4731        0.0003      156.5412      156.5415     123.068389      -0.00000
  43    0.2613       33.4730        0.0004      156.5410      156.5414     123.068389       0.00000
  42    0.3336       33.4729        0.0006      156.5407      156.5413     123.068389      -0.00000
  41    0.4307       33.4728        0.0008      156.5403      156.5411     123.068389      -0.00000
  40    0.5894       33.4725        0.0012      156.5397      156.5409     123.068389       0.00000
  39     1.339       33.4712        0.0029      156.5367      156.5396     123.068389      -0.00000
  38     1.782       33.4705        0.0039      156.5350      156.5389     123.068389       0.00000
  37     2.292       33.4697        0.0051      156.5330      156.5381     123.068389       0.00000
  36     2.964       33.4685        0.0066      156.5303      156.5369     123.068389       0.00000
  35     3.853       33.4671        0.0086      156.5268      156.5355     123.068389       0.00000
  34     5.035       33.4651        0.0113      156.5222      156.5335     123.068389      -0.00000
  33     6.613       33.4625        0.0149      156.5160      156.5309     123.068389       0.00000
  32     8.786       33.4590        0.0197      156.5076      156.5274     123.068389      -0.00000
  31     11.80       33.4539        0.0267      156.4957      156.5223     123.068389       0.00000
  30     15.07       33.4485        0.0341      156.4828      156.5169     123.068389       0.00000
  29     18.79       33.4424        0.0425      156.4682      156.5107     123.068389      -0.00000
  28     23.16       33.4352        0.0524      156.4512      156.5036     123.068389       0.00000
  27     28.12       33.4270        0.0636      156.4317      156.4953     123.068389      -0.00000
  26     33.73       33.4177        0.0763      156.4099      156.4861     123.068389       0.00000
  25     40.54       33.4066        0.0916      156.3834      156.4750     123.068389       0.00000
  24     48.69       33.3931        0.1100      156.3515      156.4615     123.068389       0.00000
  23     57.69       33.3783        0.1303      156.3164      156.4467     123.068389      -0.00000
  22     68.43       33.3607        0.1545      156.2746      156.4290     123.068389      -0.00000
  21     81.20       33.3396        0.1834      156.2246      156.4080     123.068389      -0.00000
  20     96.49       33.3144        0.2178      156.1649      156.3828     123.068389       0.00000
  19     114.6       33.2845        0.2588      156.0879      156.3468     123.062293       0.00285
  18     136.5       33.2490        0.3075      155.9962      156.3037     123.054720       0.00291
  17     162.9       33.2065        0.3656      155.8831      156.2487     123.042113       0.00403
  16     196.4       33.1514        0.4411      155.7199      156.1611     123.009638       0.00817
  15     218.7       33.1152        0.4907      155.5733      156.0640     122.948860       0.02308
  14     243.0       33.0759        0.5447      155.3367      155.8813     122.805395       0.04976
  13     269.0       33.0338        0.6029      154.9514      155.5543     122.520504       0.09242
  12     297.5       32.9891        0.6655      154.3896      155.0551     122.066000       0.13480
  11     328.5       32.9418        0.7328      153.7151      154.4479     121.506139       0.15222
  10     361.9       32.8924        0.8050      152.9087      153.7137     120.821350       0.17326
   9     398.1       32.8416        0.8820      151.8986      152.7806     119.939018       0.20556
   8     437.6       32.7908        0.9636      150.6031      151.5667     118.775969       0.24867
   7     480.5       32.7416        1.0494      149.0014      150.0508     117.309220       0.28806
   6     533.0       32.6911        1.1527      146.7375      147.8902     115.199138       0.33945
   5     589.8       32.6548        1.2599      143.8730      145.1329     112.478104       0.40389
   4     651.6       32.6534        1.3684      140.0955      141.4639     108.810506       0.50155
   3     718.7       32.7136        1.4770      135.5278      137.0048     104.291156       0.56796
   2     792.3       32.8938        1.5825      130.0690      131.6515      98.757727       0.63462
   1     891.5       33.4432        1.7067      122.1273      123.8340      90.390848       0.71198
   0    1013.0       34.9105        1.8364      112.9512      114.7876      79.877127       0.73002



 Wavenumbers: 12850. - 16000. cm-1, ATM      1
 LEVEL PRESSURE   UPWARD FLUX   DIFDOWN FLUX  DIRDOWN FLUX  DOWNWARD FLUX   NET FLUX    HEATING RATE
          mb          W/m2          W/m2          W/m2        W/m2          W/m2       degree/day
  51    .06700       47.4228        0.0000       98.0872       98.0872      50.664457       0.00000
  50    .07753       47.4228        0.0001       98.0864       98.0864      50.663672       0.62874
  49    .09103       47.4227        0.0001       98.0853       98.0854      50.662688       0.61489
  48    0.1069       47.4227        0.0002       98.0841       98.0843      50.661560       0.60065
  47    0.1255       47.4227        0.0003       98.0826       98.0830      50.660266       0.58658
  46    0.1487       47.4227        0.0005       98.0809       98.0813      50.658637       0.59380
  45    0.1794       47.4226        0.0006       98.0784       98.0791      50.656426       0.60686
  44    0.2165       47.4226        0.0008       98.0756       98.0765      50.653834       0.58980
  43    0.2613       47.4226        0.0011       98.0723       98.0734      50.650795       0.57277
  42    0.3336       47.4226        0.0015       98.0670       98.0685      50.645857       0.57577
  41    0.4307       47.4227        0.0020       98.0602       98.0622      50.639502       0.55249
  40    0.5894       47.4229        0.0029       98.0496       98.0525      50.629564       0.52851
  39     1.339       47.4256        0.0070       98.0043       98.0114      50.585761       0.49314
  38     1.782       47.4285        0.0094       97.9793       97.9887      50.560264       0.48541
  37     2.292       47.4330        0.0123       97.9498       97.9620      50.529057       0.51688
  36     2.964       47.4407        0.0159       97.9088       97.9248      50.484031       0.56522
  35     3.853       47.4535        0.0208       97.8503       97.8712      50.417606       0.63038
  34     5.035       47.4731        0.0273       97.7680       97.7953      50.322160       0.68182
  33     6.613       47.5005        0.0359       97.6562       97.6921      50.191567       0.69815
  32     8.786       47.5361        0.0475       97.5107       97.5582      50.022082       0.65822
  31     11.80       47.5820        0.0641       97.3179       97.3820      49.799975       0.62183
  30     15.07       47.6254        0.0819       97.1283       97.2102      49.584825       0.55548
  29     18.79       47.6691        0.1019       96.9300       97.0320      49.362819       0.50336
  28     23.16       47.7142        0.1254       96.7166       96.8419      49.127729       0.45459
  27     28.12       47.7586        0.1521       96.4935       96.6456      48.886968       0.40928
  26     33.73       47.7982        0.1820       96.2731       96.4551      48.656915       0.34589
  25     40.54       47.8342        0.2181       96.0408       96.2589      48.424660       0.28814
  24     48.69       47.8663        0.2617       95.7946       96.0562      48.189919       0.24292
  23     57.69       47.8905        0.3095       95.5573       95.8667      47.976260       0.20027
  22     68.43       47.9073        0.3664       95.3106       95.6770      47.769735       0.16236
  21     81.20       47.9109        0.4343       95.0643       95.4986      47.587759       0.12025
  20     96.49       47.9000        0.5152       94.8153       95.3305      47.430542       0.08677
  19     114.6       47.8876        0.6121       94.5411       95.1531      47.265500       0.07706
  18     136.5       47.8661        0.7269       94.2320       94.9589      47.092787       0.06641
  17     162.9       47.8340        0.8634       93.8753       94.7387      46.904707       0.06012
  16     196.4       47.7789        1.0403       93.4347       94.4750      46.696164       0.05249
  15     218.7       47.7377        1.1565       93.1513       94.3077      46.570037       0.04789
  14     243.0       47.6908        1.2826       92.8439       94.1265      46.435711       0.04659
  13     269.0       47.6380        1.4192       92.5111       93.9303      46.292332       0.04651
  12     297.5       47.5792        1.5667       92.1495       93.7161      46.136905       0.04610
  11     328.5       47.5155        1.7259       91.7554       93.4813      45.965803       0.04652
  10     361.9       47.4470        1.8971       91.3262       93.2233      45.776366       0.04793
   9     398.1       47.3742        2.0812       90.8575       92.9387      45.564578       0.04934
   8     437.6       47.2983        2.2785       90.3418       92.6203      45.322009       0.05186
   7     480.5       47.2207        2.4896       89.7728       92.2624      45.041756       0.05504
   6     533.0       47.1325        2.7488       89.0428       91.7916      44.659120       0.06155
   5     589.8       47.0516        3.0267       88.2038       91.2305      44.178863       0.07129
   4     651.6       46.9945        3.3228       87.1979       90.5207      43.526211       0.08925
   3     718.7       46.9718        3.6356       86.0161       89.6517      42.679968       0.10635
   2     792.3       47.0186        3.9615       84.5970       88.5586      41.539972       0.13074
   1     891.5       47.2505        4.3833       82.4374       86.8208      39.570229       0.16762
   0    1013.0       47.8665        4.8641       79.6182       84.4823      36.615838       0.20514



 Wavenumbers: 16000. - 22650. cm-1, ATM      1
 LEVEL PRESSURE   UPWARD FLUX   DIFDOWN FLUX  DIRDOWN FLUX  DOWNWARD FLUX   NET FLUX    HEATING RATE
          mb          W/m2          W/m2          W/m2        W/m2          W/m2       degree/day
  51    .06700      115.2794        0.0000      156.3892      156.3892      41.109863       0.00000
  50    .07753      115.2793        0.0004      156.3887      156.3890      41.109728       0.10872
  49    .09103      115.2792        0.0008      156.3879      156.3888      41.109530       0.12331
  48    0.1069      115.2792        0.0014      156.3871      156.3884      41.109266       0.14062
  47    0.1255      115.2791        0.0020      156.3861      156.3880      41.108913       0.16028
  46    0.1487      115.2791        0.0027      156.3847      156.3875      41.108392       0.18993
  45    0.1794      115.2790        0.0038      156.3828      156.3866      41.107577       0.22363
  44    0.2165      115.2791        0.0051      156.3805      156.3855      41.106472       0.25134
  43    0.2613      115.2792        0.0065      156.3776      156.3842      41.104973       0.28256
  42    0.3336      115.2795        0.0090      156.3726      156.3816      41.102123       0.33229
  41    0.4307      115.2801        0.0122      156.3657      156.3779      41.097827       0.37352
  40    0.5894      115.2816        0.0175      156.3537      156.3712      41.089634       0.43570
  39     1.339      115.2970        0.0426      156.2834      156.3261      41.029104       0.68145
  38     1.782      115.3122        0.0574      156.2324      156.2897      40.977542       0.98165
  37     2.292      115.3356        0.0744      156.1641      156.2385      40.902909       1.23612
  36     2.964      115.3753        0.0968      156.0605      156.1573      40.782011       1.51764
  35     3.853      115.4403        0.1264      155.9041      156.0304      40.590195       1.82037
  34     5.035      115.5389        0.1656      155.6774      155.8430      40.304063       2.04400
  33     6.613      115.6770        0.2179      155.3656      155.5835      39.906511       2.12532
  32     8.786      115.8566        0.2883      154.9577      155.2460      39.389357       2.00844
  31     11.80      116.0893        0.3889      154.4153      154.8041      38.714864       1.88837
  30     15.07      116.3107        0.4966      153.8804      154.3770      38.066306       1.67445
  29     18.79      116.5354        0.6182      153.3191      153.9373      37.401886       1.50645
  28     23.16      116.7683        0.7599      152.7126      153.4724      36.704075       1.34934
  27     28.12      117.0004        0.9216      152.0755      152.9971      35.996724       1.20245
  26     33.73      117.2107        1.1024      151.4409      152.5433      35.332636       0.99847
  25     40.54      117.4076        1.3205      150.7637      152.0842      34.676604       0.81388
  24     48.69      117.5895        1.5831      150.0338      151.6170      34.027458       0.67176
  23     57.69      117.7357        1.8711      149.3151      151.1863      33.450599       0.54072
  22     68.43      117.8519        2.2136      148.5476      150.7612      32.909356       0.42549
  21     81.20      117.9111        2.6213      147.7517      150.3729      32.461850       0.29571
  20     96.49      117.9081        3.1063      146.9127      150.0189      32.110845       0.19373
  19     114.6      117.8668        3.6801      145.9763      149.6564      31.789654       0.14997
  18     136.5      117.7923        4.3574      144.9088      149.2662      31.473859       0.12143
  17     162.9      117.6804        5.1595      143.6785      148.8381      31.157720       0.10105
  16     196.4      117.4851        6.1936      142.1651      148.3587      30.873592       0.07152
  15     218.7      117.3385        6.8688      141.2033      148.0722      30.733707       0.05311
  14     243.0      117.1706        7.5992      140.1753      147.7745      30.603849       0.04504
  13     269.0      116.9800        8.3865      139.0797      147.4662      30.486209       0.03816
  12     297.5      116.7655        9.2326      137.9141      147.1466      30.381116       0.03117
  11     328.5      116.5299       10.1412      136.6676      146.8088      30.278897       0.02779
  10     361.9      116.2726       11.1131      135.3392      146.4522      30.179677       0.02510
   9     398.1      115.9925       12.1517      133.9235      146.0751      30.082642       0.02261
   8     437.6      115.6899       13.2586      132.4163      145.6748      29.984939       0.02089
   7     480.5      115.3639       14.4355      130.8147      145.2502      29.886305       0.01937
   6     533.0      114.9621       15.8710      128.8599      144.7309      29.768819       0.01890
   5     589.8      114.5313       17.4022      126.7679      144.1702      29.638862       0.01929
   4     651.6      114.0755       19.0300      124.5274      143.5575      29.481930       0.02146
   3     718.7      113.5986       20.7553      122.1285      142.8837      29.285152       0.02473
   2     792.3      113.1128       22.5752      119.5548      142.1300      29.017161       0.03074
   1     891.5      112.5182       24.9837      116.0566      141.0403      28.522069       0.04213
   0    1013.0      111.9041       27.8025      111.8404      139.6429      27.738835       0.05438



 Wavenumbers: 22650. - 29000. cm-1, ATM      1
 LEVEL PRESSURE   UPWARD FLUX   DIFDOWN FLUX  DIRDOWN FLUX  DOWNWARD FLUX   NET FLUX    HEATING RATE
          mb          W/m2          W/m2          W/m2        W/m2          W/m2       degree/day
  51    .06700       48.6279        0.0000       59.0156       59.0156      10.387726       0.00000
  50    .07753       48.6278        0.0004       59.0151       59.0155      10.387726      -0.00000
  49    .09103       48.6276        0.0010       59.0144       59.0153      10.387726       0.00000
  48    0.1069       48.6274        0.0016       59.0136       59.0152      10.387726       0.00000
  47    0.1255       48.6272        0.0023       59.0127       59.0150      10.387726      -0.00000
  46    0.1487       48.6270        0.0032       59.0115       59.0147      10.387726       0.00000
  45    0.1794       48.6266        0.0044       59.0099       59.0144      10.387726       0.00000
  44    0.2165       48.6262        0.0059       59.0080       59.0140      10.387726      -0.00000
  43    0.2613       48.6257        0.0076       59.0058       59.0135      10.387726      -0.00000
  42    0.3336       48.6249        0.0105       59.0022       59.0127      10.387726       0.00000
  41    0.4307       48.6239        0.0143       58.9973       59.0116      10.387726       0.00000
  40    0.5894       48.6221        0.0205       58.9894       59.0099      10.387726       0.00000
  39     1.339       48.6139        0.0498       58.9518       59.0016      10.387726      -0.00000
  38     1.782       48.6091        0.0671       58.9297       58.9968      10.387726       0.00000
  37     2.292       48.6035        0.0870       58.9042       58.9912      10.387726       0.00000
  36     2.964       48.5961        0.1132       58.8706       58.9838      10.387726       0.00000
  35     3.853       48.5864        0.1478       58.8264       58.9741      10.387726      -0.00000
  34     5.035       48.5735        0.1937       58.7676       58.9613      10.387726       0.00000
  33     6.613       48.5563        0.2549       58.6891       58.9440      10.387726       0.00000
  32     8.786       48.5331        0.3374       58.5834       58.9209      10.387726      -0.00000
  31     11.80       48.5000        0.4553       58.4324       58.8877      10.387726      -0.00000
  30     15.07       48.4644        0.5815       58.2706       58.8522      10.387726       0.00000
  29     18.79       48.4243        0.7238       58.0882       58.8120      10.387726      -0.00000
  28     23.16       48.3775        0.8895       57.8757       58.7652      10.387726       0.00000
  27     28.12       48.3241        1.0785       57.6333       58.7118      10.387726       0.00000
  26     33.73       48.2644        1.2891       57.3631       58.6522      10.387726       0.00000
  25     40.54       48.1926        1.5424       57.0379       58.5803      10.387726       0.00000
  24     48.69       48.1062        1.8460       56.6479       58.4939      10.387726       0.00000
  23     57.69       48.0117        2.1773       56.2221       58.3994      10.387726       0.00000
  22     68.43       47.8996        2.5688       55.7186       58.2873      10.387726      -0.00000
  21     81.20       47.7669        3.0307       55.1239       58.1546      10.387726       0.00000
  20     96.49       47.6098        3.5747       54.4228       57.9975      10.387726       0.00000
  19     114.6       47.4249        4.2116       53.6010       57.8126      10.387726       0.00000
  18     136.5       47.2079        4.9538       52.6418       57.5956      10.387726       0.00000
  17     162.9       46.9525        5.8199       51.5203       57.3403      10.387726      -0.00000
  16     196.4       46.6264        6.9147       50.0994       57.0141      10.387726       0.00000
  15     218.7       46.4151        7.6166       49.1863       56.8029      10.387726      -0.00000
  14     243.0       46.1881        8.3646       48.2113       56.5758      10.387726       0.00000
  13     269.0       45.9451        9.1579       47.1749       56.3328      10.387726      -0.00000
  12     297.5       45.6858        9.9953       46.0783       56.0735      10.387726       0.00000
  11     328.5       45.4095       10.8777       44.9195       55.7972      10.387726       0.00000
  10     361.9       45.1163       11.8022       43.7018       55.5040      10.387726      -0.00000
   9     398.1       44.8056       12.7683       42.4250       55.1933      10.387726       0.00000
   8     437.6       44.4773       13.7734       41.0916       54.8651      10.387726       0.00000
   7     480.5       44.1314       14.8147       39.7045       54.5192      10.387726       0.00000
   6     533.0       43.7136       16.0471       38.0543       54.1014      10.387726      -0.00000
   5     589.8       43.2726       17.3173       36.3431       53.6603      10.387726       0.00000
   4     651.6       42.8088       18.6169       34.5795       53.1965      10.387726      -0.00000
   3     718.7       42.3221       19.9396       32.7702       52.7098      10.387726       0.00000
   2     792.3       41.8132       21.2754       30.9256       52.2009      10.387726      -0.00000
   1     891.5       41.1448       22.9547       28.5778       51.5325      10.387726       0.00000
   0    1013.0       40.3686       24.7898       25.9665       50.7563      10.387726       0.00000



 Wavenumbers: 29000. - 38000. cm-1, ATM      1
 LEVEL PRESSURE   UPWARD FLUX   DIFDOWN FLUX  DIRDOWN FLUX  DOWNWARD FLUX   NET FLUX    HEATING RATE
          mb          W/m2          W/m2          W/m2        W/m2          W/m2       degree/day
  51    .06700        7.4559        0.0000       20.8114       20.8114      13.355470       0.00000
  50    .07753        7.4557        0.0003       20.8070       20.8074      13.351665       3.05018
  49    .09103        7.4555        0.0007       20.8009       20.8016      13.346130       3.45927
  48    0.1069        7.4552        0.0012       20.7928       20.7939      13.338724       3.94246
  47    0.1255        7.4549        0.0017       20.7820       20.7837      13.328824       4.48823
  46    0.1487        7.4545        0.0023       20.7665       20.7688      13.314267       5.30589
  45    0.1794        7.4540        0.0032       20.7424       20.7456      13.291614       6.21900
  44    0.2165        7.4535        0.0042       20.7103       20.7146      13.261106       6.93992
  43    0.2613        7.4528        0.0055       20.6675       20.6730      13.220133       7.72334
  42    0.3336        7.4518        0.0075       20.5880       20.5954      13.143613       8.92147
  41    0.4307        7.4506        0.0101       20.4722       20.4823      13.031723       9.72853
  40    0.5894        7.4488        0.0143       20.2637       20.2780      12.829163      10.77191
  39     1.339        7.4439        0.0322       19.0984       19.1305      11.686622      12.86294
  38     1.782        7.4433        0.0414       18.4394       18.4808      11.037488      12.35845
  37     2.292        7.4444        0.0513       17.7714       17.8227      10.378266      10.91843
  36     2.964        7.4487        0.0635       17.0421       17.1056       9.656930       9.05496
  35     3.853        7.4580        0.0787       16.2678       16.3466       8.888548       7.29208
  34     5.035        7.4741        0.0980       15.4803       15.5783       8.104186       5.60316
  33     6.613        7.4979        0.1226       14.7157       14.8383       7.340317       4.08365
  32     8.786        7.5295        0.1547       13.9936       14.1483       6.618815       2.80205
  31     11.80        7.5704        0.1995       13.2835       13.4830       5.912649       1.97704
  30     15.07        7.6094        0.2458       12.7394       12.9851       5.375756       1.38615
  29     18.79        7.6493        0.2970       12.2666       12.5636       4.914322       1.04621
  28     23.16        7.6912        0.3552       11.8300       12.1852       4.493968       0.81283
  27     28.12        7.7335        0.4202       11.4279       11.8481       4.114540       0.64500
  26     33.73        7.7713        0.4918       11.0695       11.5612       3.789958       0.48802
  25     40.54        7.8051        0.5772       10.7209       11.2981       3.492949       0.36847
  24     48.69        7.8346        0.6783       10.3742       11.0525       3.217844       0.28469
  23     57.69        7.8558        0.7876       10.0549       10.8425       2.986644       0.21672
  22     68.43        7.8684        0.9156        9.7327       10.6483       2.779888       0.16254
  21     81.20        7.8642        1.0664        9.4134       10.4798       2.615646       0.10853
  20     96.49        7.8411        1.2434        9.0887       10.3321       2.491077       0.06875
  19     114.6        7.8055        1.4473        8.7388       10.1861       2.380609       0.05158
  18     136.5        7.7595        1.6797        8.3549       10.0346       2.275053       0.04059
  17     162.9        7.7024        1.9435        7.9311        9.8746       2.172186       0.03288
  16     196.4        7.6197        2.2686        7.4333        9.7019       2.082145       0.02266
  15     218.7        7.5632        2.4721        7.1295        9.6016       2.038448       0.01659
  14     243.0        7.5017        2.6839        6.8161        9.5000       1.998259       0.01394
  13     269.0        7.4351        2.9031        6.4943        9.3974       1.962327       0.01166
  12     297.5        7.3633        3.1284        6.1657        9.2941       1.930797       0.00935
  11     328.5        7.2874        3.3587        5.8295        9.1882       1.900756       0.00817
  10     361.9        7.2078        3.5915        5.4886        9.0801       1.872340       0.00719
   9     398.1        7.1244        3.8260        5.1440        8.9699       1.845566       0.00624
   8     437.6        7.0375        4.0604        4.7969        8.8574       1.819916       0.00548
   7     480.5        6.9473        4.2926        4.4504        8.7430       1.795735       0.00475
   6     533.0        6.8402        4.5535        4.0563        8.6098       1.769582       0.00421
   5     589.8        6.7297        4.8060        3.6682        8.4742       1.744493       0.00372
   4     651.6        6.6164        5.0460        3.2905        8.3366       1.720194       0.00332
   3     718.7        6.5002        5.2717        2.9252        8.1969       1.696658       0.00296
   2     792.3        6.3818        5.4793        2.5764        8.0557       1.673896       0.00261
   1     891.5        6.2304        5.7107        2.1659        7.8766       1.646213       0.00236
   0    1013.0        6.0600        5.9236        1.7526        7.6762       1.616235       0.00208



 Wavenumbers: 38000. - 50000. cm-1, ATM      1
 LEVEL PRESSURE   UPWARD FLUX   DIFDOWN FLUX  DIRDOWN FLUX  DOWNWARD FLUX   NET FLUX    HEATING RATE
          mb          W/m2          W/m2          W/m2        W/m2          W/m2       degree/day
  51    .06700        0.0061        0.0000        1.2836        1.2836       1.277518       0.00000
  50    .07753        0.0061        0.0001        1.2812        1.2812       1.275183       1.87150
  49    .09103        0.0060        0.0002        1.2777        1.2778       1.271851       2.08247
  48    0.1069        0.0059        0.0002        1.2731        1.2734       1.267473       2.33059
  47    0.1255        0.0058        0.0004        1.2672        1.2675       1.261717       2.60908
  46    0.1487        0.0057        0.0005        1.2586        1.2591       1.253391       3.03499
  45    0.1794        0.0055        0.0007        1.2455        1.2462       1.240623       3.50520
  44    0.2165        0.0054        0.0009        1.2282        1.2291       1.223697       3.85037
  43    0.2613        0.0052        0.0011        1.2054        1.2065       1.201348       4.21261
  42    0.3336        0.0049        0.0015        1.1639        1.1654       1.160524       4.75970
  41    0.4307        0.0045        0.0020        1.1051        1.1070       1.102565       5.03943
  40    0.5894        0.0039        0.0026        1.0039        1.0064       1.002524       5.32007
  39     1.339        0.0022        0.0035        0.5438        0.5473       0.545104       5.14971
  38     1.782        0.0016        0.0032        0.3635        0.3666       0.365006       3.42879
  37     2.292        0.0012        0.0027        0.2356        0.2383       0.237058       2.11916
  36     2.964        0.0009        0.0022        0.1455        0.1477       0.146786       1.13318
  35     3.853        0.0006        0.0017        0.0858        0.0875       0.086906       0.56828
  34     5.035        0.0004        0.0013        0.0488        0.0501       0.049701       0.26578
  33     6.613        0.0003        0.0010        0.0273        0.0282       0.027974       0.11615
  32     8.786        0.0002        0.0007        0.0144        0.0151       0.014928       0.05067
  31     11.80        0.0001        0.0004        0.0065        0.0070       0.006903       0.02247
  30     15.07        0.0000        0.0003        0.0031        0.0034       0.003329       0.00923
  29     18.79        0.0000        0.0002        0.0014        0.0016       0.001583       0.00396
  28     23.16        0.0000        0.0001        0.0006        0.0007       0.000720       0.00167
  27     28.12        0.0000        0.0001        0.0003        0.0003       0.000317       0.00069
  26     33.73        0.0000        0.0000        0.0001        0.0001       0.000140       0.00027
  25     40.54        0.0000        0.0000        0.0000        0.0001       0.000057       0.00010
  24     48.69        0.0000        0.0000        0.0000        0.0000       0.000021       0.00004
  23     57.69        0.0000        0.0000        0.0000        0.0000       0.000008       0.00001
  22     68.43        0.0000        0.0000        0.0000        0.0000       0.000003       0.00000
  21     81.20        0.0000        0.0000        0.0000        0.0000       0.000001       0.00000
  20     96.49        0.0000        0.0000        0.0000        0.0000       0.000000       0.00000
  19     114.6        0.0000        0.0000        0.0000        0.0000       0.000000       0.00000
  18     136.5        0.0000        0.0000        0.0000        0.0000       0.000000       0.00000
  17     162.9        0.0000        0.0000        0.0000        0.0000       0.000000       0.00000
  16     196.4        0.0000        0.0000        0.0000        0.0000       0.000000       0.00000
  15     218.7        0.0000        0.0000        0.0000        0.0000       0.000000       0.00000
  14     243.0        0.0000        0.0000        0.0000        0.0000       0.000000       0.00000
  13     269.0        0.0000        0.0000        0.0000        0.0000       0.000000       0.00000
  12     297.5        0.0000        0.0000        0.0000        0.0000       0.000000       0.00000
  11     328.5        0.0000        0.0000        0.0000        0.0000       0.000000       0.00000
  10     361.9        0.0000        0.0000        0.0000        0.0000       0.000000       0.00000
   9     398.1        0.0000        0.0000        0.0000        0.0000       0.000000       0.00000
   8     437.6        0.0000        0.0000        0.0000        0.0000       0.000000       0.00000
   7     480.5        0.0000        0.0000        0.0000        0.0000       0.000000       0.00000
   6     533.0        0.0000        0.0000        0.0000        0.0000       0.000000       0.00000
   5     589.8        0.0000        0.0000        0.0000        0.0000       0.000000       0.00000
   4     651.6        0.0000        0.0000        0.0000        0.0000       0.000000       0.00000
   3     718.7        0.0000        0.0000        0.0000        0.0000       0.000000       0.00000
   2     792.3        0.0000        0.0000        0.0000        0.0000       0.000000       0.00000
   1     891.5        0.0000        0.0000        0.0000        0.0000       0.000000       0.00000
   0    1013.0        0.0000        0.0000        0.0000        0.0000       0.000000       0.00000



 Wavenumbers:   820. -  2600. cm-1, ATM      1
 LEVEL PRESSURE   UPWARD FLUX   DIFDOWN FLUX  DIRDOWN FLUX  DOWNWARD FLUX   NET FLUX    HEATING RATE
          mb          W/m2          W/m2          W/m2        W/m2          W/m2       degree/day
  51    .06700        0.3260        0.0000        6.0047        6.0047       5.678606       0.00000
  50    .07753        0.3260        0.0000        6.0008        6.0008       5.674753       3.08819
  49    .09103        0.3260        0.0000        5.9999        5.9999       5.673867       0.55356
  48    0.1069        0.3260        0.0000        5.9989        5.9989       5.672878       0.52651
  47    0.1255        0.3260        0.0000        5.9978        5.9978       5.671761       0.50648
  46    0.1487        0.3260        0.0000        5.9964        5.9964       5.670404       0.49455
  45    0.1794        0.3260        0.0000        5.9947        5.9947       5.668685       0.47198
  44    0.2165        0.3260        0.0000        5.9929        5.9929       5.666843       0.41908
  43    0.2613        0.3260        0.0000        5.9909        5.9909       5.664884       0.36931
  42    0.3336        0.3260        0.0000        5.9880        5.9880       5.662006       0.33554
  41    0.4307        0.3260        0.0000        5.9846        5.9846       5.658537       0.30163
  40    0.5894        0.3260        0.0000        5.9791        5.9791       5.653032       0.29274
  39     1.339        0.3260        0.0000        5.9536        5.9536       5.627546       0.28692
  38     1.782        0.3260        0.0000        5.9395        5.9395       5.613409       0.26915
  37     2.292        0.3260        0.0000        5.9237        5.9237       5.597659       0.26086
  36     2.964        0.3260        0.0000        5.9039        5.9039       5.577887       0.24821
  35     3.853        0.3260        0.0000        5.8793        5.8793       5.553232       0.23397
  34     5.035        0.3260        0.0000        5.8487        5.8487       5.522672       0.21831
  33     6.613        0.3261        0.0000        5.8108        5.8108       5.484710       0.20294
  32     8.786        0.3261        0.0000        5.7631        5.7631       5.437091       0.18494
  31     11.80        0.3261        0.0000        5.7039        5.7039       5.377839       0.16589
  30     15.07        0.3261        0.0000        5.6539        5.6539       5.327806       0.12918
  29     18.79        0.3261        0.0000        5.6127        5.6127       5.286675       0.09326
  28     23.16        0.3261        0.0000        5.5794        5.5794       5.253304       0.06453
  27     28.12        0.3261        0.0000        5.5518        5.5518       5.225742       0.04685
  26     33.73        0.3261        0.0000        5.5268        5.5268       5.200692       0.03766
  25     40.54        0.3261        0.0000        5.4993        5.4993       5.173251       0.03404
  24     48.69        0.3261        0.0000        5.4678        5.4678       5.141711       0.03264
  23     57.69        0.3261        0.0000        5.4340        5.4340       5.107923       0.03167
  22     68.43        0.3261        0.0000        5.3947        5.3948       5.068647       0.03088
  21     81.20        0.3261        0.0000        5.3497        5.3497       5.023610       0.02976
  20     96.49        0.3261        0.0000        5.2982        5.2982       4.972091       0.02843
  19     114.6        0.3261        0.0000        5.2389        5.2389       4.912761       0.02770
  18     136.5        0.3262        0.0000        5.1716        5.1717       4.845494       0.02587
  17     162.9        0.3262        0.0000        5.0890        5.0890       4.762844       0.02642
  16     196.4        0.3263        0.0000        4.9668        4.9668       4.640576       0.03078
  15     218.7        0.3263        0.0000        4.8585        4.8585       4.532159       0.04116
  14     243.0        0.3264        0.0000        4.7078        4.7079       4.381452       0.05227
  13     269.0        0.3266        0.0000        4.5343        4.5343       4.207729       0.05635
  12     297.5        0.3268        0.0000        4.3419        4.3420       4.015178       0.05711
  11     328.5        0.3271        0.0000        4.1281        4.1281       3.801034       0.05823
  10     361.9        0.3275        0.0000        3.8786        3.8787       3.551132       0.06323
   9     398.1        0.3281        0.0000        3.6159        3.6159       3.287829       0.06134
   8     437.6        0.3289        0.0000        3.3759        3.3759       3.047012       0.05149
   7     480.5        0.3298        0.0000        3.1957        3.1958       2.865964       0.03556
   6     533.0        0.3313        0.0000        3.0467        3.0467       2.715418       0.02422
   5     589.8        0.3335        0.0000        2.9023        2.9023       2.568821       0.02176
   4     651.6        0.3375        0.0000        2.7183        2.7184       2.380863       0.02570
   3     718.7        0.3444        0.0000        2.5058        2.5059       2.161409       0.02758
   2     792.3        0.3572        0.0000        2.2756        2.2757       1.918433       0.02787
   1     891.5        0.3898        0.0000        1.9621        1.9622       1.572348       0.02945
   0    1013.0        0.4718        0.0000        1.5468        1.5469       1.075081       0.03453

  Modules and versions used in this calculation:

       rrtmg_sw.1col.f90:  $Revision$                    rrtmg_sw_init.f90:  $Revision$        
     rrtmgsw_cldprop.f90:  $Revision$                  rrtmgsw_cldprmc.f90:  NOT USED          
     rrtmg_sw_reftra.f90:  $Revision$                  rrtmg_sw_spcvrt.f90:  NOT USED          
     rrtmg_sw_spcvmc.f90:  NOT USED                    rrtmgsw_setcoef.f90:  NOT USED          
     rrtmg_sw_taumol.f90:  $Revision$                  rrtmg_sw_vrtqdr.f90:  NOT USED          
                rrtatm.f:  NOT USED                             util_xxx.f:  NOT USED          
                 extra.f:  NOT USED                       rrtmg_sw_k_g.f90:  $Revision$        

