

 Wavenumbers:   820. - 50000. cm-1, ATM      1
 LEVEL PRESSURE   UPWARD FLUX   DIFDOWN FLUX  DIRDOWN FLUX  DOWNWARD FLUX   NET FLUX    HEATING RATE
          mb          W/m2          W/m2          W/m2        W/m2          W/m2       degree/day
  51    .06700      343.5590        0.0000      617.8126      617.8126     274.253593       0.00000
  50    .07753      343.5585        0.0013      617.7947      617.7960     274.237468      12.92454
  49    .09103      343.5580        0.0029      617.7778      617.7807     274.222680       9.24295
  48    0.1069      343.5574        0.0048      617.7581      617.7628     274.205447       9.17298
  47    0.1255      343.5567        0.0069      617.7340      617.7409     274.184141       9.65918
  46    0.1487      343.5560        0.0096      617.7009      617.7105     274.154512      10.80006
  45    0.1794      343.5550        0.0132      617.6521      617.6653     274.110370      12.11812
  44    0.2165      343.5539        0.0176      617.5895      617.6071     274.053169      13.01228
  43    0.2613      343.5528        0.0227      617.5089      617.5316     273.978819      14.01463
  42    0.3336      343.5512        0.0311      617.3641      617.3952     273.844044      15.71346
  41    0.4307      343.5494        0.0422      617.1591      617.2013     273.651888      16.70753
  40    0.5894      343.5475        0.0601      616.8005      616.8605     273.313089      18.01688
  39     1.339      343.5539        0.1407      614.9443      615.0849     271.531076      20.06223
  38     1.782      343.5685        0.1859      613.9670      614.1529     270.584428      18.02265
  37     2.292      343.5953        0.2374      613.0059      613.2433     269.647919      15.51104
  36     2.964      343.6453        0.3042      611.9577      612.2619     268.616543      12.94689
  35     3.853      343.7319        0.3918      610.8024      611.1942     267.462294      10.95403
  34     5.035      343.8672        0.5073      609.5327      610.0400     266.172888       9.21098
  33     6.613      344.0587        0.6606      608.1464      608.8071     264.748371       7.61547
  32     8.786      344.3077        0.8663      606.6250      607.4913     263.183596       6.07702
  31     11.80      344.6275        1.1589      604.8486      606.0075     261.380058       5.04934
  30     15.07      344.9284        1.4710      603.2440      604.7149     259.786564       4.11409
  29     18.79      345.2304        1.8220      601.6511      603.4732     258.242769       3.50026
  28     23.16      345.5395        2.2298      599.9927      602.2225     256.682949       3.01619
  27     28.12      345.8419        2.6937      598.2881      600.9817     255.139853       2.62316
  26     33.73      346.1052        3.2106      596.5951      599.8057     253.700425       2.16422
  25     40.54      346.3361        3.8327      594.7727      598.6054     252.269263       1.77552
  24     48.69      346.5299        4.5788      592.7865      597.3653     250.835393       1.48383
  23     57.69      346.6608        5.3940      590.7959      596.1899     249.529117       1.22444
  22     68.43      346.7276        6.3592      588.6191      594.9782     248.250620       1.00507
  21     81.20      346.6836        7.5028      586.2690      593.7717     247.088155       0.76814
  20     96.49      346.5165        8.8559      583.6961      592.5520     246.035441       0.58102
  19     114.6      346.2708       10.4461      580.7708      591.2170     244.946156       0.50862
  18     136.5      345.9427       12.3063      577.4359      589.7422     243.799470       0.44093
  17     162.9      345.5210       14.4866      573.5624      588.0490     242.527978       0.40642
  16     196.4      344.9021       17.2627      568.5907      585.8534     240.951352       0.39686
  15     218.7      344.4725       19.0551      565.0572      584.1123     239.639829       0.49794
  14     243.0      343.9992       20.9752      560.7495      581.7247     237.725496       0.66395
  13     269.0      343.4824       23.0238      555.3947      578.4185     234.936074       0.90488
  12     297.5      342.9254       25.2009      548.9964      574.1973     231.271931       1.08674
  11     328.5      342.3345       27.5118      542.0895      569.6014     227.266870       1.08896
  10     361.9      341.7151       29.9522      534.6242      564.5764     222.861282       1.11466
   9     398.1      341.0736       32.5253      526.4204      558.9457     217.872178       1.16235
   8     437.6      340.4247       35.2290      517.3907      552.6196     212.194865       1.21384
   7     480.5      339.7843       38.0601      507.7216      545.7817     205.997398       1.21716
   6     533.0      339.0981       41.4546      495.9006      537.3552     198.257161       1.24516
   5     589.8      338.5431       45.0049      483.0788      528.0837     189.540547       1.29383
   4     651.6      338.3267       48.6964      468.6907      517.3870     179.060389       1.43319
   3     718.7      338.7345       52.5193      453.2257      505.7451     167.010559       1.51433
   2     792.3      340.5185       56.4504      436.4928      492.9433     152.424811       1.67282
   1     891.5      174.5690      266.4932       45.7395      312.2327     137.663758       1.25609
   0    1013.0      175.5466      259.6199       42.9193      302.5391     126.992567       0.74096



 Wavenumbers:  2600. -  3250. cm-1, ATM      1
 LEVEL PRESSURE   UPWARD FLUX   DIFDOWN FLUX  DIRDOWN FLUX  DOWNWARD FLUX   NET FLUX    HEATING RATE
          mb          W/m2          W/m2          W/m2        W/m2          W/m2       degree/day
  51    .06700        1.2819        0.0000        5.4450        5.4450       4.163170       0.00000
  50    .07753        1.2819        0.0000        5.4450        5.4450       4.163162       0.00640
  49    .09103        1.2819        0.0000        5.4450        5.4450       4.163152       0.00627
  48    0.1069        1.2819        0.0000        5.4450        5.4450       4.163141       0.00613
  47    0.1255        1.2819        0.0000        5.4450        5.4450       4.163127       0.00599
  46    0.1487        1.2819        0.0000        5.4450        5.4450       4.163111       0.00608
  45    0.1794        1.2819        0.0000        5.4450        5.4450       4.163088       0.00625
  44    0.2165        1.2819        0.0000        5.4449        5.4449       4.163061       0.00612
  43    0.2613        1.2819        0.0000        5.4449        5.4449       4.163029       0.00600
  42    0.3336        1.2819        0.0000        5.4448        5.4448       4.162976       0.00617
  41    0.4307        1.2819        0.0000        5.4448        5.4448       4.162905       0.00620
  40    0.5894        1.2819        0.0000        5.4446        5.4446       4.162785       0.00637
  39     1.339        1.2819        0.0000        5.4439        5.4439       4.162078       0.00797
  38     1.782        1.2819        0.0000        5.4434        5.4434       4.161535       0.01034
  37     2.292        1.2819        0.0000        5.4427        5.4427       4.160819       0.01186
  36     2.964        1.2819        0.0000        5.4416        5.4416       4.159780       0.01304
  35     3.853        1.2819        0.0000        5.4402        5.4402       4.158303       0.01402
  34     5.035        1.2819        0.0000        5.4381        5.4381       4.156247       0.01468
  33     6.613        1.2819        0.0000        5.4353        5.4353       4.153466       0.01487
  32     8.786        1.2819        0.0000        5.4317        5.4317       4.149833       0.01411
  31     11.80        1.2819        0.0000        5.4269        5.4269       4.145052       0.01339
  30     15.07        1.2819        0.0000        5.4224        5.4224       4.140524       0.01169
  29     18.79        1.2819        0.0000        5.4180        5.4180       4.136110       0.01001
  28     23.16        1.2819        0.0000        5.4135        5.4135       4.131620       0.00868
  27     28.12        1.2819        0.0000        5.4088        5.4088       4.126968       0.00791
  26     33.73        1.2819        0.0000        5.4036        5.4036       4.121720       0.00789
  25     40.54        1.2819        0.0000        5.3966        5.3967       4.114768       0.00863
  24     48.69        1.2819        0.0000        5.3872        5.3872       4.105275       0.00982
  23     57.69        1.2819        0.0000        5.3754        5.3754       4.093468       0.01107
  22     68.43        1.2820        0.0000        5.3599        5.3599       4.077947       0.01220
  21     81.20        1.2820        0.0000        5.3401        5.3401       4.058066       0.01314
  20     96.49        1.2821        0.0000        5.3155        5.3155       4.033432       0.01360
  19     114.6        1.2822        0.0000        5.2853        5.2854       4.003142       0.01414
  18     136.5        1.2824        0.0001        5.2504        5.2505       3.968103       0.01347
  17     162.9        1.2826        0.0001        5.2111        5.2112       3.928570       0.01264
  16     196.4        1.2830        0.0001        5.1640        5.1641       3.881160       0.01193
  15     218.7        1.2833        0.0001        5.1331        5.1332       3.849871       0.01188
  14     243.0        1.2839        0.0001        5.0962        5.0963       3.812367       0.01301
  13     269.0        1.2849        0.0001        5.0511        5.0512       3.766293       0.01495
  12     297.5        1.2864        0.0001        4.9956        4.9957       3.709360       0.01689
  11     328.5        1.2884        0.0001        4.9304        4.9305       3.642101       0.01829
  10     361.9        1.2912        0.0001        4.8511        4.8512       3.560036       0.02076
   9     398.1        1.2951        0.0002        4.7507        4.7508       3.455759       0.02429
   8     437.6        1.3005        0.0002        4.6220        4.6222       3.321738       0.02865
   7     480.5        1.3079        0.0002        4.4625        4.4627       3.154719       0.03280
   6     533.0        1.3201        0.0002        4.2460        4.2462       2.926099       0.03678
   5     589.8        1.3388        0.0002        3.9954        3.9956       2.656833       0.03997
   4     651.6        1.3696        0.0002        3.7089        3.7091       2.339445       0.04340
   3     718.7        1.4208        0.0002        3.4018        3.4020       1.981263       0.04501
   2     792.3        1.5141        0.0002        3.0564        3.0566       1.542541       0.05032
   1     891.5        0.2438        1.0694        0.2855        1.3549       1.111033       0.03672
   0    1013.0        0.2811        0.8867        0.2304        1.1171       0.836029       0.01909



 Wavenumbers:  3250. -  4000. cm-1, ATM      1
 LEVEL PRESSURE   UPWARD FLUX   DIFDOWN FLUX  DIRDOWN FLUX  DOWNWARD FLUX   NET FLUX    HEATING RATE
          mb          W/m2          W/m2          W/m2        W/m2          W/m2       degree/day
  51    .06700        0.0328        0.0000        9.1795        9.1795       9.146741       0.00000
  50    .07753        0.0328        0.0000        9.1747        9.1747       9.141899       3.88148
  49    .09103        0.0328        0.0000        9.1713        9.1713       9.138511       2.11747
  48    0.1069        0.0328        0.0000        9.1688        9.1688       9.135986       1.34402
  47    0.1255        0.0328        0.0000        9.1665        9.1665       9.133727       1.02422
  46    0.1487        0.0328        0.0000        9.1641        9.1641       9.131285       0.88991
  45    0.1794        0.0328        0.0000        9.1612        9.1612       9.128407       0.79008
  44    0.2165        0.0328        0.0000        9.1583        9.1583       9.125487       0.66430
  43    0.2613        0.0328        0.0000        9.1553        9.1553       9.122514       0.56041
  42    0.3336        0.0328        0.0000        9.1511        9.1511       9.118335       0.48723
  41    0.4307        0.0328        0.0000        9.1464        9.1464       9.113567       0.41459
  40    0.5894        0.0328        0.0000        9.1393        9.1394       9.106561       0.37255
  39     1.339        0.0328        0.0000        9.1127        9.1127       9.079948       0.29962
  38     1.782        0.0328        0.0000        9.1011        9.1011       9.068359       0.22062
  37     2.292        0.0328        0.0000        9.0901        9.0901       9.057293       0.18329
  36     2.964        0.0328        0.0000        9.0776        9.0776       9.044863       0.15603
  35     3.853        0.0328        0.0000        9.0629        9.0629       9.030073       0.14036
  34     5.035        0.0328        0.0000        9.0441        9.0441       9.011334       0.13386
  33     6.613        0.0328        0.0000        9.0191        9.0191       8.986332       0.13366
  32     8.786        0.0328        0.0000        8.9843        8.9843       8.951549       0.13509
  31     11.80        0.0328        0.0000        8.9327        8.9327       8.899932       0.14451
  30     15.07        0.0328        0.0000        8.8758        8.8759       8.843087       0.14676
  29     18.79        0.0328        0.0000        8.8110        8.8110       8.778260       0.14698
  28     23.16        0.0328        0.0000        8.7365        8.7366       8.703815       0.14395
  27     28.12        0.0328        0.0000        8.6554        8.6555       8.622702       0.13789
  26     33.73        0.0327        0.0000        8.5719        8.5719       8.539203       0.12554
  25     40.54        0.0327        0.0001        8.4812        8.4812       8.448479       0.11255
  24     48.69        0.0327        0.0001        8.3838        8.3839       8.351178       0.10069
  23     57.69        0.0327        0.0001        8.2861        8.2862       8.253442       0.09161
  22     68.43        0.0327        0.0001        8.1751        8.1751       8.142446       0.08726
  21     81.20        0.0327        0.0001        8.0457        8.0458       8.013087       0.08548
  20     96.49        0.0327        0.0001        7.8949        7.8950       7.862384       0.08318
  19     114.6        0.0326        0.0001        7.7162        7.7163       7.683674       0.08344
  18     136.5        0.0326        0.0002        7.5193        7.5195       7.486830       0.07569
  17     162.9        0.0326        0.0002        7.2913        7.2915       7.258938       0.07284
  16     196.4        0.0326        0.0002        6.9660        6.9662       6.933663       0.08188
  15     218.7        0.0325        0.0002        6.6648        6.6650       6.632469       0.11435
  14     243.0        0.0325        0.0002        6.2619        6.2622       6.229661       0.13971
  13     269.0        0.0325        0.0003        5.7576        5.7579       5.725328       0.16360
  12     297.5        0.0326        0.0003        5.1719        5.1722       5.139567       0.17373
  11     328.5        0.0327        0.0002        4.5757        4.5760       4.543284       0.16213
  10     361.9        0.0329        0.0002        3.9995        3.9998       3.966904       0.14583
   9     398.1        0.0332        0.0002        3.4655        3.4657       3.432513       0.12450
   8     437.6        0.0337        0.0002        2.9740        2.9743       2.940509       0.10519
   7     480.5        0.0346        0.0002        2.5307        2.5309       2.496235       0.08725
   6     533.0        0.0364        0.0002        2.0614        2.0616       2.025201       0.07577
   5     589.8        0.0395        0.0002        1.6150        1.6151       1.575595       0.06674
   4     651.6        0.0462        0.0001        1.1565        1.1566       1.110414       0.06361
   3     718.7        0.0608        0.0001        0.7390        0.7391       0.678294       0.05431
   2     792.3        0.0998        0.0001        0.3985        0.3985       0.298742       0.04353
   1     891.5        0.0002        0.0411        0.0126        0.0537       0.053470       0.02087
   0    1013.0        0.0021        0.0043        0.0010        0.0053       0.003245       0.00349



 Wavenumbers:  4000. -  4650. cm-1, ATM      1
 LEVEL PRESSURE   UPWARD FLUX   DIFDOWN FLUX  DIRDOWN FLUX  DOWNWARD FLUX   NET FLUX    HEATING RATE
          mb          W/m2          W/m2          W/m2        W/m2          W/m2       degree/day
  51    .06700        4.2150        0.0000       10.7795       10.7795       6.564590       0.00000
  50    .07753        4.2150        0.0000       10.7795       10.7795       6.564589       0.00080
  49    .09103        4.2150        0.0000       10.7795       10.7795       6.564588       0.00078
  48    0.1069        4.2150        0.0000       10.7795       10.7795       6.564586       0.00076
  47    0.1255        4.2150        0.0000       10.7795       10.7795       6.564585       0.00075
  46    0.1487        4.2150        0.0000       10.7795       10.7795       6.564583       0.00076
  45    0.1794        4.2150        0.0000       10.7795       10.7795       6.564580       0.00078
  44    0.2165        4.2150        0.0000       10.7795       10.7795       6.564577       0.00076
  43    0.2613        4.2150        0.0000       10.7795       10.7795       6.564573       0.00075
  42    0.3336        4.2150        0.0000       10.7795       10.7795       6.564566       0.00077
  41    0.4307        4.2150        0.0000       10.7795       10.7795       6.564557       0.00077
  40    0.5894        4.2150        0.0000       10.7795       10.7795       6.564542       0.00080
  39     1.339        4.2149        0.0000       10.7794       10.7794       6.564453       0.00101
  38     1.782        4.2149        0.0000       10.7793       10.7793       6.564383       0.00133
  37     2.292        4.2149        0.0000       10.7792       10.7792       6.564289       0.00156
  36     2.964        4.2149        0.0000       10.7791       10.7791       6.564148       0.00176
  35     3.853        4.2149        0.0000       10.7789       10.7789       6.563940       0.00198
  34     5.035        4.2149        0.0000       10.7786       10.7786       6.563633       0.00219
  33     6.613        4.2149        0.0000       10.7781       10.7781       6.563181       0.00242
  32     8.786        4.2149        0.0000       10.7774       10.7774       6.562513       0.00259
  31     11.80        4.2149        0.0001       10.7763       10.7764       6.561464       0.00294
  30     15.07        4.2149        0.0001       10.7751       10.7752       6.560233       0.00318
  29     18.79        4.2149        0.0001       10.7736       10.7737       6.558743       0.00338
  28     23.16        4.2149        0.0001       10.7717       10.7718       6.556894       0.00358
  27     28.12        4.2149        0.0001       10.7695       10.7696       6.554655       0.00381
  26     33.73        4.2149        0.0002       10.7667       10.7668       6.551893       0.00415
  25     40.54        4.2149        0.0002       10.7629       10.7631       6.548145       0.00465
  24     48.69        4.2150        0.0002       10.7579       10.7581       6.543149       0.00517
  23     57.69        4.2150        0.0003       10.7520       10.7523       6.537224       0.00555
  22     68.43        4.2151        0.0003       10.7446       10.7449       6.529794       0.00584
  21     81.20        4.2152        0.0004       10.7355       10.7359       6.520640       0.00605
  20     96.49        4.2154        0.0004       10.7245       10.7249       6.509493       0.00615
  19     114.6        4.2157        0.0005       10.7107       10.7112       6.495545       0.00651
  18     136.5        4.2161        0.0006       10.6942       10.6948       6.478726       0.00647
  17     162.9        4.2166        0.0007       10.6740       10.6747       6.458086       0.00660
  16     196.4        4.2176        0.0009       10.6464       10.6472       6.429580       0.00718
  15     218.7        4.2185        0.0010       10.6255       10.6264       6.407874       0.00824
  14     243.0        4.2199        0.0011       10.5980       10.5991       6.379250       0.00993
  13     269.0        4.2218        0.0012       10.5611       10.5623       6.340428       0.01259
  12     297.5        4.2247        0.0013       10.5119       10.5132       6.288502       0.01540
  11     328.5        4.2287        0.0014       10.4499       10.4513       6.222570       0.01793
  10     361.9        4.2340        0.0016       10.3702       10.3717       6.137764       0.02146
   9     398.1        4.2406        0.0017       10.2678       10.2695       6.028907       0.02536
   8     437.6        4.2490        0.0019       10.1390       10.1409       5.891829       0.02931
   7     480.5        4.2598        0.0020        9.9877        9.9897       5.729870       0.03181
   6     533.0        4.2765        0.0022        9.7937        9.7959       5.519352       0.03387
   5     589.8        4.3007        0.0024        9.5752        9.5776       5.276850       0.03600
   4     651.6        4.3397        0.0026        9.2958        9.2984       4.958644       0.04352
   3     718.7        4.4055        0.0028        8.9267        8.9295       4.524039       0.05462
   2     792.3        4.5290        0.0029        8.4542        8.4571       3.928105       0.06835
   1     891.5        0.8328        3.2974        0.8614        4.1589       3.326047       0.05123
   0    1013.0        0.8863        3.0327        0.7821        3.8148       2.928480       0.02761



 Wavenumbers:  4650. -  5150. cm-1, ATM      1
 LEVEL PRESSURE   UPWARD FLUX   DIFDOWN FLUX  DIRDOWN FLUX  DOWNWARD FLUX   NET FLUX    HEATING RATE
          mb          W/m2          W/m2          W/m2        W/m2          W/m2       degree/day
  51    .06700        3.0400        0.0000       10.2033       10.2033       7.163297       0.00000
  50    .07753        3.0400        0.0000       10.2031       10.2031       7.163061       0.18901
  49    .09103        3.0400        0.0000       10.2028       10.2028       7.162766       0.18428
  48    0.1069        3.0400        0.0000       10.2025       10.2025       7.162430       0.17931
  47    0.1255        3.0400        0.0000       10.2021       10.2021       7.162045       0.17426
  46    0.1487        3.0400        0.0000       10.2016       10.2016       7.161564       0.17536
  45    0.1794        3.0400        0.0000       10.2010       10.2010       7.160914       0.17850
  44    0.2165        3.0400        0.0000       10.2002       10.2002       7.160154       0.17277
  43    0.2613        3.0400        0.0000       10.1993       10.1993       7.159269       0.16690
  42    0.3336        3.0400        0.0000       10.1979       10.1979       7.157836       0.16702
  41    0.4307        3.0400        0.0000       10.1960       10.1960       7.155996       0.16002
  40    0.5894        3.0400        0.0000       10.1932       10.1932       7.153122       0.15283
  39     1.339        3.0400        0.0000       10.1816       10.1816       7.141530       0.13050
  38     1.782        3.0400        0.0000       10.1760       10.1760       7.136001       0.10526
  37     2.292        3.0400        0.0000       10.1706       10.1706       7.130545       0.09038
  36     2.964        3.0400        0.0000       10.1646       10.1647       7.124621       0.07436
  35     3.853        3.0400        0.0000       10.1584       10.1584       7.118406       0.05898
  34     5.035        3.0400        0.0000       10.1521       10.1521       7.112069       0.04527
  33     6.613        3.0400        0.0000       10.1456       10.1456       7.105609       0.03453
  32     8.786        3.0400        0.0001       10.1386       10.1386       7.098594       0.02725
  31     11.80        3.0400        0.0001       10.1295       10.1296       7.089544       0.02534
  30     15.07        3.0401        0.0001       10.1196       10.1197       7.079653       0.02554
  29     18.79        3.0401        0.0001       10.1076       10.1077       7.067628       0.02726
  28     23.16        3.0401        0.0002       10.0923       10.0924       7.052299       0.02964
  27     28.12        3.0402        0.0002       10.0731       10.0733       7.033169       0.03252
  26     33.73        3.0402        0.0002       10.0500       10.0503       7.010028       0.03479
  25     40.54        3.0403        0.0003       10.0201       10.0204       6.980057       0.03718
  24     48.69        3.0405        0.0003        9.9820        9.9823       6.941788       0.03960
  23     57.69        3.0407        0.0004        9.9384        9.9388       6.898124       0.04093
  22     68.43        3.0410        0.0004        9.8858        9.8862       6.845216       0.04159
  21     81.20        3.0414        0.0005        9.8234        9.8240       6.782581       0.04139
  20     96.49        3.0420        0.0006        9.7518        9.7524       6.710425       0.03983
  19     114.6        3.0427        0.0007        9.6719        9.6726       6.629904       0.03760
  18     136.5        3.0438        0.0009        9.5858        9.5867       6.542814       0.03349
  17     162.9        3.0454        0.0010        9.4940        9.4951       6.449676       0.02977
  16     196.4        3.0478        0.0012        9.3883        9.3895       6.341733       0.02717
  15     218.7        3.0496        0.0013        9.3229        9.3243       6.274625       0.02548
  14     243.0        3.0521        0.0015        9.2520        9.2535       6.201383       0.02540
  13     269.0        3.0554        0.0016        9.1717        9.1733       6.117929       0.02707
  12     297.5        3.0600        0.0018        9.0763        9.0781       6.018104       0.02961
  11     328.5        3.0660        0.0020        8.9650        8.9669       5.900952       0.03185
  10     361.9        3.0737        0.0021        8.8349        8.8370       5.763312       0.03482
   9     398.1        3.0838        0.0023        8.6820        8.6843       5.600495       0.03793
   8     437.6        3.0970        0.0025        8.5028        8.5053       5.408314       0.04109
   7     480.5        3.1141        0.0027        8.2948        8.2975       5.183382       0.04418
   6     533.0        3.1403        0.0029        8.0209        8.0238       4.883491       0.04824
   5     589.8        3.1768        0.0031        7.7063        7.7094       4.532671       0.05207
   4     651.6        3.2309        0.0033        7.3412        7.3445       4.113674       0.05730
   3     718.7        3.3129        0.0035        6.9387        6.9422       3.629271       0.06088
   2     792.3        3.4442        0.0036        6.5066        6.5102       3.066062       0.06459
   1     891.5        0.6148        2.4966        0.6560        3.1526       2.537776       0.04495
   0    1013.0        0.6651        2.2634        0.5860        2.8494       2.184296       0.02454



 Wavenumbers:  5150. -  6150. cm-1, ATM      1
 LEVEL PRESSURE   UPWARD FLUX   DIFDOWN FLUX  DIRDOWN FLUX  DOWNWARD FLUX   NET FLUX    HEATING RATE
          mb          W/m2          W/m2          W/m2        W/m2          W/m2       degree/day
  51    .06700        7.2609        0.0000       25.5798       25.5798      18.318922       0.00000
  50    .07753        7.2609        0.0000       25.5798       25.5798      18.318882       0.03160
  49    .09103        7.2609        0.0000       25.5797       25.5797      18.318831       0.03208
  48    0.1069        7.2609        0.0000       25.5797       25.5797      18.318770       0.03259
  47    0.1255        7.2609        0.0000       25.5796       25.5796      18.318697       0.03309
  46    0.1487        7.2609        0.0000       25.5795       25.5795      18.318601       0.03486
  45    0.1794        7.2609        0.0000       25.5794       25.5794      18.318466       0.03711
  44    0.2165        7.2609        0.0000       25.5792       25.5792      18.318300       0.03767
  43    0.2613        7.2609        0.0000       25.5790       25.5790      18.318097       0.03825
  42    0.3336        7.2609        0.0000       25.5786       25.5786      18.317751       0.04041
  41    0.4307        7.2609        0.0000       25.5782       25.5782      18.317280       0.04095
  40    0.5894        7.2609        0.0000       25.5774       25.5774      18.316491       0.04196
  39     1.339        7.2609        0.0000       25.5735       25.5736      18.312689       0.04280
  38     1.782        7.2609        0.0001       25.5713       25.5714      18.310476       0.04214
  37     2.292        7.2609        0.0001       25.5688       25.5688      18.307971       0.04149
  36     2.964        7.2609        0.0001       25.5656       25.5657      18.304788       0.03995
  35     3.853        7.2609        0.0001       25.5615       25.5616      18.300743       0.03839
  34     5.035        7.2609        0.0001       25.5562       25.5564      18.295533       0.03722
  33     6.613        7.2608        0.0002       25.5494       25.5496      18.288774       0.03613
  32     8.786        7.2608        0.0003       25.5406       25.5409      18.280015       0.03402
  31     11.80        7.2608        0.0003       25.5287       25.5290      18.268168       0.03317
  30     15.07        7.2608        0.0004       25.5167       25.5171      18.256286       0.03068
  29     18.79        7.2609        0.0006       25.5042       25.5047      18.243862       0.02817
  28     23.16        7.2609        0.0007       25.4907       25.4914      18.230476       0.02588
  27     28.12        7.2609        0.0008       25.4764       25.4773      18.216359       0.02400
  26     33.73        7.2610        0.0010       25.4620       25.4630      18.202047       0.02152
  25     40.54        7.2611        0.0012       25.4463       25.4474      18.186389       0.01943
  24     48.69        7.2612        0.0014       25.4294       25.4308      18.169609       0.01736
  23     57.69        7.2614        0.0017       25.4126       25.4143      18.152937       0.01563
  22     68.43        7.2616        0.0020       25.3944       25.3964      18.134821       0.01424
  21     81.20        7.2619        0.0024       25.3744       25.3768      18.114873       0.01318
  20     96.49        7.2623        0.0028       25.3519       25.3548      18.092440       0.01238
  19     114.6        7.2628        0.0034       25.3262       25.3295      18.066702       0.01202
  18     136.5        7.2635        0.0040       25.2962       25.3002      18.036731       0.01152
  17     162.9        7.2643        0.0047       25.2521       25.2569      17.992597       0.01411
  16     196.4        7.2654        0.0057       25.1593       25.1650      17.899653       0.02340
  15     218.7        7.2662        0.0063       25.0159       25.0223      17.756090       0.05451
  14     243.0        7.2672        0.0070       24.7089       24.7159      17.448678       0.10662
  13     269.0        7.2686        0.0076       24.1619       24.1694      16.900875       0.17770
  12     297.5        7.2705        0.0082       23.4544       23.4626      16.192109       0.21021
  11     328.5        7.2730        0.0088       22.7355       22.7443      15.471277       0.19599
  10     361.9        7.2764        0.0095       21.9224       21.9319      14.655456       0.20641
   9     398.1        7.2811        0.0101       20.9939       21.0040      13.722913       0.21726
   8     437.6        7.2875        0.0106       19.9833       19.9939      12.706406       0.21734
   7     480.5        7.2966        0.0112       18.9483       18.9595      11.662877       0.20495
   6     533.0        7.3120        0.0118       17.7796       17.7914      10.479364       0.19039
   5     589.8        7.3371        0.0124       16.6726       16.6850       9.347866       0.16795
   4     651.6        7.3832        0.0130       15.6343       15.6473       8.264159       0.14820
   3     718.7        7.4677        0.0137       14.7738       14.7875       7.319770       0.11868
   2     792.3        7.6365        0.0145       14.0291       14.0436       6.407112       0.10467
   1     891.5        1.4711        5.5788        1.4456        7.0243       5.553247       0.07266
   0    1013.0        1.5343        5.2020        1.3302        6.5322       4.997943       0.03856



 Wavenumbers:  6150. -  7700. cm-1, ATM      1
 LEVEL PRESSURE   UPWARD FLUX   DIFDOWN FLUX  DIRDOWN FLUX  DOWNWARD FLUX   NET FLUX    HEATING RATE
          mb          W/m2          W/m2          W/m2        W/m2          W/m2       degree/day
  51    .06700       11.5387        0.0000       47.3109       47.3109      35.772112       0.00000
  50    .07753       11.5387        0.0000       47.3108       47.3108      35.772056       0.04553
  49    .09103       11.5387        0.0000       47.3107       47.3107      35.771982       0.04583
  48    0.1069       11.5387        0.0000       47.3106       47.3106      35.771896       0.04614
  47    0.1255       11.5387        0.0000       47.3105       47.3105      35.771793       0.04645
  46    0.1487       11.5387        0.0000       47.3104       47.3104      35.771660       0.04852
  45    0.1794       11.5387        0.0000       47.3102       47.3102      35.771473       0.05127
  44    0.2165       11.5387        0.0000       47.3100       47.3100      35.771246       0.05167
  43    0.2613       11.5387        0.0000       47.3097       47.3097      35.770970       0.05210
  42    0.3336       11.5387        0.0000       47.3092       47.3092      35.770500       0.05471
  41    0.4307       11.5387        0.0000       47.3085       47.3086      35.769866       0.05521
  40    0.5894       11.5387        0.0001       47.3074       47.3075      35.768806       0.05633
  39     1.339       11.5386        0.0002       47.3022       47.3024      35.763714       0.05733
  38     1.782       11.5386        0.0002       47.2991       47.2993      35.760744       0.05655
  37     2.292       11.5386        0.0003       47.2956       47.2959      35.757368       0.05591
  36     2.964       11.5385        0.0004       47.2912       47.2915      35.753050       0.05421
  35     3.853       11.5384        0.0005       47.2855       47.2859      35.747515       0.05252
  34     5.035       11.5383        0.0006       47.2780       47.2787      35.740335       0.05129
  33     6.613       11.5382        0.0008       47.2683       47.2691      35.730947       0.05019
  32     8.786       11.5380        0.0011       47.2556       47.2566      35.718648       0.04777
  31     11.80       11.5377        0.0014       47.2380       47.2395      35.701744       0.04732
  30     15.07       11.5374        0.0018       47.2201       47.2219      35.684456       0.04463
  29     18.79       11.5371        0.0023       47.2008       47.2031      35.665977       0.04190
  28     23.16       11.5368        0.0028       47.1795       47.1823      35.645586       0.03943
  27     28.12       11.5363        0.0034       47.1565       47.1599      35.623593       0.03739
  26     33.73       11.5358        0.0041       47.1324       47.1365      35.600671       0.03446
  25     40.54       11.5353        0.0049       47.1054       47.1103      35.575034       0.03181
  24     48.69       11.5346        0.0059       47.0754       47.0813      35.546781       0.02924
  23     57.69       11.5338        0.0070       47.0449       47.0520      35.518159       0.02683
  22     68.43       11.5329        0.0083       47.0110       47.0193      35.486422       0.02495
  21     81.20       11.5318        0.0099       46.9729       46.9827      35.450928       0.02345
  20     96.49       11.5305        0.0117       46.9294       46.9411      35.410587       0.02227
  19     114.6       11.5290        0.0139       46.8790       46.8929      35.363954       0.02177
  18     136.5       11.5272        0.0165       46.8200       46.8365      35.309331       0.02100
  17     162.9       11.5250        0.0196       46.7361       46.7557      35.230711       0.02513
  16     196.4       11.5223        0.0236       46.5703       46.5939      35.071518       0.04007
  15     218.7       11.5207        0.0262       46.3473       46.3735      34.852764       0.08305
  14     243.0       11.5192        0.0289       45.9299       45.9587      34.439541       0.14332
  13     269.0       11.5181        0.0316       45.1708       45.2023      33.684259       0.24501
  12     297.5       11.5179        0.0342       44.0115       44.0457      32.527771       0.34300
  11     328.5       11.5189        0.0368       42.7242       42.7611      31.242158       0.34955
  10     361.9       11.5218        0.0395       41.3539       41.3935      29.871656       0.34675
   9     398.1       11.5277        0.0422       39.7953       39.8374      28.309739       0.36389
   8     437.6       11.5384        0.0446       37.9948       38.0394      26.501000       0.38672
   7     480.5       11.5561        0.0469       36.0647       36.1116      24.555504       0.38209
   6     533.0       11.5903        0.0493       33.7773       33.8266      22.236317       0.37308
   5     589.8       11.6509        0.0515       31.4082       31.4597      19.808818       0.36032
   4     651.6       11.7688        0.0532       28.8834       28.9366      17.167809       0.36117
   3     718.7       11.9943        0.0546       26.4104       26.4650      14.470723       0.33895
   2     792.3       12.4690        0.0557       24.0056       24.0613      11.592326       0.33012
   1     891.5        2.2084        8.9691        2.3465       11.3156       9.107174       0.21147
   0    1013.0        2.3726        8.0182        2.0570       10.0752       7.702559       0.09753



 Wavenumbers:  7700. -  8050. cm-1, ATM      1
 LEVEL PRESSURE   UPWARD FLUX   DIFDOWN FLUX  DIRDOWN FLUX  DOWNWARD FLUX   NET FLUX    HEATING RATE
          mb          W/m2          W/m2          W/m2        W/m2          W/m2       degree/day
  51    .06700        5.4042        0.0000       11.1810       11.1810       5.776748       0.00000
  50    .07753        5.4042        0.0000       11.1809       11.1809       5.776727       0.01726
  49    .09103        5.4042        0.0000       11.1809       11.1809       5.776700       0.01692
  48    0.1069        5.4042        0.0000       11.1809       11.1809       5.776668       0.01656
  47    0.1255        5.4042        0.0000       11.1809       11.1809       5.776633       0.01621
  46    0.1487        5.4042        0.0000       11.1808       11.1808       5.776588       0.01644
  45    0.1794        5.4043        0.0000       11.1808       11.1808       5.776526       0.01692
  44    0.2165        5.4043        0.0000       11.1807       11.1807       5.776453       0.01660
  43    0.2613        5.4043        0.0000       11.1806       11.1806       5.776367       0.01629
  42    0.3336        5.4043        0.0000       11.1805       11.1805       5.776224       0.01667
  41    0.4307        5.4043        0.0000       11.1803       11.1804       5.776034       0.01648
  40    0.5894        5.4044        0.0000       11.1801       11.1801       5.775724       0.01647
  39     1.339        5.4046        0.0001       11.1788       11.1789       5.774259       0.01649
  38     1.782        5.4048        0.0001       11.1781       11.1782       5.773399       0.01638
  37     2.292        5.4049        0.0001       11.1772       11.1773       5.772403       0.01650
  36     2.964        5.4051        0.0002       11.1761       11.1762       5.771095       0.01642
  35     3.853        5.4054        0.0002       11.1746       11.1748       5.769367       0.01639
  34     5.035        5.4058        0.0003       11.1726       11.1729       5.767073       0.01639
  33     6.613        5.4063        0.0004       11.1700       11.1703       5.764008       0.01639
  32     8.786        5.4070        0.0005       11.1664       11.1669       5.759879       0.01604
  31     11.80        5.4080        0.0006       11.1613       11.1619       5.753976       0.01653
  30     15.07        5.4090        0.0008       11.1558       11.1566       5.747644       0.01635
  29     18.79        5.4102        0.0010       11.1497       11.1507       5.740498       0.01620
  28     23.16        5.4116        0.0012       11.1425       11.1438       5.732163       0.01612
  27     28.12        5.4132        0.0015       11.1343       11.1358       5.722646       0.01618
  26     33.73        5.4150        0.0018       11.1252       11.1270       5.712017       0.01598
  25     40.54        5.4172        0.0022       11.1142       11.1164       5.699206       0.01589
  24     48.69        5.4198        0.0026       11.1010       11.1036       5.683807       0.01594
  23     57.69        5.4227        0.0031       11.0866       11.0897       5.666950       0.01580
  22     68.43        5.4262        0.0037       11.0695       11.0732       5.646955       0.01572
  21     81.20        5.4304        0.0043       11.0494       11.0537       5.623251       0.01566
  20     96.49        5.4355        0.0051       11.0255       11.0307       5.595170       0.01550
  19     114.6        5.4416        0.0061       10.9975       11.0036       5.562057       0.01546
  18     136.5        5.4489        0.0072       10.9648       10.9720       5.523123       0.01497
  17     162.9        5.4577        0.0086       10.9263       10.9349       5.477181       0.01469
  16     196.4        5.4694        0.0103       10.8773       10.8876       5.418240       0.01484
  15     218.7        5.4772        0.0115       10.8455       10.8570       5.379871       0.01457
  14     243.0        5.4858        0.0127       10.8114       10.8242       5.338406       0.01438
  13     269.0        5.4953        0.0141       10.7749       10.7890       5.293671       0.01451
  12     297.5        5.5058        0.0155       10.7357       10.7512       5.245430       0.01431
  11     328.5        5.5175        0.0171       10.6937       10.7108       5.193361       0.01416
  10     361.9        5.5304        0.0188       10.6489       10.6676       5.137222       0.01420
   9     398.1        5.5449        0.0206       10.6008       10.6214       5.076498       0.01415
   8     437.6        5.5611        0.0225       10.5491       10.5716       5.010554       0.01410
   7     480.5        5.5793        0.0246       10.4934       10.5181       4.938785       0.01410
   6     533.0        5.6031        0.0272       10.4243       10.4515       4.848399       0.01454
   5     589.8        5.6309        0.0299       10.3479       10.3778       4.746955       0.01506
   4     651.6        5.6643        0.0329       10.2613       10.2942       4.629881       0.01601
   3     718.7        5.7055        0.0360       10.1618       10.1978       4.492258       0.01730
   2     792.3        5.7581        0.0393       10.0439       10.0832       4.325143       0.01917
   1     891.5        1.2200        4.2811        1.0902        5.3713       4.151292       0.01479
   0    1013.0        1.2453        4.1855        1.0624        5.2479       4.002577       0.01033



 Wavenumbers:  8050. - 12850. cm-1, ATM      1
 LEVEL PRESSURE   UPWARD FLUX   DIFDOWN FLUX  DIRDOWN FLUX  DOWNWARD FLUX   NET FLUX    HEATING RATE
          mb          W/m2          W/m2          W/m2        W/m2          W/m2       degree/day
  51    .06700       70.8378        0.0000      156.5418      156.5418      85.703915       0.00000
  50    .07753       70.8378        0.0000      156.5417      156.5417      85.703915       0.00000
  49    .09103       70.8378        0.0001      156.5417      156.5417      85.703915      -0.00000
  48    0.1069       70.8378        0.0001      156.5416      156.5417      85.703915       0.00000
  47    0.1255       70.8378        0.0002      156.5415      156.5417      85.703915       0.00000
  46    0.1487       70.8377        0.0002      156.5414      156.5416      85.703915       0.00000
  45    0.1794       70.8377        0.0003      156.5413      156.5416      85.703915       0.00000
  44    0.2165       70.8376        0.0004      156.5412      156.5416      85.703915      -0.00000
  43    0.2613       70.8376        0.0005      156.5410      156.5415      85.703915      -0.00000
  42    0.3336       70.8375        0.0007      156.5407      156.5414      85.703915       0.00000
  41    0.4307       70.8374        0.0010      156.5403      156.5413      85.703915       0.00000
  40    0.5894       70.8371        0.0014      156.5397      156.5411      85.703915      -0.00000
  39     1.339       70.8361        0.0033      156.5367      156.5401      85.703915       0.00000
  38     1.782       70.8356        0.0045      156.5350      156.5395      85.703915      -0.00000
  37     2.292       70.8349        0.0058      156.5330      156.5388      85.703915      -0.00000
  36     2.964       70.8340        0.0076      156.5303      156.5379      85.703915       0.00000
  35     3.853       70.8328        0.0099      156.5268      156.5367      85.703915       0.00000
  34     5.035       70.8313        0.0130      156.5222      156.5352      85.703915      -0.00000
  33     6.613       70.8292        0.0171      156.5160      156.5331      85.703915      -0.00000
  32     8.786       70.8264        0.0226      156.5076      156.5303      85.703915      -0.00000
  31     11.80       70.8223        0.0306      156.4957      156.5262      85.703915       0.00000
  30     15.07       70.8180        0.0391      156.4828      156.5219      85.703915       0.00000
  29     18.79       70.8131        0.0488      156.4682      156.5170      85.703915       0.00000
  28     23.16       70.8073        0.0601      156.4512      156.5113      85.703915      -0.00000
  27     28.12       70.8008        0.0730      156.4317      156.5047      85.703915      -0.00000
  26     33.73       70.7934        0.0875      156.4099      156.4973      85.703915       0.00000
  25     40.54       70.7845        0.1050      156.3834      156.4884      85.703915       0.00000
  24     48.69       70.7738        0.1262      156.3515      156.4777      85.703915      -0.00000
  23     57.69       70.7620        0.1494      156.3164      156.4659      85.703915       0.00000
  22     68.43       70.7479        0.1772      156.2746      156.4518      85.703915      -0.00000
  21     81.20       70.7310        0.2103      156.2246      156.4349      85.703915      -0.00000
  20     96.49       70.7109        0.2499      156.1649      156.4148      85.703915       0.00000
  19     114.6       70.6872        0.2969      156.0879      156.3849      85.697723       0.00289
  18     136.5       70.6589        0.3528      155.9962      156.3490      85.690039       0.00295
  17     162.9       70.6253        0.4195      155.8831      156.3025      85.677275       0.00408
  16     196.4       70.5816        0.5062      155.7199      156.2261      85.644517       0.00825
  15     218.7       70.5531        0.5632      155.5733      156.1365      85.583332       0.02323
  14     243.0       70.5229        0.6251      155.3367      155.9618      85.438854       0.05011
  13     269.0       70.4919        0.6920      154.9514      155.6435      85.151520       0.09321
  12     297.5       70.4619        0.7641      154.3896      155.1537      84.691773       0.13636
  11     328.5       70.4339        0.8417      153.7151      154.5568      84.122925       0.15467
  10     361.9       70.4102        0.9249      152.9087      153.8337      83.423539       0.17695
   9     398.1       70.3946        1.0139      151.8986      152.9125      82.517876       0.21100
   8     437.6       70.3941        1.1084      150.6031      151.7115      81.317426       0.25666
   7     480.5       70.4168        1.2081      149.0014      150.2095      79.792686       0.29945
   6     533.0       70.4888        1.3284      146.7375      148.0659      77.577104       0.35642
   5     589.8       70.6486        1.4540      143.8730      145.3270      74.678363       0.43027
   4     651.6       70.9966        1.5820      140.0955      141.6776      70.680925       0.54666
   3     718.7       71.6809        1.7111      135.5278      137.2389      65.557976       0.64381
   2     792.3       73.0721        1.8377      130.0690      131.9067      58.834650       0.77109
   1     891.5       15.7263       53.9778       13.4960       67.4738      51.747465       0.60309
   0    1013.0       16.4047       50.6435       12.4819       63.1254      46.720667       0.34904



 Wavenumbers: 12850. - 16000. cm-1, ATM      1
 LEVEL PRESSURE   UPWARD FLUX   DIFDOWN FLUX  DIRDOWN FLUX  DOWNWARD FLUX   NET FLUX    HEATING RATE
          mb          W/m2          W/m2          W/m2        W/m2          W/m2       degree/day
  51    .06700       60.3381        0.0000       98.0872       98.0872      37.749117       0.00000
  50    .07753       60.3381        0.0001       98.0864       98.0864      37.748329       0.63151
  49    .09103       60.3381        0.0001       98.0853       98.0854      37.747340       0.61804
  48    0.1069       60.3381        0.0002       98.0841       98.0843      37.746205       0.60423
  47    0.1255       60.3381        0.0003       98.0826       98.0830      37.744902       0.59066
  46    0.1487       60.3381        0.0005       98.0809       98.0813      37.743260       0.59864
  45    0.1794       60.3381        0.0007       98.0784       98.0791      37.741029       0.61256
  44    0.2165       60.3381        0.0009       98.0756       98.0765      37.738408       0.59620
  43    0.2613       60.3382        0.0011       98.0723       98.0735      37.735331       0.57997
  42    0.3336       60.3383        0.0016       98.0670       98.0686      37.730320       0.58424
  41    0.4307       60.3385        0.0022       98.0602       98.0623      37.723856       0.56202
  40    0.5894       60.3390        0.0031       98.0496       98.0527      37.713708       0.53963
  39     1.339       60.3435        0.0075       98.0043       98.0118      37.668360       0.51054
  38     1.782       60.3478        0.0101       97.9793       97.9894      37.641546       0.51048
  37     2.292       60.3544        0.0131       97.9498       97.9629      37.608433       0.54845
  36     2.964       60.3655        0.0170       97.9088       97.9259      37.560317       0.60400
  35     3.853       60.3836        0.0222       97.8503       97.8726      37.488985       0.67695
  34     5.035       60.4109        0.0291       97.7680       97.7971      37.386210       0.73418
  33     6.613       60.4491        0.0384       97.6562       97.6946      37.245409       0.75272
  32     8.786       60.4988        0.0508       97.5107       97.5615      37.062605       0.70995
  31     11.80       60.5633        0.0685       97.3179       97.3864      36.823052       0.67067
  30     15.07       60.6248        0.0875       97.1283       97.2159      36.591045       0.59900
  29     18.79       60.6873        0.1090       96.9300       97.0390      36.351682       0.54271
  28     23.16       60.7523        0.1340       96.7166       96.8506      36.098264       0.49003
  27     28.12       60.8173        0.1626       96.4935       96.6561      35.838818       0.44104
  26     33.73       60.8766        0.1947       96.2731       96.4677      35.591109       0.37244
  25     40.54       60.9328        0.2333       96.0408       96.2741      35.341291       0.30993
  24     48.69       60.9855        0.2799       95.7946       96.0745      35.089026       0.26105
  23     57.69       61.0288        0.3311       95.5573       95.8884      34.859633       0.21502
  22     68.43       61.0646        0.3921       95.3106       95.7027      34.638158       0.17411
  21     81.20       61.0856        0.4649       95.0643       95.5292      34.443577       0.12858
  20     96.49       61.0908        0.5516       94.8153       95.3669      34.276133       0.09242
  19     114.6       61.0957        0.6555       94.5411       95.1965      34.100884       0.08183
  18     136.5       61.0929        0.7785       94.2320       95.0106      33.917708       0.07044
  17     162.9       61.0817        0.9250       93.8753       94.8003      33.718586       0.06365
  16     196.4       61.0507        1.1149       93.4347       94.5495      33.498858       0.05531
  15     218.7       61.0244        1.2395       93.1513       94.3908      33.366382       0.05030
  14     243.0       60.9935        1.3749       92.8439       94.2189      33.225397       0.04890
  13     269.0       60.9579        1.5216       92.5111       94.0328      33.074895       0.04882
  12     297.5       60.9180        1.6801       92.1495       93.8295      32.911538       0.04845
  11     328.5       60.8754        1.8512       91.7554       93.6066      32.731143       0.04905
  10     361.9       60.8309        2.0353       91.3262       93.3615      32.530576       0.05075
   9     398.1       60.7856        2.2332       90.8575       93.0907      32.305108       0.05253
   8     437.6       60.7422        2.4455       90.3418       92.7873      32.045099       0.05559
   7     480.5       60.7031        2.6727       89.7728       92.4455      31.742326       0.05946
   6     533.0       60.6695        2.9517       89.0428       91.9945      31.324966       0.06714
   5     589.8       60.6600        3.2510       88.2038       91.4548      30.794832       0.07869
   4     651.6       60.7041        3.5701       87.1979       90.7680      30.063967       0.09995
   3     718.7       60.8245        3.9075       86.0161       89.9237      29.099155       0.12125
   2     792.3       61.0897        4.2596       84.5970       88.8567      27.766929       0.15279
   1     891.5       29.4506       46.4827        9.1098       55.5925      26.141933       0.13828
   0    1013.0       29.8684       45.5471        8.7983       54.3454      24.476994       0.11561



 Wavenumbers: 16000. - 22650. cm-1, ATM      1
 LEVEL PRESSURE   UPWARD FLUX   DIFDOWN FLUX  DIRDOWN FLUX  DOWNWARD FLUX   NET FLUX    HEATING RATE
          mb          W/m2          W/m2          W/m2        W/m2          W/m2       degree/day
  51    .06700      120.5204        0.0000      156.3892      156.3892      35.868887       0.00000
  50    .07753      120.5203        0.0004      156.3887      156.3891      35.868749       0.11083
  49    .09103      120.5202        0.0008      156.3879      156.3888      35.868548       0.12570
  48    0.1069      120.5202        0.0014      156.3871      156.3885      35.868278       0.14334
  47    0.1255      120.5201        0.0020      156.3861      156.3881      35.867918       0.16339
  46    0.1487      120.5201        0.0028      156.3847      156.3875      35.867387       0.19361
  45    0.1794      120.5201        0.0039      156.3828      156.3867      35.866556       0.22797
  44    0.2165      120.5202        0.0051      156.3805      156.3856      35.865430       0.25621
  43    0.2613      120.5203        0.0066      156.3776      156.3843      35.863902       0.28804
  42    0.3336      120.5208        0.0091      156.3726      156.3818      35.860997       0.33873
  41    0.4307      120.5215        0.0124      156.3657      156.3781      35.856617       0.38077
  40    0.5894      120.5232        0.0178      156.3537      156.3715      35.848265       0.44415
  39     1.339      120.5401        0.0433      156.2834      156.3267      35.786562       0.69467
  38     1.782      120.5566        0.0582      156.2324      156.2906      35.733999       1.00071
  37     2.292      120.5817        0.0755      156.1641      156.2396      35.657917       1.26012
  36     2.964      120.6241        0.0983      156.0605      156.1588      35.534669       1.54713
  35     3.853      120.6932        0.1283      155.9041      156.0323      35.339120       1.85580
  34     5.035      120.7980        0.1681      155.6774      155.8454      35.047410       2.08386
  33     6.613      120.9447        0.2212      155.3656      155.5868      34.642085       2.16687
  32     8.786      121.1355        0.2926      154.9577      155.2503      34.114783       2.04785
  31     11.80      121.3830        0.3947      154.4153      154.8100      33.426991       1.92560
  30     15.07      121.6189        0.5041      153.8804      154.3845      32.765575       1.70765
  29     18.79      121.8586        0.6275      153.3191      153.9466      32.087912       1.53647
  28     23.16      122.1078        0.7713      152.7126      153.4839      31.376113       1.37639
  27     28.12      122.3565        0.9355      152.0755      153.0110      30.654498       1.22670
  26     33.73      122.5831        1.1191      151.4409      152.5600      29.976939       1.01873
  25     40.54      122.7968        1.3406      150.7637      152.1043      29.307519       0.83049
  24     48.69      122.9961        1.6073      150.0338      151.6411      28.645043       0.68556
  23     57.69      123.1586        1.8998      149.3151      151.2149      28.056266       0.55189
  22     68.43      123.2915        2.2477      148.5476      150.7953      27.503774       0.43433
  21     81.20      123.3665        2.6617      147.7517      150.4134      27.046911       0.30189
  20     96.49      123.3786        3.1544      146.9127      150.0671      26.688525       0.19780
  19     114.6      123.3531        3.7375      145.9763      149.7138      26.360692       0.15308
  18     136.5      123.2961        4.4257      144.9088      149.3345      26.038325       0.12396
  17     162.9      123.2039        5.2409      143.6785      148.9195      25.715561       0.10317
  16     196.4      123.0317        6.2921      142.1651      148.4571      25.425430       0.07303
  15     218.7      122.8993        6.9785      141.2033      148.1819      25.282564       0.05424
  14     243.0      122.7465        7.7211      140.1753      147.8965      25.149912       0.04601
  13     269.0      122.5718        8.5218      139.0797      147.6015      25.029696       0.03900
  12     297.5      122.3742        9.3824      137.9141      147.2965      24.922238       0.03187
  11     328.5      122.1567       10.3068      136.6676      146.9743      24.817646       0.02844
  10     361.9      121.9188       11.2956      135.3392      146.6348      24.716031       0.02571
   9     398.1      121.6596       12.3526      133.9235      146.2761      24.616531       0.02318
   8     437.6      121.3795       13.4794      132.4163      145.8957      24.516181       0.02146
   7     480.5      121.0779       14.6778      130.8147      145.4925      24.414663       0.01994
   6     533.0      120.7064       16.1399      128.8599      144.9998      24.293410       0.01951
   5     589.8      120.3092       17.7001      126.7679      144.4680      24.158802       0.01998
   4     651.6      119.8912       19.3592      124.5274      143.8867      23.995471       0.02234
   3     718.7      119.4573       21.1185      122.1285      143.2469      23.789673       0.02586
   2     792.3      119.0218       22.9751      119.5548      142.5299      23.508130       0.03229
   1     891.5       84.4963       94.7694       12.8221      107.5916      23.095215       0.03514
   0    1013.0       84.3899       94.5926       12.3563      106.9489      22.559036       0.03723



 Wavenumbers: 22650. - 29000. cm-1, ATM      1
 LEVEL PRESSURE   UPWARD FLUX   DIFDOWN FLUX  DIRDOWN FLUX  DOWNWARD FLUX   NET FLUX    HEATING RATE
          mb          W/m2          W/m2          W/m2        W/m2          W/m2       degree/day
  51    .06700       50.4434        0.0000       59.0156       59.0156       8.572238       0.00000
  50    .07753       50.4433        0.0004       59.0151       59.0155       8.572238      -0.00000
  49    .09103       50.4431        0.0010       59.0144       59.0153       8.572238       0.00000
  48    0.1069       50.4429        0.0016       59.0136       59.0152       8.572238       0.00000
  47    0.1255       50.4428        0.0023       59.0127       59.0150       8.572238      -0.00000
  46    0.1487       50.4425        0.0033       59.0115       59.0147       8.572238      -0.00000
  45    0.1794       50.4422        0.0045       59.0099       59.0144       8.572238       0.00000
  44    0.2165       50.4418        0.0060       59.0080       59.0140       8.572238       0.00000
  43    0.2613       50.4413        0.0077       59.0058       59.0136       8.572238       0.00000
  42    0.3336       50.4406        0.0106       59.0022       59.0128       8.572238       0.00000
  41    0.4307       50.4395        0.0145       58.9973       59.0118       8.572238      -0.00000
  40    0.5894       50.4379        0.0208       58.9894       59.0101       8.572238       0.00000
  39     1.339       50.4300        0.0505       58.9518       59.0023       8.572238      -0.00000
  38     1.782       50.4254        0.0680       58.9297       58.9977       8.572238      -0.00000
  37     2.292       50.4201        0.0882       58.9042       58.9923       8.572238       0.00000
  36     2.964       50.4131        0.1147       58.8706       58.9853       8.572238       0.00000
  35     3.853       50.4038        0.1497       58.8264       58.9761       8.572238       0.00000
  34     5.035       50.3916        0.1962       58.7676       58.9638       8.572238      -0.00000
  33     6.613       50.3751        0.2583       58.6891       58.9474       8.572238       0.00000
  32     8.786       50.3530        0.3419       58.5834       58.9253       8.572238       0.00000
  31     11.80       50.3214        0.4612       58.4324       58.8937       8.572238       0.00000
  30     15.07       50.2876        0.5892       58.2706       58.8598       8.572238      -0.00000
  29     18.79       50.2493        0.7333       58.0882       58.8216       8.572238       0.00000
  28     23.16       50.2048        0.9013       57.8757       58.7770       8.572238       0.00000
  27     28.12       50.1539        1.0928       57.6333       58.7261       8.572238      -0.00000
  26     33.73       50.0970        1.3062       57.3631       58.6693       8.572238       0.00000
  25     40.54       50.0286        1.5629       57.0379       58.6008       8.572238       0.00000
  24     48.69       49.9464        1.8707       56.6479       58.5186       8.572238       0.00000
  23     57.69       49.8564        2.2066       56.2221       58.4286       8.572238      -0.00000
  22     68.43       49.7498        2.6035       55.7186       58.3220       8.572238       0.00000
  21     81.20       49.6235        3.0719       55.1239       58.1958       8.572238       0.00000
  20     96.49       49.4742        3.6237       54.4228       58.0465       8.572238       0.00000
  19     114.6       49.2985        4.2698       53.6010       57.8708       8.572238      -0.00000
  18     136.5       49.0925        5.0230       52.6418       57.6647       8.572238       0.00000
  17     162.9       48.8503        5.9022       51.5203       57.4225       8.572238      -0.00000
  16     196.4       48.5412        7.0140       50.0994       57.1134       8.572238       0.00000
  15     218.7       48.3412        7.7271       49.1863       56.9134       8.572238      -0.00000
  14     243.0       48.1264        8.4874       48.2113       56.6987       8.572238       0.00000
  13     269.0       47.8967        9.2940       47.1749       56.4689       8.572238       0.00000
  12     297.5       47.6519       10.1459       46.0783       56.2241       8.572238      -0.00000
  11     328.5       47.3913       11.0440       44.9195       55.9635       8.572238       0.00000
  10     361.9       47.1151       11.9854       43.7018       55.6873       8.572238       0.00000
   9     398.1       46.8227       12.9699       42.4250       55.3949       8.572238      -0.00000
   8     437.6       46.5143       13.9949       41.0916       55.0865       8.572238       0.00000
   7     480.5       46.1897       15.0575       39.7045       54.7619       8.572238      -0.00000
   6     533.0       45.7984       16.3164       38.0543       54.3707       8.572238      -0.00000
   5     589.8       45.3862       17.6154       36.3431       53.9584       8.572238       0.00000
   4     651.6       44.9536       18.9463       34.5795       53.5259       8.572238      -0.00000
   3     718.7       44.5009       20.3029       32.7702       53.0731       8.572238       0.00000
   2     792.3       44.0289       21.6755       30.9256       52.6011       8.572238       0.00000
   1     891.5       32.9271       38.3416        3.1576       41.4992       8.572068       0.00001
   0    1013.0       32.5830       38.2860        2.8691       41.1551       8.572068       0.00000



 Wavenumbers: 29000. - 38000. cm-1, ATM      1
 LEVEL PRESSURE   UPWARD FLUX   DIFDOWN FLUX  DIRDOWN FLUX  DOWNWARD FLUX   NET FLUX    HEATING RATE
          mb          W/m2          W/m2          W/m2        W/m2          W/m2       degree/day
  51    .06700        7.6568        0.0000       20.8114       20.8114      13.154556       0.00000
  50    .07753        7.6566        0.0003       20.8070       20.8074      13.150750       3.05040
  49    .09103        7.6564        0.0007       20.8009       20.8016      13.145215       3.45952
  48    0.1069        7.6561        0.0012       20.7928       20.7939      13.137808       3.94276
  47    0.1255        7.6558        0.0017       20.7820       20.7837      13.127907       4.48857
  46    0.1487        7.6554        0.0023       20.7665       20.7688      13.113350       5.30630
  45    0.1794        7.6549        0.0032       20.7424       20.7456      13.090694       6.21948
  44    0.2165        7.6544        0.0043       20.7103       20.7146      13.060184       6.94048
  43    0.2613        7.6538        0.0055       20.6675       20.6730      13.019207       7.72398
  42    0.3336        7.6528        0.0075       20.5880       20.5955      12.942681       8.92223
  41    0.4307        7.6516        0.0101       20.4722       20.4824      12.830781       9.72941
  40    0.5894        7.6498        0.0144       20.2637       20.2780      12.628201      10.77296
  39     1.339        7.6452        0.0323       19.0984       19.1307      11.485510      12.86462
  38     1.782        7.6447        0.0416       18.4394       18.4810      10.836250      12.36087
  37     2.292        7.6461        0.0515       17.7714       17.8230      10.176848      10.92142
  36     2.964        7.6507        0.0638       17.0421       17.1060       9.455225       9.05856
  35     3.853        7.6606        0.0792       16.2678       16.3470       8.686394       7.29635
  34     5.035        7.6775        0.0986       15.4803       15.5789       7.901367       5.60790
  33     6.613        7.7025        0.1233       14.7157       14.8390       7.136577       4.08857
  32     8.786        7.7354        0.1558       13.9936       14.1493       6.413872       2.80673
  31     11.80        7.7783        0.2008       13.2835       13.4844       5.706119       1.98148
  30     15.07        7.8192        0.2475       12.7394       12.9869       5.167667       1.39018
  29     18.79        7.8612        0.2992       12.2666       12.5658       4.704598       1.04992
  28     23.16        7.9054        0.3579       11.8300       12.1879       4.282473       0.81625
  27     28.12        7.9502        0.4235       11.4279       11.8514       3.901188       0.64816
  26     33.73        7.9904        0.4958       11.0695       11.5652       3.574794       0.49074
  25     40.54        8.0270        0.5820       10.7209       11.3029       3.275926       0.37078
  24     48.69        8.0594        0.6841       10.3742       11.0583       2.998901       0.28668
  23     57.69        8.0835        0.7945       10.0549       10.8494       2.765921       0.21838
  22     68.43        8.0992        0.9239        9.7327       10.6566       2.557423       0.16391
  21     81.20        8.0981        1.0764        9.4134       10.4898       2.391677       0.10952
  20     96.49        8.0782        1.2553        9.0887       10.3440       2.265881       0.06943
  19     114.6        8.0462        1.4616        8.7388       10.2004       2.154246       0.05213
  18     136.5        8.0042        1.6968        8.3549       10.0517       2.047489       0.04105
  17     162.9        7.9518        1.9640        7.9311        9.8952       1.943358       0.03328
  16     196.4        7.8748        2.2936        7.4333        9.7269       1.852114       0.02297
  15     218.7        7.8219        2.5001        7.1295        9.6296       1.807790       0.01683
  14     243.0        7.7642        2.7152        6.8161        9.5312       1.766994       0.01415
  13     269.0        7.7017        2.9379        6.4943        9.4322       1.730489       0.01184
  12     297.5        7.6344        3.1671        6.1657        9.3328       1.698428       0.00951
  11     328.5        7.5633        3.4017        5.8295        9.2311       1.667853       0.00831
  10     361.9        7.4887        3.6390        5.4886        9.1276       1.638901       0.00733
   9     398.1        7.4108        3.8784        5.1440        9.0224       1.611591       0.00636
   8     437.6        7.3298        4.1182        4.7969        8.9152       1.585397       0.00560
   7     480.5        7.2459        4.3562        4.4504        8.8066       1.560668       0.00486
   6     533.0        7.1468        4.6244        4.0563        8.6806       1.533882       0.00431
   5     589.8        7.0448        4.8847        3.6682        8.5529       1.508139       0.00382
   4     651.6        6.9407        5.1333        3.2905        8.4238       1.483156       0.00342
   3     718.7        6.8346        5.3683        2.9252        8.2935       1.458902       0.00305
   2     792.3        6.7271        5.5860        2.5764        8.1625       1.435388       0.00270
   1     891.5        5.2154        6.3859        0.2393        6.6252       1.409849       0.00217
   0    1013.0        5.1179        6.3091        0.1937        6.5028       1.384859       0.00174



 Wavenumbers: 38000. - 50000. cm-1, ATM      1
 LEVEL PRESSURE   UPWARD FLUX   DIFDOWN FLUX  DIRDOWN FLUX  DOWNWARD FLUX   NET FLUX    HEATING RATE
          mb          W/m2          W/m2          W/m2        W/m2          W/m2       degree/day
  51    .06700        0.0061        0.0000        1.2836        1.2836       1.277518       0.00000
  50    .07753        0.0061        0.0001        1.2812        1.2812       1.275183       1.87150
  49    .09103        0.0060        0.0002        1.2777        1.2778       1.271851       2.08247
  48    0.1069        0.0059        0.0002        1.2731        1.2734       1.267473       2.33059
  47    0.1255        0.0058        0.0004        1.2672        1.2675       1.261717       2.60908
  46    0.1487        0.0057        0.0005        1.2586        1.2591       1.253391       3.03499
  45    0.1794        0.0055        0.0007        1.2455        1.2462       1.240623       3.50520
  44    0.2165        0.0054        0.0009        1.2282        1.2291       1.223697       3.85037
  43    0.2613        0.0052        0.0011        1.2054        1.2065       1.201348       4.21261
  42    0.3336        0.0049        0.0015        1.1639        1.1654       1.160524       4.75970
  41    0.4307        0.0045        0.0020        1.1051        1.1070       1.102565       5.03943
  40    0.5894        0.0039        0.0026        1.0039        1.0064       1.002524       5.32007
  39     1.339        0.0022        0.0035        0.5438        0.5473       0.545104       5.14971
  38     1.782        0.0016        0.0032        0.3635        0.3666       0.365006       3.42879
  37     2.292        0.0012        0.0027        0.2356        0.2383       0.237058       2.11916
  36     2.964        0.0009        0.0022        0.1455        0.1477       0.146786       1.13318
  35     3.853        0.0006        0.0017        0.0858        0.0875       0.086906       0.56828
  34     5.035        0.0004        0.0013        0.0488        0.0501       0.049701       0.26578
  33     6.613        0.0003        0.0010        0.0273        0.0282       0.027974       0.11615
  32     8.786        0.0002        0.0007        0.0144        0.0151       0.014928       0.05067
  31     11.80        0.0001        0.0004        0.0065        0.0070       0.006903       0.02247
  30     15.07        0.0000        0.0003        0.0031        0.0034       0.003329       0.00923
  29     18.79        0.0000        0.0002        0.0014        0.0016       0.001583       0.00396
  28     23.16        0.0000        0.0001        0.0006        0.0007       0.000720       0.00167
  27     28.12        0.0000        0.0001        0.0003        0.0003       0.000317       0.00069
  26     33.73        0.0000        0.0000        0.0001        0.0001       0.000140       0.00027
  25     40.54        0.0000        0.0000        0.0000        0.0001       0.000057       0.00010
  24     48.69        0.0000        0.0000        0.0000        0.0000       0.000021       0.00004
  23     57.69        0.0000        0.0000        0.0000        0.0000       0.000008       0.00001
  22     68.43        0.0000        0.0000        0.0000        0.0000       0.000003       0.00000
  21     81.20        0.0000        0.0000        0.0000        0.0000       0.000001       0.00000
  20     96.49        0.0000        0.0000        0.0000        0.0000       0.000000       0.00000
  19     114.6        0.0000        0.0000        0.0000        0.0000       0.000000       0.00000
  18     136.5        0.0000        0.0000        0.0000        0.0000       0.000000       0.00000
  17     162.9        0.0000        0.0000        0.0000        0.0000       0.000000       0.00000
  16     196.4        0.0000        0.0000        0.0000        0.0000       0.000000       0.00000
  15     218.7        0.0000        0.0000        0.0000        0.0000       0.000000       0.00000
  14     243.0        0.0000        0.0000        0.0000        0.0000       0.000000       0.00000
  13     269.0        0.0000        0.0000        0.0000        0.0000       0.000000       0.00000
  12     297.5        0.0000        0.0000        0.0000        0.0000       0.000000       0.00000
  11     328.5        0.0000        0.0000        0.0000        0.0000       0.000000       0.00000
  10     361.9        0.0000        0.0000        0.0000        0.0000       0.000000       0.00000
   9     398.1        0.0000        0.0000        0.0000        0.0000       0.000000       0.00000
   8     437.6        0.0000        0.0000        0.0000        0.0000       0.000000       0.00000
   7     480.5        0.0000        0.0000        0.0000        0.0000       0.000000       0.00000
   6     533.0        0.0000        0.0000        0.0000        0.0000       0.000000       0.00000
   5     589.8        0.0000        0.0000        0.0000        0.0000       0.000000       0.00000
   4     651.6        0.0000        0.0000        0.0000        0.0000       0.000000       0.00000
   3     718.7        0.0000        0.0000        0.0000        0.0000       0.000000       0.00000
   2     792.3        0.0000        0.0000        0.0000        0.0000       0.000000       0.00000
   1     891.5        0.0000        0.0000        0.0000        0.0000       0.000000       0.00000
   0    1013.0        0.0000        0.0000        0.0000        0.0000       0.000000       0.00000



 Wavenumbers:   820. -  2600. cm-1, ATM      1
 LEVEL PRESSURE   UPWARD FLUX   DIFDOWN FLUX  DIRDOWN FLUX  DOWNWARD FLUX   NET FLUX    HEATING RATE
          mb          W/m2          W/m2          W/m2        W/m2          W/m2       degree/day
  51    .06700        0.9829        0.0000        6.0047        6.0047       5.021782       0.00000
  50    .07753        0.9829        0.0000        6.0008        6.0008       5.017929       3.08822
  49    .09103        0.9829        0.0000        5.9999        5.9999       5.017043       0.55359
  48    0.1069        0.9829        0.0000        5.9989        5.9989       5.016054       0.52654
  47    0.1255        0.9829        0.0000        5.9978        5.9978       5.014937       0.50651
  46    0.1487        0.9829        0.0000        5.9964        5.9964       5.013580       0.49458
  45    0.1794        0.9829        0.0000        5.9947        5.9947       5.011861       0.47201
  44    0.2165        0.9829        0.0000        5.9929        5.9929       5.010018       0.41912
  43    0.2613        0.9829        0.0000        5.9909        5.9909       5.008059       0.36935
  42    0.3336        0.9829        0.0000        5.9880        5.9880       5.005181       0.33558
  41    0.4307        0.9829        0.0000        5.9846        5.9846       5.001711       0.30167
  40    0.5894        0.9829        0.0000        5.9791        5.9791       4.996206       0.29278
  39     1.339        0.9829        0.0000        5.9536        5.9536       4.970716       0.28696
  38     1.782        0.9829        0.0000        5.9395        5.9395       4.956577       0.26919
  37     2.292        0.9829        0.0000        5.9237        5.9237       4.940825       0.26090
  36     2.964        0.9829        0.0000        5.9039        5.9039       4.921049       0.24825
  35     3.853        0.9829        0.0000        5.8793        5.8793       4.896390       0.23401
  34     5.035        0.9829        0.0000        5.8487        5.8487       4.865824       0.21835
  33     6.613        0.9829        0.0000        5.8108        5.8108       4.827855       0.20298
  32     8.786        0.9829        0.0000        5.7631        5.7631       4.780226       0.18498
  31     11.80        0.9829        0.0000        5.7039        5.7039       4.720960       0.16593
  30     15.07        0.9830        0.0000        5.6539        5.6539       4.670911       0.12922
  29     18.79        0.9830        0.0000        5.6127        5.6127       4.629763       0.09329
  28     23.16        0.9830        0.0000        5.5794        5.5794       4.596372       0.06457
  27     28.12        0.9830        0.0000        5.5518        5.5518       4.568786       0.04689
  26     33.73        0.9831        0.0000        5.5268        5.5268       4.543711       0.03770
  25     40.54        0.9831        0.0000        5.4993        5.4993       4.516239       0.03408
  24     48.69        0.9831        0.0000        5.4678        5.4678       4.484662       0.03268
  23     57.69        0.9832        0.0000        5.4340        5.4340       4.450833       0.03171
  22     68.43        0.9832        0.0000        5.3947        5.3948       4.411508       0.03091
  21     81.20        0.9833        0.0000        5.3497        5.3497       4.366411       0.02980
  20     96.49        0.9834        0.0000        5.2982        5.2982       4.314818       0.02848
  19     114.6        0.9835        0.0000        5.2389        5.2389       4.255396       0.02775
  18     136.5        0.9837        0.0000        5.1716        5.1717       4.188014       0.02591
  17     162.9        0.9838        0.0000        5.0890        5.0890       4.105202       0.02647
  16     196.4        0.9842        0.0000        4.9668        4.9668       3.982649       0.03085
  15     218.7        0.9845        0.0000        4.8585        4.8585       3.873961       0.04126
  14     243.0        0.9850        0.0000        4.7078        4.7079       3.722817       0.05242
  13     269.0        0.9858        0.0000        4.5343        4.5343       3.548452       0.05656
  12     297.5        0.9871        0.0000        4.3419        4.3420       3.354875       0.05741
  11     328.5        0.9888        0.0000        4.1281        4.1281       3.139362       0.05860
  10     361.9        0.9910        0.0000        3.8786        3.8787       2.887648       0.06369
   9     398.1        0.9939        0.0000        3.6159        3.6160       2.622009       0.06189
   8     437.6        0.9977        0.0000        3.3759        3.3759       2.378174       0.05213
   7     480.5        1.0023        0.0000        3.1957        3.1958       2.193444       0.03628
   6     533.0        1.0094        0.0000        3.0467        3.0467       2.037337       0.02511
   5     589.8        1.0197        0.0000        2.9023        2.9023       1.882586       0.02297
   4     651.6        1.0378        0.0000        2.7183        2.7184       1.680606       0.02762
   3     718.7        1.0689        0.0000        2.5058        2.5059       1.436996       0.03061
   2     792.3        1.1282        0.0001        2.2756        2.2757       1.147444       0.03321
   1     891.5        0.1621        0.8024        0.2169        1.0192       0.857189       0.02470
   0    1013.0        0.1959        0.6487        0.1710        0.8197       0.623814       0.01620

  Modules and versions used in this calculation:

       rrtmg_sw.1col.f90:  $Revision$                    rrtmg_sw_init.f90:  $Revision$        
     rrtmgsw_cldprop.f90:  $Revision$                  rrtmgsw_cldprmc.f90:  NOT USED          
     rrtmg_sw_reftra.f90:  $Revision$                  rrtmg_sw_spcvrt.f90:  NOT USED          
     rrtmg_sw_spcvmc.f90:  NOT USED                    rrtmgsw_setcoef.f90:  NOT USED          
     rrtmg_sw_taumol.f90:  $Revision$                  rrtmg_sw_vrtqdr.f90:  NOT USED          
                rrtatm.f:  NOT USED                             util_xxx.f:  NOT USED          
                 extra.f:  NOT USED                       rrtmg_sw_k_g.f90:  $Revision$        

