

 Wavenumbers:   820. - 50000. cm-1, ATM      1
 LEVEL PRESSURE   UPWARD FLUX   DIFDOWN FLUX  DIRDOWN FLUX  DOWNWARD FLUX   NET FLUX    HEATING RATE
          mb          W/m2          W/m2          W/m2        W/m2          W/m2       degree/day
  51    .06700      103.1905        0.0000      397.8738      397.8738     294.683278       0.00000
  50    .07753      103.1897        0.0010      397.8577      397.8587     294.668981      11.45919
  49    .09103      103.1888        0.0024      397.8417      397.8441     294.655297       8.55303
  48    0.1069      103.1877        0.0039      397.8228      397.8267     294.638966       8.69309
  47    0.1255      103.1865        0.0056      397.7995      397.8050     294.618559       9.25134
  46    0.1487      103.1850        0.0078      397.7674      397.7751     294.590167      10.34930
  45    0.1794      103.1829        0.0107      397.7202      397.7309     294.547995      11.57734
  44    0.2165      103.1805        0.0142      397.6598      397.6740     294.493526      12.39063
  43    0.2613      103.1777        0.0183      397.5823      397.6007     294.422985      13.29665
  42    0.3336      103.1731        0.0251      397.4441      397.4692     294.296060      14.79822
  41    0.4307      103.1673        0.0340      397.2513      397.2853     294.118024      15.47984
  40    0.5894      103.1580        0.0482      396.9238      396.9720     293.813979      16.16876
  39     1.339      103.1204        0.1113      395.4223      395.5336     292.413199      15.77024
  38     1.782      103.1020        0.1465      394.7250      394.8715     291.769439      12.25615
  37     2.292      103.0838        0.1864      394.0527      394.2392     291.155320      10.17140
  36     2.964      103.0644        0.2382      393.2958      393.5340     290.469646       8.60729
  35     3.853      103.0446        0.3057      392.4268      392.7325     289.687948       7.41845
  34     5.035      103.0243        0.3944      391.4394      391.8338     288.809457       6.27558
  33     6.613      103.0009        0.5118      390.3226      390.8344     287.833482       5.21756
  32     8.786      102.9680        0.6686      389.0591      389.7277     286.759699       4.17018
  31     11.80      102.9129        0.8908      387.5485      388.4393     285.526348       3.45300
  30     15.07      102.8442        1.1270      386.1563      387.2833     284.439084       2.80710
  29     18.79      102.7582        1.3914      384.7539      386.1453     283.387091       2.38519
  28     23.16      102.6481        1.6971      383.2764      384.9735     282.325432       2.05291
  27     28.12      102.5109        2.0434      381.7455      383.7889     281.278022       1.78053
  26     33.73      102.3403        2.4274      380.2168      382.6442     280.303901       1.46462
  25     40.54      102.1144        2.8871      378.5644      381.4515     279.337130       1.19939
  24     48.69      101.8237        3.4354      376.7572      380.1926     278.368901       1.00197
  23     57.69      101.4871        4.0306      374.9411      378.9717     277.484622       0.82888
  22     68.43      101.0681        4.7307      372.9538      377.6844     276.616346       0.68258
  21     81.20      100.5437        5.5536      370.8117      376.3653     275.821651       0.52512
  20     96.49       99.8975        6.5188      368.4756      374.9945     275.096997       0.39996
  19     114.6       99.1274        7.6418      365.8339      373.4758     274.348325       0.34958
  18     136.5       98.2170        8.9403      362.8400      371.7803     273.563274       0.30187
  17     162.9       97.1405       10.4416      359.3892      369.8308     272.690344       0.27902
  16     196.4       95.7504       12.3219      355.0144      367.3363     271.585880       0.27801
  15     218.7       94.8456       13.5169      351.9594      365.4763     270.630703       0.36265
  14     243.0       93.8717       14.7810      348.2675      363.0485     269.176853       0.50424
  13     269.0       92.8278       16.1114      343.7550      359.8664     267.038628       0.69363
  12     297.5       91.7136       17.5045      338.5068      356.0113     264.297680       0.81294
  11     328.5       90.5269       18.9599      332.8831      351.8430     261.316071       0.81069
  10     361.9       89.2689       20.4712      326.8113      347.2825     258.013600       0.83556
   9     398.1       87.9375       22.0356      320.2372      342.2728     254.335382       0.85694
   8     437.6       86.5343       23.6460      313.1616      336.8076     250.273326       0.86849
   7     480.5       85.0598       25.2970      305.6964      330.9934     245.933563       0.85231
   6     533.0       83.2883       27.2261      296.6807      323.9068     240.618573       0.85501
   5     589.8       81.4359       29.1848      287.0555      316.2403     234.804338       0.86302
   4     651.6       79.5255       31.1577      276.4494      307.6071     228.081622       0.91935
   3     718.7       77.5849       33.1258      265.1657      298.2915     220.706559       0.92684
   2     792.3       75.6776       35.0676      252.9748      288.0424     212.364821       0.95670
   1     891.5       73.4897       37.4259      236.8133      274.2392     200.749515       0.98841
   0    1013.0       71.7104       39.8989      218.9853      258.8842     187.173765       0.94263



 Wavenumbers:  2600. -  3250. cm-1, ATM      1
 LEVEL PRESSURE   UPWARD FLUX   DIFDOWN FLUX  DIRDOWN FLUX  DOWNWARD FLUX   NET FLUX    HEATING RATE
          mb          W/m2          W/m2          W/m2        W/m2          W/m2       degree/day
  51    .06700        0.3251        0.0000        3.5066        3.5066       3.181513       0.00000
  50    .07753        0.3251        0.0000        3.5066        3.5066       3.181505       0.00640
  49    .09103        0.3251        0.0000        3.5066        3.5066       3.181495       0.00627
  48    0.1069        0.3251        0.0000        3.5066        3.5066       3.181483       0.00613
  47    0.1255        0.3251        0.0000        3.5066        3.5066       3.181470       0.00599
  46    0.1487        0.3251        0.0000        3.5066        3.5066       3.181453       0.00607
  45    0.1794        0.3251        0.0000        3.5065        3.5065       3.181431       0.00624
  44    0.2165        0.3251        0.0000        3.5065        3.5065       3.181404       0.00611
  43    0.2613        0.3251        0.0000        3.5065        3.5065       3.181372       0.00598
  42    0.3336        0.3251        0.0000        3.5064        3.5064       3.181319       0.00615
  41    0.4307        0.3251        0.0000        3.5064        3.5064       3.181248       0.00618
  40    0.5894        0.3251        0.0000        3.5062        3.5062       3.181129       0.00633
  39     1.339        0.3251        0.0000        3.5055        3.5055       3.180430       0.00787
  38     1.782        0.3251        0.0000        3.5050        3.5050       3.179900       0.01011
  37     2.292        0.3251        0.0000        3.5043        3.5043       3.179207       0.01147
  36     2.964        0.3251        0.0000        3.5033        3.5033       3.178216       0.01245
  35     3.853        0.3251        0.0000        3.5019        3.5019       3.176839       0.01307
  34     5.035        0.3251        0.0000        3.5001        3.5001       3.174978       0.01329
  33     6.613        0.3251        0.0000        3.4977        3.4977       3.172568       0.01288
  32     8.786        0.3251        0.0000        3.4947        3.4947       3.169597       0.01154
  31     11.80        0.3251        0.0000        3.4911        3.4911       3.165962       0.01018
  30     15.07        0.3251        0.0000        3.4878        3.4878       3.162741       0.00832
  29     18.79        0.3251        0.0000        3.4848        3.4848       3.159678       0.00695
  28     23.16        0.3251        0.0000        3.4816        3.4816       3.156458       0.00623
  27     28.12        0.3251        0.0000        3.4779        3.4779       3.152840       0.00615
  26     33.73        0.3251        0.0000        3.4735        3.4735       3.148373       0.00672
  25     40.54        0.3251        0.0000        3.4671        3.4671       3.142047       0.00785
  24     48.69        0.3251        0.0000        3.4582        3.4583       3.133152       0.00920
  23     57.69        0.3251        0.0000        3.4472        3.4472       3.122104       0.01036
  22     68.43        0.3251        0.0000        3.4329        3.4329       3.107844       0.01121
  21     81.20        0.3251        0.0000        3.4152        3.4152       3.090115       0.01172
  20     96.49        0.3251        0.0000        3.3940        3.3941       3.068969       0.01167
  19     114.6        0.3251        0.0000        3.3693        3.3694       3.044248       0.01154
  18     136.5        0.3251        0.0001        3.3424        3.3425       3.017352       0.01034
  17     162.9        0.3252        0.0001        3.3141        3.3142       2.989015       0.00906
  16     196.4        0.3252        0.0001        3.2825        3.2826       2.957380       0.00796
  15     218.7        0.3253        0.0001        3.2621        3.2622       2.936963       0.00775
  14     243.0        0.3253        0.0001        3.2371        3.2372       2.911866       0.00870
  13     269.0        0.3255        0.0001        3.2052        3.2053       2.879848       0.01039
  12     297.5        0.3257        0.0001        3.1631        3.1632       2.837450       0.01257
  11     328.5        0.3260        0.0001        3.1094        3.1095       2.783517       0.01466
  10     361.9        0.3264        0.0001        3.0408        3.0410       2.714503       0.01746
   9     398.1        0.3270        0.0001        2.9535        2.9536       2.626617       0.02048
   8     437.6        0.3278        0.0001        2.8452        2.8453       2.517519       0.02333
   7     480.5        0.3288        0.0002        2.7179        2.7181       2.389226       0.02520
   6     533.0        0.3305        0.0002        2.5566        2.5568       2.226298       0.02621
   5     589.8        0.3329        0.0002        2.3805        2.3807       2.047839       0.02649
   4     651.6        0.3367        0.0002        2.1827        2.1829       1.846195       0.02758
   3     718.7        0.3425        0.0002        1.9647        1.9649       1.622453       0.02812
   2     792.3        0.3518        0.0002        1.7211        1.7212       1.369381       0.02902
   1     891.5        0.3726        0.0002        1.4114        1.4116       1.039017       0.02811
   0    1013.0        0.4180        0.0002        1.1008        1.1009       0.682902       0.02473



 Wavenumbers:  3250. -  4000. cm-1, ATM      1
 LEVEL PRESSURE   UPWARD FLUX   DIFDOWN FLUX  DIRDOWN FLUX  DOWNWARD FLUX   NET FLUX    HEATING RATE
          mb          W/m2          W/m2          W/m2        W/m2          W/m2       degree/day
  51    .06700        0.0004        0.0000        5.9117        5.9117       5.911212       0.00000
  50    .07753        0.0004        0.0000        5.9074        5.9074       5.907000       3.37561
  49    .09103        0.0004        0.0000        5.9050        5.9050       5.904535       1.54074
  48    0.1069        0.0004        0.0000        5.9031        5.9031       5.902647       1.00535
  47    0.1255        0.0004        0.0000        5.9013        5.9013       5.900868       0.80634
  46    0.1487        0.0004        0.0000        5.8994        5.8994       5.898956       0.69708
  45    0.1794        0.0004        0.0000        5.8972        5.8972       5.896780       0.59741
  44    0.2165        0.0004        0.0000        5.8951        5.8951       5.894633       0.48841
  43    0.2613        0.0004        0.0000        5.8929        5.8929       5.892436       0.41398
  42    0.3336        0.0004        0.0000        5.8897        5.8897       5.889217       0.37536
  41    0.4307        0.0004        0.0000        5.8857        5.8857       5.885305       0.34011
  40    0.5894        0.0004        0.0000        5.8798        5.8798       5.879399       0.31410
  39     1.339        0.0004        0.0000        5.8590        5.8590       5.858597       0.23419
  38     1.782        0.0004        0.0000        5.8506        5.8506       5.850128       0.16123
  37     2.292        0.0004        0.0000        5.8424        5.8424       5.841923       0.13590
  36     2.964        0.0004        0.0000        5.8327        5.8327       5.832275       0.12112
  35     3.853        0.0004        0.0000        5.8206        5.8206       5.820127       0.11528
  34     5.035        0.0004        0.0000        5.8045        5.8045       5.804096       0.11452
  33     6.613        0.0004        0.0000        5.7828        5.7828       5.782359       0.11620
  32     8.786        0.0004        0.0000        5.7527        5.7527       5.752256       0.11691
  31     11.80        0.0004        0.0000        5.7088        5.7089       5.708434       0.12269
  30     15.07        0.0004        0.0000        5.6617        5.6618       5.661343       0.12158
  29     18.79        0.0004        0.0000        5.6101        5.6102       5.609758       0.11696
  28     23.16        0.0004        0.0000        5.5539        5.5539       5.553496       0.10879
  27     28.12        0.0004        0.0000        5.4957        5.4958       5.495348       0.09885
  26     33.73        0.0004        0.0000        5.4379        5.4379       5.437538       0.08692
  25     40.54        0.0004        0.0001        5.3749        5.3750       5.374577       0.07811
  24     48.69        0.0004        0.0001        5.3044        5.3045       5.304116       0.07292
  23     57.69        0.0004        0.0001        5.2294        5.2295       5.229113       0.07030
  22     68.43        0.0004        0.0001        5.1416        5.1417       5.141351       0.06899
  21     81.20        0.0003        0.0001        5.0402        5.0403       5.039937       0.06701
  20     96.49        0.0003        0.0001        4.9260        4.9261       4.925755       0.06302
  19     114.6        0.0003        0.0001        4.7954        4.7956       4.795280       0.06092
  18     136.5        0.0003        0.0002        4.6558        4.6560       4.655688       0.05368
  17     162.9        0.0002        0.0002        4.4963        4.4964       4.496196       0.05098
  16     196.4        0.0002        0.0002        4.2728        4.2731       4.272842       0.05622
  15     218.7        0.0002        0.0002        4.0724        4.0727       4.072473       0.07607
  14     243.0        0.0002        0.0002        3.8102        3.8105       3.810326       0.09092
  13     269.0        0.0001        0.0002        3.4720        3.4722       3.472077       0.10973
  12     297.5        0.0001        0.0002        3.0589        3.0591       3.058990       0.12252
  11     328.5        0.0001        0.0002        2.6499        2.6502       2.650069       0.11118
  10     361.9        0.0001        0.0002        2.2815        2.2817       2.281612       0.09322
   9     398.1        0.0001        0.0002        1.9524        1.9526       1.952509       0.07667
   8     437.6        0.0001        0.0002        1.6512        1.6515       1.651403       0.06438
   7     480.5        0.0000        0.0002        1.3776        1.3778       1.377758       0.05374
   6     533.0        0.0000        0.0002        1.0886        1.0888       1.088782       0.04649
   5     589.8        0.0000        0.0002        0.8105        0.8106       0.810588       0.04129
   4     651.6        0.0000        0.0001        0.5333        0.5334       0.533394       0.03791
   3     718.7        0.0000        0.0001        0.3032        0.3033       0.303278       0.02892
   2     792.3        0.0000        0.0001        0.1278        0.1279       0.127847       0.02012
   1     891.5        0.0000        0.0000        0.0187        0.0187       0.018723       0.00929
   0    1013.0        0.0001        0.0000        0.0004        0.0004       0.000242       0.00128



 Wavenumbers:  4000. -  4650. cm-1, ATM      1
 LEVEL PRESSURE   UPWARD FLUX   DIFDOWN FLUX  DIRDOWN FLUX  DOWNWARD FLUX   NET FLUX    HEATING RATE
          mb          W/m2          W/m2          W/m2        W/m2          W/m2       degree/day
  51    .06700        1.4305        0.0000        6.9421        6.9421       5.511563       0.00000
  50    .07753        1.4305        0.0000        6.9421        6.9421       5.511562       0.00080
  49    .09103        1.4305        0.0000        6.9421        6.9421       5.511561       0.00078
  48    0.1069        1.4305        0.0000        6.9421        6.9421       5.511560       0.00076
  47    0.1255        1.4305        0.0000        6.9421        6.9421       5.511558       0.00075
  46    0.1487        1.4305        0.0000        6.9421        6.9421       5.511556       0.00076
  45    0.1794        1.4305        0.0000        6.9421        6.9421       5.511553       0.00078
  44    0.2165        1.4305        0.0000        6.9421        6.9421       5.511550       0.00076
  43    0.2613        1.4305        0.0000        6.9420        6.9421       5.511546       0.00075
  42    0.3336        1.4305        0.0000        6.9420        6.9420       5.511539       0.00077
  41    0.4307        1.4305        0.0000        6.9420        6.9420       5.511530       0.00077
  40    0.5894        1.4305        0.0000        6.9420        6.9420       5.511515       0.00080
  39     1.339        1.4305        0.0000        6.9419        6.9419       5.511426       0.00101
  38     1.782        1.4305        0.0000        6.9418        6.9419       5.511356       0.00133
  37     2.292        1.4305        0.0000        6.9418        6.9418       5.511262       0.00156
  36     2.964        1.4305        0.0000        6.9416        6.9416       5.511122       0.00176
  35     3.853        1.4305        0.0000        6.9414        6.9414       5.510914       0.00197
  34     5.035        1.4305        0.0000        6.9411        6.9411       5.510608       0.00219
  33     6.613        1.4305        0.0000        6.9406        6.9406       5.510158       0.00241
  32     8.786        1.4305        0.0000        6.9399        6.9400       5.509495       0.00258
  31     11.80        1.4305        0.0000        6.9389        6.9389       5.508455       0.00291
  30     15.07        1.4305        0.0001        6.9376        6.9377       5.507239       0.00314
  29     18.79        1.4304        0.0001        6.9361        6.9362       5.505774       0.00332
  28     23.16        1.4304        0.0001        6.9343        6.9344       5.503961       0.00350
  27     28.12        1.4304        0.0001        6.9321        6.9322       5.501777       0.00371
  26     33.73        1.4304        0.0001        6.9294        6.9295       5.499096       0.00403
  25     40.54        1.4304        0.0002        6.9257        6.9259       5.495482       0.00448
  24     48.69        1.4304        0.0002        6.9209        6.9211       5.490698       0.00495
  23     57.69        1.4304        0.0002        6.9152        6.9154       5.485069       0.00528
  22     68.43        1.4303        0.0003        6.9081        6.9084       5.478072       0.00550
  21     81.20        1.4303        0.0003        6.8995        6.8998       5.469517       0.00565
  20     96.49        1.4303        0.0004        6.8891        6.8895       5.459185       0.00570
  19     114.6        1.4303        0.0004        6.8762        6.8767       5.446381       0.00598
  18     136.5        1.4303        0.0005        6.8608        6.8614       5.431060       0.00589
  17     162.9        1.4303        0.0006        6.8421        6.8427       5.412416       0.00596
  16     196.4        1.4304        0.0007        6.8166        6.8173       5.386925       0.00642
  15     218.7        1.4305        0.0008        6.7976        6.7984       5.367845       0.00724
  14     243.0        1.4307        0.0009        6.7731        6.7740       5.343316       0.00851
  13     269.0        1.4311        0.0010        6.7409        6.7420       5.310895       0.01052
  12     297.5        1.4316        0.0011        6.6982        6.6993       5.267702       0.01281
  11     328.5        1.4324        0.0012        6.6434        6.6447       5.212294       0.01507
  10     361.9        1.4334        0.0013        6.5741        6.5755       5.142080       0.01776
   9     398.1        1.4346        0.0015        6.4889        6.4904       5.055732       0.02012
   8     437.6        1.4362        0.0016        6.3876        6.3892       4.952974       0.02197
   7     480.5        1.4382        0.0017        6.2749        6.2766       4.838347       0.02251
   6     533.0        1.4412        0.0019        6.1332        6.1350       4.693879       0.02324
   5     589.8        1.4452        0.0020        5.9653        5.9673       4.522106       0.02550
   4     651.6        1.4513        0.0022        5.7389        5.7411       4.289717       0.03178
   3     718.7        1.4608        0.0023        5.4502        5.4525       3.991733       0.03745
   2     792.3        1.4761        0.0024        5.1134        5.1158       3.639675       0.04038
   1     891.5        1.5108        0.0025        4.6750        4.6775       3.166779       0.04024
   0    1013.0        1.5882        0.0026        4.1801        4.1827       2.594537       0.03973



 Wavenumbers:  4650. -  5150. cm-1, ATM      1
 LEVEL PRESSURE   UPWARD FLUX   DIFDOWN FLUX  DIRDOWN FLUX  DOWNWARD FLUX   NET FLUX    HEATING RATE
          mb          W/m2          W/m2          W/m2        W/m2          W/m2       degree/day
  51    .06700        0.9859        0.0000        6.5710        6.5710       5.585111       0.00000
  50    .07753        0.9859        0.0000        6.5708        6.5708       5.584875       0.18877
  49    .09103        0.9859        0.0000        6.5705        6.5705       5.584582       0.18352
  48    0.1069        0.9859        0.0000        6.5701        6.5701       5.584247       0.17796
  47    0.1255        0.9859        0.0000        6.5697        6.5697       5.583867       0.17229
  46    0.1487        0.9859        0.0000        6.5693        6.5693       5.583394       0.17259
  45    0.1794        0.9859        0.0000        6.5686        6.5686       5.582758       0.17464
  44    0.2165        0.9859        0.0000        6.5679        6.5679       5.582020       0.16778
  43    0.2613        0.9859        0.0000        6.5670        6.5670       5.581168       0.16069
  42    0.3336        0.9859        0.0000        6.5657        6.5657       5.579805       0.15885
  41    0.4307        0.9859        0.0000        6.5640        6.5640       5.578084       0.14962
  40    0.5894        0.9859        0.0000        6.5613        6.5613       5.575470       0.13905
  39     1.339        0.9859        0.0000        6.5516        6.5516       5.565698       0.11001
  38     1.782        0.9859        0.0000        6.5473        6.5474       5.561485       0.08021
  37     2.292        0.9859        0.0000        6.5435        6.5435       5.557600       0.06434
  36     2.964        0.9859        0.0000        6.5395        6.5395       5.553649       0.04960
  35     3.853        0.9859        0.0000        6.5356        6.5356       5.549709       0.03739
  34     5.035        0.9859        0.0000        6.5315        6.5316       5.545710       0.02857
  33     6.613        0.9859        0.0000        6.5271        6.5272       5.541320       0.02347
  32     8.786        0.9858        0.0001        6.5216        6.5217       5.535830       0.02132
  31     11.80        0.9858        0.0001        6.5135        6.5136       5.527760       0.02260
  30     15.07        0.9858        0.0001        6.5041        6.5042       5.518401       0.02416
  29     18.79        0.9858        0.0001        6.4926        6.4927       5.506897       0.02608
  28     23.16        0.9858        0.0001        6.4780        6.4781       5.492319       0.02819
  27     28.12        0.9858        0.0002        6.4600        6.4601       5.474362       0.03053
  26     33.73        0.9858        0.0002        6.4385        6.4387       5.452953       0.03219
  25     40.54        0.9857        0.0002        6.4114        6.4116       5.425855       0.03362
  24     48.69        0.9857        0.0003        6.3777        6.3780       5.392253       0.03477
  23     57.69        0.9857        0.0003        6.3406        6.3409       5.355200       0.03473
  22     68.43        0.9857        0.0004        6.2974        6.2978       5.312055       0.03392
  21     81.20        0.9857        0.0005        6.2485        6.2490       5.263292       0.03222
  20     96.49        0.9857        0.0005        6.1952        6.1957       5.209980       0.02942
  19     114.6        0.9858        0.0006        6.1386        6.1392       5.153432       0.02640
  18     136.5        0.9858        0.0008        6.0795        6.0803       5.094466       0.02267
  17     162.9        0.9859        0.0009        6.0168        6.0177       5.031765       0.02004
  16     196.4        0.9861        0.0011        5.9412        5.9423       4.956164       0.01903
  15     218.7        0.9863        0.0012        5.8915        5.8926       4.906317       0.01893
  14     243.0        0.9866        0.0013        5.8346        5.8359       4.849350       0.01976
  13     269.0        0.9870        0.0014        5.7676        5.7690       4.782041       0.02183
  12     297.5        0.9876        0.0015        5.6858        5.6873       4.699757       0.02440
  11     328.5        0.9884        0.0017        5.5899        5.5916       4.603221       0.02625
  10     361.9        0.9895        0.0018        5.4787        5.4806       4.491110       0.02837
   9     398.1        0.9909        0.0020        5.3502        5.3522       4.361322       0.03024
   8     437.6        0.9928        0.0021        5.2035        5.2056       4.212796       0.03176
   7     480.5        0.9953        0.0023        5.0390        5.0413       4.046007       0.03276
   6     533.0        0.9990        0.0025        4.8308        4.8333       3.834231       0.03407
   5     589.8        1.0042        0.0026        4.6030        4.6056       3.601401       0.03456
   4     651.6        1.0118        0.0028        4.3500        4.3528       3.340946       0.03562
   3     718.7        1.0230        0.0029        4.0793        4.0822       3.059181       0.03541
   2     792.3        1.0397        0.0030        3.7904        3.7934       2.753692       0.03504
   1     891.5        1.0737        0.0031        3.4079        3.4111       2.337337       0.03543
   0    1013.0        1.1391        0.0032        2.9969        3.0001       1.860958       0.03308



 Wavenumbers:  5150. -  6150. cm-1, ATM      1
 LEVEL PRESSURE   UPWARD FLUX   DIFDOWN FLUX  DIRDOWN FLUX  DOWNWARD FLUX   NET FLUX    HEATING RATE
          mb          W/m2          W/m2          W/m2        W/m2          W/m2       degree/day
  51    .06700        2.6583        0.0000       16.4735       16.4735      13.815254       0.00000
  50    .07753        2.6583        0.0000       16.4735       16.4735      13.815215       0.03156
  49    .09103        2.6583        0.0000       16.4734       16.4734      13.815164       0.03205
  48    0.1069        2.6583        0.0000       16.4734       16.4734      13.815103       0.03255
  47    0.1255        2.6583        0.0000       16.4733       16.4733      13.815030       0.03305
  46    0.1487        2.6583        0.0000       16.4732       16.4732      13.814934       0.03481
  45    0.1794        2.6583        0.0000       16.4730       16.4730      13.814799       0.03705
  44    0.2165        2.6582        0.0000       16.4729       16.4729      13.814634       0.03760
  43    0.2613        2.6582        0.0000       16.4727       16.4727      13.814431       0.03816
  42    0.3336        2.6582        0.0000       16.4723       16.4723      13.814086       0.04029
  41    0.4307        2.6582        0.0000       16.4719       16.4719      13.813617       0.04080
  40    0.5894        2.6582        0.0000       16.4711       16.4711      13.812831       0.04175
  39     1.339        2.6582        0.0000       16.4673       16.4673      13.809068       0.04237
  38     1.782        2.6582        0.0000       16.4651       16.4651      13.806890       0.04145
  37     2.292        2.6582        0.0001       16.4626       16.4626      13.804439       0.04061
  36     2.964        2.6582        0.0001       16.4595       16.4595      13.801343       0.03886
  35     3.853        2.6582        0.0001       16.4555       16.4556      13.797439       0.03705
  34     5.035        2.6582        0.0001       16.4505       16.4506      13.792460       0.03556
  33     6.613        2.6581        0.0002       16.4440       16.4442      13.786084       0.03409
  32     8.786        2.6581        0.0002       16.4358       16.4360      13.777959       0.03156
  31     11.80        2.6580        0.0003       16.4249       16.4252      13.767204       0.03011
  30     15.07        2.6580        0.0004       16.4143       16.4147      13.756686       0.02716
  29     18.79        2.6579        0.0005       16.4034       16.4039      13.745983       0.02427
  28     23.16        2.6578        0.0006       16.3920       16.3926      13.734744       0.02173
  27     28.12        2.6578        0.0007       16.3803       16.3810      13.723281       0.01949
  26     33.73        2.6577        0.0009       16.3687       16.3696      13.711947       0.01704
  25     40.54        2.6576        0.0011       16.3564       16.3575      13.699898       0.01495
  24     48.69        2.6575        0.0013       16.3435       16.3448      13.687317       0.01302
  23     57.69        2.6574        0.0015       16.3309       16.3324      13.675079       0.01147
  22     68.43        2.6572        0.0018       16.3174       16.3192      13.662001       0.01028
  21     81.20        2.6571        0.0021       16.3027       16.3048      13.647747       0.00942
  20     96.49        2.6569        0.0025       16.2861       16.2887      13.631769       0.00882
  19     114.6        2.6567        0.0030       16.2671       16.2701      13.613372       0.00859
  18     136.5        2.6565        0.0036       16.2445       16.2481      13.591619       0.00836
  17     162.9        2.6562        0.0042       16.2108       16.2151      13.558806       0.01049
  16     196.4        2.6559        0.0051       16.1360       16.1411      13.485156       0.01854
  15     218.7        2.6557        0.0057       16.0099       16.0156      13.359817       0.04759
  14     243.0        2.6556        0.0062       15.7396       15.7459      13.090287       0.09348
  13     269.0        2.6555        0.0068       15.3077       15.3145      12.659002       0.13991
  12     297.5        2.6554        0.0073       14.7951       14.8024      12.146965       0.15186
  11     328.5        2.6554        0.0078       14.2426       14.2504      11.594996       0.15008
  10     361.9        2.6556        0.0083       13.6155       13.6238      10.968231       0.15858
   9     398.1        2.6558        0.0088       12.9439       12.9527      10.296814       0.15643
   8     437.6        2.6563        0.0092       12.2429       12.2521       9.595774       0.14989
   7     480.5        2.6571        0.0096       11.5524       11.5620       8.904953       0.13567
   6     533.0        2.6585        0.0101       10.8188       10.8289       8.170463       0.11816
   5     589.8        2.6607        0.0105       10.1668       10.1773       7.516618       0.09705
   4     651.6        2.6648        0.0110        9.5867        9.5976       6.932810       0.07984
   3     718.7        2.6720        0.0115        9.1006        9.1121       6.440114       0.06192
   2     792.3        2.6847        0.0121        8.6172        8.6293       5.944558       0.05683
   1     891.5        2.7156        0.0128        7.9587        7.9714       5.255822       0.05861
   0    1013.0        2.7910        0.0135        7.3371        7.3506       4.559569       0.04834



 Wavenumbers:  6150. -  7700. cm-1, ATM      1
 LEVEL PRESSURE   UPWARD FLUX   DIFDOWN FLUX  DIRDOWN FLUX  DOWNWARD FLUX   NET FLUX    HEATING RATE
          mb          W/m2          W/m2          W/m2        W/m2          W/m2       degree/day
  51    .06700        3.8539        0.0000       30.4684       30.4684      26.614461       0.00000
  50    .07753        3.8539        0.0000       30.4683       30.4683      26.614404       0.04553
  49    .09103        3.8539        0.0000       30.4682       30.4683      26.614331       0.04582
  48    0.1069        3.8539        0.0000       30.4682       30.4682      26.614244       0.04613
  47    0.1255        3.8539        0.0000       30.4681       30.4681      26.614142       0.04643
  46    0.1487        3.8539        0.0000       30.4679       30.4679      26.614009       0.04850
  45    0.1794        3.8539        0.0000       30.4677       30.4677      26.613822       0.05124
  44    0.2165        3.8539        0.0000       30.4675       30.4675      26.613595       0.05163
  43    0.2613        3.8539        0.0000       30.4672       30.4672      26.613319       0.05205
  42    0.3336        3.8539        0.0000       30.4667       30.4667      26.612850       0.05464
  41    0.4307        3.8539        0.0000       30.4661       30.4661      26.612216       0.05511
  40    0.5894        3.8539        0.0001       30.4650       30.4650      26.611160       0.05619
  39     1.339        3.8538        0.0001       30.4598       30.4599      26.606096       0.05701
  38     1.782        3.8538        0.0002       30.4567       30.4569      26.603153       0.05603
  37     2.292        3.8537        0.0002       30.4533       30.4535      26.599818       0.05523
  36     2.964        3.8536        0.0003       30.4489       30.4492      26.595568       0.05335
  35     3.853        3.8535        0.0004       30.4433       30.4437      26.590145       0.05146
  34     5.035        3.8534        0.0006       30.4360       30.4366      26.583153       0.04995
  33     6.613        3.8533        0.0007       30.4266       30.4274      26.574083       0.04849
  32     8.786        3.8531        0.0010       30.4144       30.4154      26.562322       0.04567
  31     11.80        3.8528        0.0013       30.3978       30.3991      26.546383       0.04463
  30     15.07        3.8524        0.0017       30.3811       30.3828      26.530342       0.04142
  29     18.79        3.8521        0.0021       30.3635       30.3656      26.513478       0.03823
  28     23.16        3.8517        0.0026       30.3443       30.3469      26.495223       0.03530
  27     28.12        3.8512        0.0031       30.3239       30.3270      26.475869       0.03290
  26     33.73        3.8506        0.0037       30.3029       30.3067      26.456047       0.02980
  25     40.54        3.8500        0.0045       30.2799       30.2843      26.434363       0.02690
  24     48.69        3.8492        0.0054       30.2548       30.2601      26.410975       0.02420
  23     57.69        3.8483        0.0063       30.2296       30.2359      26.387638       0.02187
  22     68.43        3.8472        0.0075       30.2020       30.2095      26.362267       0.01995
  21     81.20        3.8460        0.0089       30.1714       30.1803      26.334335       0.01846
  20     96.49        3.8445        0.0106       30.1369       30.1474      26.302927       0.01733
  19     114.6        3.8427        0.0126       30.0970       30.1096      26.266830       0.01685
  18     136.5        3.8406        0.0149       30.0504       30.0653      26.224674       0.01621
  17     162.9        3.8381        0.0177       29.9842       30.0019      26.163730       0.01948
  16     196.4        3.8349        0.0213       29.8533       29.8746      26.039648       0.03123
  15     218.7        3.8328        0.0236       29.6742       29.6979      25.865008       0.06630
  14     243.0        3.8306        0.0260       29.3154       29.3414      25.510783       0.12286
  13     269.0        3.8284        0.0284       28.6682       28.6966      24.868216       0.20845
  12     297.5        3.8261        0.0307       27.7720       27.8027      23.976559       0.26446
  11     328.5        3.8239        0.0329       26.8285       26.8614      23.037472       0.25534
  10     361.9        3.8219        0.0352       25.7886       25.8238      22.001966       0.26199
   9     398.1        3.8200        0.0373       24.6047       24.6420      20.822002       0.27491
   8     437.6        3.8186        0.0392       23.3058       23.3451      19.526453       0.27700
   7     480.5        3.8179        0.0410       21.9700       22.0110      18.193082       0.26187
   6     533.0        3.8183        0.0427       20.4313       20.4741      16.655736       0.24731
   5     589.8        3.8213        0.0442       18.8913       18.9355      15.114232       0.22881
   4     651.6        3.8294        0.0452       17.2864       17.3317      13.502238       0.22044
   3     718.7        3.8463        0.0460       15.7330       15.7789      11.932658       0.19725
   2     792.3        3.8794        0.0464       14.2351       14.2815      10.402116       0.17554
   1     891.5        3.9633        0.0468       12.5248       12.5716       8.608235       0.15265
   0    1013.0        4.1699        0.0472       10.9349       10.9821       6.812182       0.12471



 Wavenumbers:  7700. -  8050. cm-1, ATM      1
 LEVEL PRESSURE   UPWARD FLUX   DIFDOWN FLUX  DIRDOWN FLUX  DOWNWARD FLUX   NET FLUX    HEATING RATE
          mb          W/m2          W/m2          W/m2        W/m2          W/m2       degree/day
  51    .06700        2.0535        0.0000        7.2006        7.2006       5.147078       0.00000
  50    .07753        2.0535        0.0000        7.2006        7.2006       5.147059       0.01525
  49    .09103        2.0535        0.0000        7.2005        7.2005       5.147035       0.01495
  48    0.1069        2.0535        0.0000        7.2005        7.2005       5.147008       0.01464
  47    0.1255        2.0535        0.0000        7.2005        7.2005       5.146976       0.01432
  46    0.1487        2.0535        0.0000        7.2004        7.2005       5.146936       0.01453
  45    0.1794        2.0535        0.0000        7.2004        7.2004       5.146882       0.01495
  44    0.2165        2.0535        0.0000        7.2003        7.2003       5.146817       0.01467
  43    0.2613        2.0535        0.0000        7.2003        7.2003       5.146741       0.01439
  42    0.3336        2.0535        0.0000        7.2001        7.2001       5.146614       0.01473
  41    0.4307        2.0535        0.0000        7.2000        7.2000       5.146447       0.01456
  40    0.5894        2.0536        0.0000        7.1997        7.1997       5.146173       0.01455
  39     1.339        2.0536        0.0001        7.1984        7.1985       5.144880       0.01457
  38     1.782        2.0537        0.0001        7.1977        7.1978       5.144120       0.01446
  37     2.292        2.0537        0.0001        7.1968        7.1969       5.143241       0.01456
  36     2.964        2.0537        0.0001        7.1957        7.1958       5.142087       0.01448
  35     3.853        2.0538        0.0002        7.1942        7.1944       5.140563       0.01446
  34     5.035        2.0539        0.0002        7.1922        7.1925       5.138541       0.01445
  33     6.613        2.0541        0.0003        7.1896        7.1899       5.135842       0.01443
  32     8.786        2.0542        0.0004        7.1860        7.1864       5.132210       0.01410
  31     11.80        2.0545        0.0005        7.1810        7.1815       5.127027       0.01451
  30     15.07        2.0548        0.0007        7.1755        7.1762       5.121477       0.01433
  29     18.79        2.0551        0.0009        7.1694        7.1703       5.115228       0.01417
  28     23.16        2.0554        0.0011        7.1623        7.1634       5.107955       0.01406
  27     28.12        2.0559        0.0013        7.1543        7.1555       5.099676       0.01407
  26     33.73        2.0563        0.0015        7.1453        7.1468       5.090457       0.01386
  25     40.54        2.0569        0.0018        7.1344        7.1363       5.079386       0.01373
  24     48.69        2.0576        0.0022        7.1215        7.1237       5.066136       0.01371
  23     57.69        2.0584        0.0026        7.1075        7.1101       5.051704       0.01353
  22     68.43        2.0593        0.0031        7.0909        7.0940       5.034681       0.01338
  21     81.20        2.0604        0.0037        7.0714        7.0750       5.014630       0.01325
  20     96.49        2.0617        0.0043        7.0484        7.0528       4.991059       0.01301
  19     114.6        2.0633        0.0051        7.0217        7.0268       4.963509       0.01286
  18     136.5        2.0652        0.0061        6.9906        6.9967       4.931446       0.01233
  17     162.9        2.0676        0.0072        6.9544        6.9616       4.894052       0.01195
  16     196.4        2.0707        0.0087        6.9088        6.9174       4.846767       0.01190
  15     218.7        2.0727        0.0096        6.8795        6.8891       4.816347       0.01155
  14     243.0        2.0750        0.0106        6.8482        6.8588       4.783792       0.01129
  13     269.0        2.0776        0.0118        6.8148        6.8266       4.749025       0.01128
  12     297.5        2.0804        0.0130        6.7794        6.7923       4.711934       0.01100
  11     328.5        2.0835        0.0143        6.7415        6.7558       4.672274       0.01078
  10     361.9        2.0870        0.0156        6.7014        6.7170       4.630029       0.01069
   9     398.1        2.0909        0.0171        6.6586        6.6757       4.584809       0.01054
   8     437.6        2.0954        0.0187        6.6128        6.6316       4.536193       0.01039
   7     480.5        2.1004        0.0204        6.5638        6.5842       4.483813       0.01029
   6     533.0        2.1070        0.0225        6.5031        6.5255       4.418565       0.01050
   5     589.8        2.1148        0.0247        6.4362        6.4609       4.346174       0.01075
   4     651.6        2.1243        0.0271        6.3609        6.3880       4.263695       0.01128
   3     718.7        2.1360        0.0296        6.2745        6.3041       4.168003       0.01203
   2     792.3        2.1512        0.0322        6.1727        6.2049       4.053674       0.01311
   1     891.5        2.1769        0.0356        6.0169        6.0525       3.875605       0.01515
   0    1013.0        2.2175        0.0395        5.8007        5.8402       3.622675       0.01756



 Wavenumbers:  8050. - 12850. cm-1, ATM      1
 LEVEL PRESSURE   UPWARD FLUX   DIFDOWN FLUX  DIRDOWN FLUX  DOWNWARD FLUX   NET FLUX    HEATING RATE
          mb          W/m2          W/m2          W/m2        W/m2          W/m2       degree/day
  51    .06700       26.1319        0.0000      100.8135      100.8135      74.681657       0.00000
  50    .07753       26.1318        0.0000      100.8135      100.8135      74.681657       0.00000
  49    .09103       26.1318        0.0001      100.8134      100.8135      74.681657       0.00000
  48    0.1069       26.1318        0.0001      100.8134      100.8134      74.681657      -0.00000
  47    0.1255       26.1318        0.0001      100.8133      100.8134      74.681657      -0.00000
  46    0.1487       26.1317        0.0002      100.8132      100.8134      74.681657       0.00000
  45    0.1794       26.1317        0.0003      100.8131      100.8133      74.681657       0.00000
  44    0.2165       26.1316        0.0003      100.8129      100.8133      74.681657      -0.00000
  43    0.2613       26.1315        0.0004      100.8127      100.8132      74.681657       0.00000
  42    0.3336       26.1314        0.0006      100.8125      100.8131      74.681657      -0.00000
  41    0.4307       26.1312        0.0008      100.8121      100.8129      74.681657      -0.00000
  40    0.5894       26.1310        0.0012      100.8115      100.8126      74.681657       0.00000
  39     1.339       26.1297        0.0028      100.8085      100.8113      74.681657       0.00000
  38     1.782       26.1289        0.0038      100.8068      100.8106      74.681657       0.00000
  37     2.292       26.1280        0.0049      100.8047      100.8097      74.681657       0.00000
  36     2.964       26.1269        0.0064      100.8021      100.8085      74.681657      -0.00000
  35     3.853       26.1253        0.0084      100.7986      100.8070      74.681657      -0.00000
  34     5.035       26.1233        0.0110      100.7940      100.8049      74.681657       0.00000
  33     6.613       26.1206        0.0145      100.7878      100.8022      74.681657       0.00000
  32     8.786       26.1169        0.0192      100.7794      100.7986      74.681657       0.00000
  31     11.80       26.1116        0.0259      100.7674      100.7933      74.681657      -0.00000
  30     15.07       26.1060        0.0331      100.7546      100.7877      74.681657       0.00000
  29     18.79       26.0996        0.0413      100.7400      100.7813      74.681657       0.00000
  28     23.16       26.0921        0.0508      100.7230      100.7738      74.681657       0.00000
  27     28.12       26.0836        0.0618      100.7035      100.7653      74.681657       0.00000
  26     33.73       26.0740        0.0740      100.6817      100.7557      74.681657      -0.00000
  25     40.54       26.0624        0.0888      100.6552      100.7441      74.681657       0.00000
  24     48.69       26.0484        0.1067      100.6234      100.7301      74.681657       0.00000
  23     57.69       26.0330        0.1264      100.5883      100.7147      74.681657       0.00000
  22     68.43       26.0147        0.1499      100.5464      100.6963      74.681657      -0.00000
  21     81.20       25.9928        0.1779      100.4965      100.6744      74.681657       0.00000
  20     96.49       25.9666        0.2113      100.4370      100.6483      74.681657      -0.00000
  19     114.6       25.9355        0.2510      100.3601      100.6111      74.675591       0.00283
  18     136.5       25.8986        0.2982      100.2685      100.5667      74.668075       0.00289
  17     162.9       25.8546        0.3545      100.1557      100.5102      74.655606       0.00399
  16     196.4       25.7973        0.4276       99.9935      100.4211      74.623726       0.00802
  15     218.7       25.7597        0.4756       99.8490      100.3246      74.564902       0.02233
  14     243.0       25.7189        0.5277       99.6218      100.1496      74.430678       0.04655
  13     269.0       25.6750        0.5840       99.2701       99.8541      74.179174       0.08159
  12     297.5       25.6280        0.6444       98.7863       99.4307      73.802680       0.11166
  11     328.5       25.5781        0.7094       98.2127       98.9221      73.344045       0.12470
  10     361.9       25.5253        0.7789       97.5096       98.2885      72.763174       0.14697
   9     398.1       25.4701        0.8529       96.6249       97.4778      72.007639       0.17602
   8     437.6       25.4135        0.9311       95.5141       96.4451      71.031661       0.20867
   7     480.5       25.3563        1.0132       94.1664       95.1796      69.823289       0.23732
   6     533.0       25.2927        1.1116       92.2972       93.4089      68.116164       0.27462
   5     589.8       25.2361        1.2134       90.0044       91.2178      65.981691       0.31683
   4     651.6       25.1997        1.3159       87.0975       88.4134      63.213746       0.37852
   3     718.7       25.1998        1.4178       83.6639       85.0817      59.881856       0.41873
   2     792.3       25.2721        1.5160       79.5919       81.1079      55.835814       0.46404
   1     891.5       25.5526        1.6302       73.8807       75.5109      49.958271       0.50015
   0    1013.0       26.3250        1.7470       67.5841       69.3311      43.006102       0.48272



 Wavenumbers: 12850. - 16000. cm-1, ATM      1
 LEVEL PRESSURE   UPWARD FLUX   DIFDOWN FLUX  DIRDOWN FLUX  DOWNWARD FLUX   NET FLUX    HEATING RATE
          mb          W/m2          W/m2          W/m2        W/m2          W/m2       degree/day
  51    .06700       13.3329        0.0000       63.1686       63.1686      49.835642       0.00000
  50    .07753       13.3329        0.0001       63.1677       63.1678      49.834867       0.62091
  49    .09103       13.3328        0.0001       63.1666       63.1668      49.833903       0.60279
  48    0.1069       13.3328        0.0002       63.1654       63.1656      49.832806       0.58377
  47    0.1255       13.3327        0.0003       63.1640       63.1643      49.831561       0.56460
  46    0.1487       13.3327        0.0004       63.1623       63.1627      49.830011       0.56510
  45    0.1794       13.3326        0.0005       63.1600       63.1605      49.827936       0.56955
  44    0.2165       13.3324        0.0007       63.1573       63.1580      49.825543       0.54442
  43    0.2613       13.3323        0.0009       63.1542       63.1551      49.822790       0.51880
  42    0.3336       13.3321        0.0012       63.1493       63.1505      49.818422       0.50930
  41    0.4307       13.3318        0.0017       63.1431       63.1448      49.812986       0.47267
  40    0.5894       13.3314        0.0024       63.1338       63.1362      49.804813       0.43461
  39     1.339       13.3299        0.0058       63.0956       63.1014      49.771455       0.37555
  38     1.782       13.3294        0.0078       63.0740       63.0818      49.752416       0.36247
  37     2.292       13.3292        0.0101       63.0477       63.0578      49.728618       0.39416
  36     2.964       13.3294        0.0132       63.0095       63.0227      49.693326       0.44302
  35     3.853       13.3304        0.0172       62.9533       62.9704      49.640082       0.50530
  34     5.035       13.3324        0.0225       62.8725       62.8950      49.562620       0.55335
  33     6.613       13.3355        0.0296       62.7621       62.7917      49.456198       0.56893
  32     8.786       13.3393        0.0392       62.6182       62.6574      49.318159       0.53609
  31     11.80       13.3433        0.0528       62.4284       62.4812      49.137912       0.50464
  30     15.07       13.3459        0.0674       62.2426       62.3100      48.964118       0.44870
  29     18.79       13.3474        0.0838       62.0493       62.1331      48.785748       0.40442
  28     23.16       13.3474        0.1030       61.8425       61.9454      48.597998       0.36305
  27     28.12       13.3455        0.1248       61.6278       61.7526      48.407130       0.32446
  26     33.73       13.3405        0.1492       61.4177       61.5668      48.226359       0.27180
  25     40.54       13.3312        0.1785       61.1983       61.3768      48.045687       0.22414
  24     48.69       13.3167        0.2139       60.9680       61.1818      47.865125       0.18685
  23     57.69       13.2978        0.2526       60.7478       61.0004      47.702589       0.15235
  22     68.43       13.2719        0.2986       60.5202       60.8188      47.546875       0.12241
  21     81.20       13.2366        0.3534       60.2938       60.6472      47.410633       0.09003
  20     96.49       13.1903        0.4186       60.0643       60.4829      47.292566       0.06516
  19     114.6       13.1354        0.4962       59.8078       60.3040      47.168576       0.05789
  18     136.5       13.0685        0.5879       59.5158       60.1037      47.035198       0.05129
  17     162.9       12.9871        0.6968       59.1773       59.8741      46.886947       0.04739
  16     196.4       12.8780        0.8374       58.7611       59.5985      46.720526       0.04189
  15     218.7       12.8050        0.9294       58.4958       59.4252      46.620184       0.03810
  14     243.0       12.7251        1.0290       58.2104       59.2395      46.514337       0.03671
  13     269.0       12.6380        1.1367       57.9039       59.0406      46.402613       0.03624
  12     297.5       12.5434        1.2527       57.5736       58.8263      46.282885       0.03551
  11     328.5       12.4411        1.3775       57.2160       58.5935      46.152464       0.03546
  10     361.9       12.3309        1.5113       56.8288       58.3401      46.009198       0.03625
   9     398.1       12.2124        1.6546       56.4074       58.0620      45.849584       0.03719
   8     437.6       12.0856        1.8076       55.9445       57.7521      45.666589       0.03913
   7     480.5       11.9503        1.9706       55.4356       57.4062      45.455858       0.04139
   6     533.0       11.7852        2.1694       54.7850       56.9544      45.169200       0.04611
   5     589.8       11.6101        2.3813       54.0438       56.4251      44.815053       0.05257
   4     651.6       11.4275        2.6051       53.1687       55.7737      44.346256       0.06411
   3     718.7       11.2395        2.8393       52.1625       55.0018      43.762275       0.07339
   2     792.3       11.0530        3.0805       50.9845       54.0651      43.012101       0.08604
   1     891.5       10.8349        3.3880       49.2385       52.6265      41.791693       0.10385
   0    1013.0       10.6348        3.7300       47.0085       50.7384      40.103651       0.11721



 Wavenumbers: 16000. - 22650. cm-1, ATM      1
 LEVEL PRESSURE   UPWARD FLUX   DIFDOWN FLUX  DIRDOWN FLUX  DOWNWARD FLUX   NET FLUX    HEATING RATE
          mb          W/m2          W/m2          W/m2        W/m2          W/m2       degree/day
  51    .06700       30.4634        0.0000      100.7153      100.7153      70.251878       0.00000
  50    .07753       30.4632        0.0003      100.7147      100.7150      70.251782       0.07691
  49    .09103       30.4630        0.0006      100.7140      100.7146      70.251643       0.08723
  48    0.1069       30.4627        0.0010      100.7131      100.7142      70.251456       0.09947
  47    0.1255       30.4624        0.0015      100.7121      100.7136      70.251206       0.11338
  46    0.1487       30.4620        0.0021      100.7108      100.7128      70.250837       0.13435
  45    0.1794       30.4615        0.0029      100.7089      100.7117      70.250261       0.15819
  44    0.2165       30.4609        0.0038      100.7066      100.7104      70.249480       0.17778
  43    0.2613       30.4602        0.0049      100.7037      100.7086      70.248419       0.19987
  42    0.3336       30.4591        0.0068      100.6987      100.7055      70.246403       0.23503
  41    0.4307       30.4576        0.0092      100.6918      100.7010      70.243365       0.26419
  40    0.5894       30.4554        0.0132      100.6797      100.6930      70.237570       0.30815
  39     1.339       30.4469        0.0321      100.6095      100.6416      70.194773       0.48182
  38     1.782       30.4434        0.0432      100.5585      100.6017      70.158332       0.69378
  37     2.292       30.4407        0.0561      100.4903      100.5463      70.105610       0.87322
  36     2.964       30.4394        0.0729      100.3868      100.4597      70.020262       1.07137
  35     3.853       30.4408        0.0951      100.2306      100.3257      69.884992       1.28374
  34     5.035       30.4455        0.1246      100.0045      100.1291      69.683526       1.43919
  33     6.613       30.4535        0.1639       99.6939       99.8577      69.404230       1.49312
  32     8.786       30.4627        0.2166       99.2881       99.5047      69.041991       1.40681
  31     11.80       30.4700        0.2918       98.7496       99.0414      68.571392       1.31753
  30     15.07       30.4710        0.3721       98.2198       98.5919      68.120881       1.16313
  29     18.79       30.4662        0.4624       97.6651       98.1276      67.661404       1.04178
  28     23.16       30.4535        0.5674       97.0671       97.6346      67.181103       0.92875
  27     28.12       30.4308        0.6869       96.4406       97.1275      66.696648       0.82354
  26     33.73       30.3938        0.8200       95.8179       96.6379      66.244090       0.68043
  25     40.54       30.3357        0.9801       95.1548       96.1349      65.799268       0.55185
  24     48.69       30.2526        1.1720       94.4420       95.6140      65.361422       0.45310
  23     57.69       30.1489        1.3817       93.7416       95.1233      64.974373       0.36280
  22     68.43       30.0122        1.6300       92.9954       94.6253      64.613108       0.28400
  21     81.20       29.8313        1.9241       92.2231       94.1473      64.315965       0.19635
  20     96.49       29.5993        2.2724       91.4110       93.6834      64.084092       0.12798
  19     114.6       29.3163        2.6821       90.5070       93.1891      63.872833       0.09864
  18     136.5       28.9765        3.1626       89.4803       92.6428      63.666314       0.07941
  17     162.9       28.5686        3.7273       88.3023       92.0295      63.460915       0.06565
  16     196.4       28.0316        4.4486       86.8607       91.3094      63.277727       0.04611
  15     218.7       27.6769        4.9156       85.9494       90.8650      63.188144       0.03401
  14     243.0       27.2910        5.4173       84.9792       90.3965      63.105415       0.02869
  13     269.0       26.8729        5.9539       83.9498       89.9038      63.030850       0.02419
  12     297.5       26.4215        6.5259       82.8601       89.3861      62.964556       0.01966
  11     328.5       25.9353        7.1348       81.7009       88.8357      62.900395       0.01745
  10     361.9       25.4138        7.7797       80.4725       88.2522      62.838423       0.01568
   9     398.1       24.8549        8.4617       79.1714       87.6330      62.778091       0.01406
   8     437.6       24.2579        9.1802       77.7953       86.9755      62.717594       0.01293
   7     480.5       23.6214        9.9347       76.3434       86.2781      62.656756       0.01195
   6     533.0       22.8428       10.8416       74.5859       85.4274      62.584601       0.01161
   5     589.8       22.0099       11.7924       72.7227       84.5151      62.505202       0.01179
   4     651.6       21.1220       12.7842       70.7478       83.5319      62.409952       0.01303
   3     718.7       20.1780       13.8132       68.6568       82.4700      62.292055       0.01482
   2     792.3       19.1794       14.8732       66.4416       81.3148      62.135373       0.01797
   1     891.5       17.8540       16.2328       63.4790       79.7118      61.857791       0.02362
   0    1013.0       16.2949       17.7606       59.9822       77.7428      61.447939       0.02846



 Wavenumbers: 22650. - 29000. cm-1, ATM      1
 LEVEL PRESSURE   UPWARD FLUX   DIFDOWN FLUX  DIRDOWN FLUX  DOWNWARD FLUX   NET FLUX    HEATING RATE
          mb          W/m2          W/m2          W/m2        W/m2          W/m2       degree/day
  51    .06700       18.3701        0.0000       38.0063       38.0063      19.636177       0.00000
  50    .07753       18.3699        0.0003       38.0057       38.0061      19.636177      -0.00000
  49    .09103       18.3696        0.0008       38.0050       38.0058      19.636177       0.00000
  48    0.1069       18.3693        0.0012       38.0042       38.0055      19.636177      -0.00000
  47    0.1255       18.3690        0.0018       38.0033       38.0051      19.636177       0.00000
  46    0.1487       18.3685        0.0025       38.0022       38.0047      19.636177       0.00000
  45    0.1794       18.3679        0.0035       38.0006       38.0041      19.636177      -0.00000
  44    0.2165       18.3672        0.0046       37.9987       38.0033      19.636177       0.00000
  43    0.2613       18.3663        0.0060       37.9965       38.0025      19.636177       0.00000
  42    0.3336       18.3649        0.0082       37.9928       38.0010      19.636177      -0.00000
  41    0.4307       18.3630        0.0111       37.9880       37.9991      19.636177       0.00000
  40    0.5894       18.3598        0.0160       37.9800       37.9960      19.636177       0.00000
  39     1.339       18.3451        0.0388       37.9425       37.9813      19.636177      -0.00000
  38     1.782       18.3365        0.0523       37.9204       37.9727      19.636177       0.00000
  37     2.292       18.3265        0.0678       37.8949       37.9627      19.636177       0.00000
  36     2.964       18.3134        0.0882       37.8614       37.9496      19.636177       0.00000
  35     3.853       18.2961        0.1151       37.8172       37.9323      19.636177      -0.00000
  34     5.035       18.2731        0.1507       37.7586       37.9093      19.636177      -0.00000
  33     6.613       18.2424        0.1983       37.6803       37.8786      19.636177      -0.00000
  32     8.786       18.2011        0.2623       37.5750       37.8373      19.636177       0.00000
  31     11.80       18.1422        0.3535       37.4249       37.7783      19.636177       0.00000
  30     15.07       18.0790        0.4510       37.2642       37.7151      19.636177      -0.00000
  29     18.79       18.0077        0.5606       37.0833       37.6439      19.636177       0.00000
  28     23.16       17.9248        0.6879       36.8730       37.5609      19.636177      -0.00000
  27     28.12       17.8302        0.8326       36.6338       37.4664      19.636177       0.00000
  26     33.73       17.7248        0.9933       36.3677       37.3610      19.636177       0.00000
  25     40.54       17.5981        1.1857       36.0486       37.2343      19.636177       0.00000
  24     48.69       17.4462        1.4151       35.6672       37.0824      19.636177       0.00000
  23     57.69       17.2805        1.6639       35.2527       36.9166      19.636177       0.00000
  22     68.43       17.0846        1.9559       34.7649       36.7208      19.636177      -0.00000
  21     81.20       16.8536        2.2975       34.1922       36.4897      19.636177       0.00000
  20     96.49       16.5814        2.6958       33.5217       36.2176      19.636177       0.00000
  19     114.6       16.2627        3.1565       32.7424       35.8988      19.636177       0.00000
  18     136.5       15.8910        3.6856       31.8416       35.5272      19.636177       0.00000
  17     162.9       15.4570        4.2924       30.8008       35.0932      19.636177      -0.00000
  16     196.4       14.9073        5.0428       29.5007       34.5435      19.636177       0.00000
  15     218.7       14.5543        5.5138       28.6767       34.1905      19.636177       0.00000
  14     243.0       14.1775        6.0068       27.8068       33.8136      19.636177       0.00000
  13     269.0       13.7768        6.5195       26.8934       33.4129      19.636177      -0.00000
  12     297.5       13.3525        7.0492       25.9394       32.9887      19.636177      -0.00000
  11     328.5       12.9037        7.5944       24.9454       32.5398      19.636177       0.00000
  10     361.9       12.4312        8.1508       23.9166       32.0674      19.636177      -0.00000
   9     398.1       11.9346        8.7157       22.8551       31.5708      19.636177       0.00000
   8     437.6       11.4145        9.2841       21.7666       31.0507      19.636177       0.00000
   7     480.5       10.8712        9.8523       20.6551       30.5074      19.636177       0.00000
   6     533.0       10.2215       10.4952       19.3625       29.8577      19.636177      -0.00000
   5     589.8        9.5427       11.1232       18.0557       29.1789      19.636177       0.00000
   4     651.6        8.8350       11.7298       16.7414       28.4712      19.636177      -0.00000
   3     718.7        8.1001       12.3032       15.4330       27.7363      19.636177       0.00000
   2     792.3        7.3383       12.8363       14.1382       26.9745      19.636177       0.00000
   1     891.5        6.3478       13.4311       12.5529       25.9840      19.636177       0.00000
   0    1013.0        5.2072       13.9760       10.8674       24.8433      19.636177      -0.00000



 Wavenumbers: 29000. - 38000. cm-1, ATM      1
 LEVEL PRESSURE   UPWARD FLUX   DIFDOWN FLUX  DIRDOWN FLUX  DOWNWARD FLUX   NET FLUX    HEATING RATE
          mb          W/m2          W/m2          W/m2        W/m2          W/m2       degree/day
  51    .06700        3.3646        0.0000       13.4026       13.4026      10.037968       0.00000
  50    .07753        3.3644        0.0003       13.3983       13.3986      10.034172       3.04299
  49    .09103        3.3641        0.0006       13.3921       13.3928      10.028655       3.44806
  48    0.1069        3.3638        0.0011       13.3840       13.3851      10.021282       3.92491
  47    0.1255        3.3634        0.0015       13.3733       13.3749      10.011442       4.46103
  46    0.1487        3.3630        0.0021       13.3579       13.3600       9.997006       5.26179
  45    0.1794        3.3623        0.0029       13.3340       13.3370       9.974618       6.14616
  44    0.2165        3.3616        0.0039       13.3024       13.3062       9.944615       6.82522
  43    0.2613        3.3608        0.0050       13.2604       13.2654       9.904582       7.54604
  42    0.3336        3.3595        0.0068       13.1833       13.1901       9.830617       8.62353
  41    0.4307        3.3578        0.0092       13.0729       13.0821       9.724310       9.24318
  40    0.5894        3.3551        0.0129       12.8796       12.8925       9.537393       9.93999
  39     1.339        3.3450        0.0285       11.9165       11.9450       8.600017      10.55316
  38     1.782        3.3405        0.0364       11.4399       11.4764       8.135848       8.83702
  37     2.292        3.3364        0.0449       10.9796       11.0245       7.688066       7.41643
  36     2.964        3.3325        0.0552       10.4786       10.5338       7.201262       6.11086
  35     3.853        3.3295        0.0679        9.9429       10.0108       6.681255       4.93497
  34     5.035        3.3276        0.0837        9.4007        9.4843       6.156717       3.74708
  33     6.613        3.3267        0.1036        8.8752        8.9788       5.652100       2.69768
  32     8.786        3.3260        0.1292        8.3786        8.5078       5.181857       1.82625
  31     11.80        3.3239        0.1643        7.8897        8.0539       4.730000       1.26506
  30     15.07        3.3205        0.2003        7.5108        7.7111       4.390603       0.87626
  29     18.79        3.3157        0.2395        7.1776        7.4171       4.101407       0.65570
  28     23.16        3.3088        0.2834        6.8664        7.1498       3.841010       0.50352
  27     28.12        3.2995        0.3318        6.5780        6.9098       3.610344       0.39212
  26     33.73        3.2860        0.3843        6.3195        6.7038       3.417782       0.28952
  25     40.54        3.2662        0.4461        6.0663        6.5124       3.246177       0.21289
  24     48.69        3.2392        0.5182        5.8128        6.3310       3.091881       0.15967
  23     57.69        3.2065        0.5948        5.5777        6.1725       2.965996       0.11800
  22     68.43        3.1646        0.6831        5.3379        6.0210       2.856442       0.08612
  21     81.20        3.1097        0.7851        5.0965        5.8816       2.771860       0.05589
  20     96.49        3.0405        0.9022        4.8476        5.7499       2.709381       0.03448
  19     114.6        2.9584        1.0340        4.5799        5.6139       2.655462       0.02518
  18     136.5        2.8636        1.1799        4.2891        5.4690       2.605423       0.01924
  17     162.9        2.7546        1.3397        3.9732        5.3129       2.558275       0.01507
  16     196.4        2.6178        1.5283        3.6080        5.1363       2.518550       0.01000
  15     218.7        2.5311        1.6412        3.3898        5.0310       2.499893       0.00708
  14     243.0        2.4401        1.7547        3.1686        4.9233       2.483158       0.00580
  13     269.0        2.3450        1.8675        2.9461        4.8136       2.468578       0.00473
  12     297.5        2.2461        1.9783        2.7239        4.7022       2.456135       0.00369
  11     328.5        2.1438        2.0855        2.5029        4.5884       2.444622       0.00313
  10     361.9        2.0384        2.1878        2.2846        4.4724       2.434048       0.00268
   9     398.1        1.9301        2.2837        2.0708        4.3545       2.424400       0.00225
   8     437.6        1.8194        2.3717        1.8631        4.2348       2.415466       0.00191
   7     480.5        1.7061        2.4509        1.6626        4.1135       2.407330       0.00160
   6     533.0        1.5739        2.5283        1.4445        3.9728       2.398872       0.00136
   5     589.8        1.4391        2.5900        1.2402        3.8302       2.391114       0.00115
   4     651.6        1.3017        2.6342        1.0514        3.6857       2.383946       0.00098
   3     718.7        1.1617        2.6597        0.8794        3.5390       2.377348       0.00083
   2     792.3        1.0189        2.6651        0.7250        3.3902       2.371305       0.00069
   1     891.5        0.8352        2.6428        0.5569        3.1997       2.364437       0.00058
   0    1013.0        0.6252        2.5792        0.4037        2.9828       2.357642       0.00047



 Wavenumbers: 38000. - 50000. cm-1, ATM      1
 LEVEL PRESSURE   UPWARD FLUX   DIFDOWN FLUX  DIRDOWN FLUX  DOWNWARD FLUX   NET FLUX    HEATING RATE
          mb          W/m2          W/m2          W/m2        W/m2          W/m2       degree/day
  51    .06700        0.0051        0.0000        0.8267        0.8267       0.821528       0.00000
  50    .07753        0.0051        0.0001        0.8242        0.8243       0.819196       1.86936
  49    .09103        0.0050        0.0002        0.8207        0.8209       0.815872       2.07705
  48    0.1069        0.0049        0.0002        0.8162        0.8164       0.811514       2.31984
  47    0.1255        0.0048        0.0004        0.8103        0.8106       0.805801       2.59006
  46    0.1487        0.0047        0.0005        0.8018        0.8023       0.797567       3.00143
  45    0.1794        0.0045        0.0007        0.7889        0.7896       0.785013       3.44648
  44    0.2165        0.0044        0.0009        0.7720        0.7729       0.768507       3.75474
  43    0.2613        0.0042        0.0011        0.7500        0.7511       0.746955       4.06246
  42    0.3336        0.0039        0.0015        0.7106        0.7121       0.708267       4.51071
  41    0.4307        0.0035        0.0019        0.6566        0.6584       0.654972       4.63387
  40    0.5894        0.0029        0.0024        0.5680        0.5704       0.567464       4.65357
  39     1.339        0.0015        0.0030        0.2422        0.2452       0.243720       3.64476
  38     1.782        0.0010        0.0026        0.1493        0.1519       0.150889       1.76735
  37     2.292        0.0007        0.0022        0.0924        0.0946       0.093932       0.94336
  36     2.964        0.0005        0.0018        0.0539        0.0557       0.055224       0.48589
  35     3.853        0.0003        0.0013        0.0295        0.0308       0.030502       0.23462
  34     5.035        0.0002        0.0010        0.0154        0.0164       0.016181       0.10230
  33     6.613        0.0001        0.0007        0.0073        0.0080       0.007912       0.04420
  32     8.786        0.0000        0.0004        0.0030        0.0034       0.003390       0.01756
  31     11.80        0.0000        0.0003        0.0010        0.0012       0.001199       0.00613
  30     15.07        0.0000        0.0001        0.0003        0.0005       0.000463       0.00190
  29     18.79        0.0000        0.0001        0.0001        0.0002       0.000182       0.00064
  28     23.16        0.0000        0.0000        0.0000        0.0001       0.000071       0.00022
  27     28.12        0.0000        0.0000        0.0000        0.0000       0.000028       0.00007
  26     33.73        0.0000        0.0000        0.0000        0.0000       0.000011       0.00002
  25     40.54        0.0000        0.0000        0.0000        0.0000       0.000005       0.00001
  24     48.69        0.0000        0.0000        0.0000        0.0000       0.000002       0.00000
  23     57.69        0.0000        0.0000        0.0000        0.0000       0.000001       0.00000
  22     68.43        0.0000        0.0000        0.0000        0.0000       0.000000       0.00000
  21     81.20        0.0000        0.0000        0.0000        0.0000       0.000000       0.00000
  20     96.49        0.0000        0.0000        0.0000        0.0000       0.000000       0.00000
  19     114.6        0.0000        0.0000        0.0000        0.0000       0.000000       0.00000
  18     136.5        0.0000        0.0000        0.0000        0.0000       0.000000       0.00000
  17     162.9        0.0000        0.0000        0.0000        0.0000       0.000000       0.00000
  16     196.4        0.0000        0.0000        0.0000        0.0000       0.000000       0.00000
  15     218.7        0.0000        0.0000        0.0000        0.0000       0.000000       0.00000
  14     243.0        0.0000        0.0000        0.0000        0.0000       0.000000       0.00000
  13     269.0        0.0000        0.0000        0.0000        0.0000       0.000000       0.00000
  12     297.5        0.0000        0.0000        0.0000        0.0000       0.000000       0.00000
  11     328.5        0.0000        0.0000        0.0000        0.0000       0.000000       0.00000
  10     361.9        0.0000        0.0000        0.0000        0.0000       0.000000       0.00000
   9     398.1        0.0000        0.0000        0.0000        0.0000       0.000000       0.00000
   8     437.6        0.0000        0.0000        0.0000        0.0000       0.000000       0.00000
   7     480.5        0.0000        0.0000        0.0000        0.0000       0.000000       0.00000
   6     533.0        0.0000        0.0000        0.0000        0.0000       0.000000       0.00000
   5     589.8        0.0000        0.0000        0.0000        0.0000       0.000000       0.00000
   4     651.6        0.0000        0.0000        0.0000        0.0000       0.000000       0.00000
   3     718.7        0.0000        0.0000        0.0000        0.0000       0.000000       0.00000
   2     792.3        0.0000        0.0000        0.0000        0.0000       0.000000       0.00000
   1     891.5        0.0000        0.0000        0.0000        0.0000       0.000000       0.00000
   0    1013.0        0.0000        0.0000        0.0000        0.0000       0.000000       0.00000



 Wavenumbers:   820. -  2600. cm-1, ATM      1
 LEVEL PRESSURE   UPWARD FLUX   DIFDOWN FLUX  DIRDOWN FLUX  DOWNWARD FLUX   NET FLUX    HEATING RATE
          mb          W/m2          W/m2          W/m2        W/m2          W/m2       degree/day
  51    .06700        0.2148        0.0000        3.8670        3.8670       3.652236       0.00000
  50    .07753        0.2148        0.0000        3.8643        3.8643       3.649509       2.18510
  49    .09103        0.2148        0.0000        3.8635        3.8635       3.648687       0.51376
  48    0.1069        0.2148        0.0000        3.8626        3.8626       3.647783       0.48157
  47    0.1255        0.2148        0.0000        3.8616        3.8616       3.646805       0.44311
  46    0.1487        0.2148        0.0000        3.8605        3.8605       3.645674       0.41229
  45    0.1794        0.2148        0.0000        3.8591        3.8591       3.644309       0.37466
  44    0.2165        0.2148        0.0000        3.8577        3.8577       3.642896       0.32151
  43    0.2613        0.2148        0.0000        3.8562        3.8562       3.641392       0.28348
  42    0.3336        0.2148        0.0000        3.8539        3.8539       3.639086       0.26886
  41    0.4307        0.2148        0.0000        3.8509        3.8509       3.636110       0.25878
  40    0.5894        0.2148        0.0000        3.8460        3.8460       3.631227       0.25968
  39     1.339        0.2148        0.0000        3.8240        3.8240       3.609207       0.24791
  38     1.782        0.2148        0.0000        3.8119        3.8119       3.597088       0.23072
  37     2.292        0.2148        0.0000        3.7986        3.7986       3.583771       0.22057
  36     2.964        0.2148        0.0000        3.7823        3.7823       3.567479       0.20452
  35     3.853        0.2148        0.0000        3.7623        3.7623       3.547548       0.18914
  34     5.035        0.2148        0.0000        3.7378        3.7378       3.523033       0.17513
  33     6.613        0.2148        0.0000        3.7076        3.7076       3.492792       0.16167
  32     8.786        0.2148        0.0000        3.6716        3.6716       3.456798       0.13979
  31     11.80        0.2148        0.0000        3.6316        3.6316       3.416785       0.11202
  30     15.07        0.2148        0.0000        3.6017        3.6017       3.386956       0.07701
  29     18.79        0.2148        0.0000        3.5785        3.5785       3.363722       0.05268
  28     23.16        0.2148        0.0000        3.5580        3.5581       3.343260       0.03957
  27     28.12        0.2148        0.0000        3.5377        3.5377       3.322887       0.03463
  26     33.73        0.2148        0.0000        3.5162        3.5162       3.301414       0.03228
  25     40.54        0.2148        0.0000        3.4913        3.4914       3.276551       0.03085
  24     48.69        0.2148        0.0000        3.4628        3.4628       3.247992       0.02955
  23     57.69        0.2148        0.0000        3.4327        3.4327       3.217923       0.02818
  22     68.43        0.2148        0.0000        3.3986        3.3986       3.183815       0.02681
  21     81.20        0.2148        0.0000        3.3606        3.3606       3.145786       0.02513
  20     96.49        0.2148        0.0000        3.3183        3.3183       3.103480       0.02335
  19     114.6        0.2148        0.0000        3.2715        3.2715       3.056634       0.02187
  18     136.5        0.2148        0.0000        3.2206        3.2206       3.005784       0.01955
  17     162.9        0.2149        0.0000        3.1613        3.1613       2.946444       0.01897
  16     196.4        0.2149        0.0000        3.0792        3.0792       2.864291       0.02068
  15     218.7        0.2149        0.0000        3.0115        3.0115       2.796633       0.02569
  14     243.0        0.2150        0.0000        2.9223        2.9223       2.707368       0.03096
  13     269.0        0.2150        0.0000        2.8151        2.8152       2.600132       0.03479
  12     297.5        0.2152        0.0000        2.6710        2.6710       2.455890       0.04278
  11     328.5        0.2153        0.0000        2.4998        2.4998       2.284525       0.04659
  10     361.9        0.2156        0.0000        2.3186        2.3186       2.103049       0.04592
   9     398.1        0.2159        0.0000        2.1555        2.1556       1.939687       0.03806
   8     437.6        0.2163        0.0000        2.0290        2.0290       1.812727       0.02714
   7     480.5        0.2168        0.0000        1.9377        1.9378       1.720968       0.01802
   6     533.0        0.2176        0.0000        1.8432        1.8432       1.625605       0.01534
   5     589.8        0.2189        0.0000        1.7350        1.7350       1.516143       0.01625
   4     651.6        0.2212        0.0000        1.6037        1.6038       1.382551       0.01827
   3     718.7        0.2254        0.0000        1.4647        1.4648       1.239427       0.01799
   2     792.3        0.2330        0.0000        1.3161        1.3161       1.083108       0.01793
   1     891.5        0.2523        0.0000        1.0919        1.0920       0.839629       0.02072
   0    1013.0        0.2994        0.0000        0.7886        0.7886       0.489192       0.02433

  Modules and versions used in this calculation:

       rrtmg_sw.1col.f90:  $Revision$                    rrtmg_sw_init.f90:  $Revision$        
     rrtmgsw_cldprop.f90:  $Revision$                  rrtmgsw_cldprmc.f90:  NOT USED          
     rrtmg_sw_reftra.f90:  $Revision$                  rrtmg_sw_spcvrt.f90:  NOT USED          
     rrtmg_sw_spcvmc.f90:  NOT USED                    rrtmgsw_setcoef.f90:  NOT USED          
     rrtmg_sw_taumol.f90:  $Revision$                  rrtmg_sw_vrtqdr.f90:  NOT USED          
                rrtatm.f:  NOT USED                             util_xxx.f:  NOT USED          
                 extra.f:  NOT USED                       rrtmg_sw_k_g.f90:  $Revision$        

