

 Wavenumbers:   820. - 50000. cm-1, ATM      1
 LEVEL PRESSURE   UPWARD FLUX   DIFDOWN FLUX  DIRDOWN FLUX  DOWNWARD FLUX   NET FLUX    HEATING RATE
          mb          W/m2          W/m2          W/m2        W/m2          W/m2       degree/day
  51    .06700      110.2247        0.0000      397.8738      397.8738     287.649094       0.00000
  50    .07753      110.2240        0.0011      397.8577      397.8588     287.634790      11.46490
  49    .09103      110.2231        0.0024      397.8417      397.8442     287.621095       8.55959
  48    0.1069      110.2220        0.0040      397.8228      397.8268     287.604750       8.70067
  47    0.1255      110.2209        0.0057      397.7995      397.8052     287.584324       9.26008
  46    0.1487      110.2194        0.0080      397.7674      397.7753     287.555903      10.35975
  45    0.1794      110.2175        0.0110      397.7202      397.7312     287.513686      11.58974
  44    0.2165      110.2153        0.0146      397.6598      397.6744     287.459156      12.40467
  43    0.2613      110.2127        0.0189      397.5823      397.6012     287.388531      13.31252
  42    0.3336      110.2085        0.0258      397.4441      397.4699     287.261444      14.81700
  41    0.4307      110.2031        0.0350      397.2513      397.2863     287.083164      15.50106
  40    0.5894      110.1948        0.0496      396.9238      396.9734     286.778651      16.19364
  39     1.339      110.1628        0.1149      395.4223      395.5371     285.374380      15.80954
  38     1.782      110.1486        0.1512      394.7250      394.8762     284.727634      12.31300
  37     2.292      110.1361        0.1926      394.0527      394.2453     284.109190      10.24305
  36     2.964      110.1255        0.2462      393.2958      393.5420     283.416502       8.69532
  35     3.853      110.1193        0.3162      392.4268      392.7430     282.623666       7.52416
  34     5.035      110.1190        0.4081      391.4394      391.8475     281.728536       6.39444
  33     6.613      110.1231        0.5299      390.3226      390.8525     280.729397       5.34140
  32     8.786      110.1262        0.6925      389.0591      389.7516     279.625392       4.28755
  31     11.80      110.1191        0.9231      387.5485      388.4716     278.352464       3.56380
  30     15.07      110.0977        1.1683      386.1563      387.3246     277.226960       2.90583
  29     18.79      110.0613        1.4429      384.7539      386.1969     276.135588       2.47447
  28     23.16      110.0048        1.7607      383.2764      385.0371     275.032339       2.13333
  27     28.12      109.9237        2.1207      381.7455      383.8662     273.942519       1.85262
  26     33.73      109.8085        2.5201      380.2168      382.7369     272.928360       1.52481
  25     40.54      109.6410        2.9985      378.5644      381.5629     271.921838       1.24871
  24     48.69      109.4124        3.5693      376.7572      380.3265     270.914082       1.04287
  23     57.69      109.1360        4.1894      374.9411      379.1305     269.994536       0.86194
  22     68.43      108.7799        4.9192      372.9538      377.8730     269.093095       0.70865
  21     81.20      108.3184        5.7778      370.8117      376.5895     268.271071       0.54318
  20     96.49      107.7360        6.7856      368.4756      375.2612     267.525218       0.41166
  19     114.6      107.0372        7.9595      365.8339      373.7934     266.756220       0.35907
  18     136.5      106.2071        9.3184      362.8400      372.1584     265.951332       0.30950
  17     162.9      105.2225       10.8920      359.3892      370.2813     265.058735       0.28531
  16     196.4      103.9437       12.8666      355.0144      367.8810     263.937325       0.28227
  15     218.7      103.1089       14.1238      351.9594      366.0832     262.974272       0.36564
  14     243.0      102.2098       15.4558      348.2675      363.7233     261.513507       0.50664
  13     269.0      101.2454       16.8601      343.7550      360.6150     259.369635       0.69546
  12     297.5      100.2154       18.3332      338.5068      356.8400     256.624579       0.81415
  11     328.5       99.1188       19.8756      332.8831      352.7587     253.639832       0.81154
  10     361.9       97.9569       21.4810      326.8113      348.2923     250.335425       0.83605
   9     398.1       96.7277       23.1473      320.2372      343.3845     246.656759       0.85705
   8     437.6       95.4332       24.8677      313.1616      338.0293     242.596102       0.86819
   7     480.5       94.0736       26.6374      305.6964      332.3338     238.260190       0.85156
   6     533.0       92.4407       28.7138      296.6807      325.3945     232.953837       0.85362
   5     589.8       90.7329       30.8327      287.0555      317.8882     227.155266       0.86070
   4     651.6       88.9674       32.9798      276.4494      309.4292     220.461736       0.91536
   3     718.7       87.1637       35.1369      265.1657      300.3026     213.138926       0.92027
   2     792.3       85.3668       37.2835      252.9748      290.2582     204.891423       0.94590
   1     891.5       83.2314       39.9220      236.8133      276.7353     193.503868       0.96903
   0    1013.0       81.2555       42.7377      218.9853      261.7230     180.467506       0.90518



 Wavenumbers:  2600. -  3250. cm-1, ATM      1
 LEVEL PRESSURE   UPWARD FLUX   DIFDOWN FLUX  DIRDOWN FLUX  DOWNWARD FLUX   NET FLUX    HEATING RATE
          mb          W/m2          W/m2          W/m2        W/m2          W/m2       degree/day
  51    .06700        0.2899        0.0000        3.5066        3.5066       3.216677       0.00000
  50    .07753        0.2899        0.0000        3.5066        3.5066       3.216669       0.00640
  49    .09103        0.2899        0.0000        3.5066        3.5066       3.216659       0.00627
  48    0.1069        0.2899        0.0000        3.5066        3.5066       3.216648       0.00613
  47    0.1255        0.2899        0.0000        3.5066        3.5066       3.216635       0.00599
  46    0.1487        0.2899        0.0000        3.5066        3.5066       3.216618       0.00607
  45    0.1794        0.2899        0.0000        3.5065        3.5065       3.216595       0.00624
  44    0.2165        0.2899        0.0000        3.5065        3.5065       3.216568       0.00611
  43    0.2613        0.2899        0.0000        3.5065        3.5065       3.216537       0.00598
  42    0.3336        0.2899        0.0000        3.5064        3.5064       3.216484       0.00615
  41    0.4307        0.2899        0.0000        3.5064        3.5064       3.216413       0.00618
  40    0.5894        0.2899        0.0000        3.5062        3.5062       3.216294       0.00633
  39     1.339        0.2899        0.0000        3.5055        3.5055       3.215595       0.00787
  38     1.782        0.2899        0.0000        3.5050        3.5050       3.215064       0.01011
  37     2.292        0.2899        0.0000        3.5043        3.5043       3.214372       0.01147
  36     2.964        0.2899        0.0000        3.5033        3.5033       3.213380       0.01245
  35     3.853        0.2899        0.0000        3.5019        3.5019       3.212003       0.01307
  34     5.035        0.2899        0.0000        3.5001        3.5001       3.210142       0.01329
  33     6.613        0.2899        0.0000        3.4977        3.4977       3.207733       0.01288
  32     8.786        0.2899        0.0000        3.4947        3.4947       3.204762       0.01154
  31     11.80        0.2899        0.0000        3.4911        3.4911       3.201126       0.01018
  30     15.07        0.2899        0.0000        3.4878        3.4878       3.197905       0.00832
  29     18.79        0.2899        0.0000        3.4848        3.4848       3.194842       0.00695
  28     23.16        0.2899        0.0000        3.4816        3.4816       3.191622       0.00623
  27     28.12        0.2899        0.0000        3.4779        3.4779       3.188004       0.00615
  26     33.73        0.2899        0.0000        3.4735        3.4735       3.183538       0.00672
  25     40.54        0.2899        0.0000        3.4671        3.4671       3.177212       0.00785
  24     48.69        0.2899        0.0000        3.4582        3.4583       3.168317       0.00920
  23     57.69        0.2899        0.0000        3.4472        3.4472       3.157270       0.01036
  22     68.43        0.2899        0.0000        3.4329        3.4329       3.143010       0.01121
  21     81.20        0.2899        0.0000        3.4152        3.4152       3.125282       0.01171
  20     96.49        0.2899        0.0000        3.3940        3.3941       3.104138       0.01167
  19     114.6        0.2900        0.0000        3.3693        3.3694       3.079418       0.01154
  18     136.5        0.2900        0.0001        3.3424        3.3425       3.052524       0.01034
  17     162.9        0.2900        0.0001        3.3141        3.3142       3.024191       0.00906
  16     196.4        0.2900        0.0001        3.2825        3.2826       2.992562       0.00796
  15     218.7        0.2901        0.0001        3.2621        3.2622       2.972151       0.00775
  14     243.0        0.2901        0.0001        3.2371        3.2372       2.947065       0.00870
  13     269.0        0.2903        0.0001        3.2052        3.2053       2.915063       0.01038
  12     297.5        0.2905        0.0001        3.1631        3.1632       2.872691       0.01257
  11     328.5        0.2907        0.0001        3.1094        3.1095       2.818792       0.01466
  10     361.9        0.2911        0.0001        3.0408        3.0409       2.749825       0.01745
   9     398.1        0.2916        0.0001        2.9535        2.9536       2.662001       0.02046
   8     437.6        0.2923        0.0001        2.8452        2.8453       2.552988       0.02331
   7     480.5        0.2932        0.0002        2.7179        2.7181       2.424808       0.02517
   6     533.0        0.2947        0.0002        2.5566        2.5568       2.262059       0.02618
   5     589.8        0.2969        0.0002        2.3805        2.3807       2.083862       0.02645
   4     651.6        0.3002        0.0002        2.1827        2.1829       1.882630       0.02752
   3     718.7        0.3054        0.0002        1.9647        1.9649       1.659518       0.02804
   2     792.3        0.3138        0.0002        1.7211        1.7212       1.407462       0.02891
   1     891.5        0.3322        0.0002        1.4114        1.4116       1.079341       0.02792
   0    1013.0        0.3728        0.0002        1.1008        1.1009       0.728149       0.02439



 Wavenumbers:  3250. -  4000. cm-1, ATM      1
 LEVEL PRESSURE   UPWARD FLUX   DIFDOWN FLUX  DIRDOWN FLUX  DOWNWARD FLUX   NET FLUX    HEATING RATE
          mb          W/m2          W/m2          W/m2        W/m2          W/m2       degree/day
  51    .06700        0.0004        0.0000        5.9117        5.9117       5.911211       0.00000
  50    .07753        0.0004        0.0000        5.9074        5.9074       5.906999       3.37561
  49    .09103        0.0004        0.0000        5.9050        5.9050       5.904534       1.54074
  48    0.1069        0.0004        0.0000        5.9031        5.9031       5.902645       1.00535
  47    0.1255        0.0004        0.0000        5.9013        5.9013       5.900867       0.80634
  46    0.1487        0.0004        0.0000        5.8994        5.8994       5.898954       0.69708
  45    0.1794        0.0004        0.0000        5.8972        5.8972       5.896778       0.59741
  44    0.2165        0.0004        0.0000        5.8951        5.8951       5.894631       0.48841
  43    0.2613        0.0004        0.0000        5.8929        5.8929       5.892435       0.41398
  42    0.3336        0.0004        0.0000        5.8897        5.8897       5.889215       0.37536
  41    0.4307        0.0004        0.0000        5.8857        5.8857       5.885304       0.34011
  40    0.5894        0.0004        0.0000        5.8798        5.8798       5.879397       0.31410
  39     1.339        0.0004        0.0000        5.8590        5.8590       5.858595       0.23419
  38     1.782        0.0004        0.0000        5.8506        5.8506       5.850127       0.16123
  37     2.292        0.0004        0.0000        5.8424        5.8424       5.841922       0.13590
  36     2.964        0.0004        0.0000        5.8327        5.8327       5.832273       0.12112
  35     3.853        0.0004        0.0000        5.8206        5.8206       5.820126       0.11528
  34     5.035        0.0004        0.0000        5.8045        5.8045       5.804095       0.11452
  33     6.613        0.0004        0.0000        5.7828        5.7828       5.782358       0.11620
  32     8.786        0.0004        0.0000        5.7527        5.7527       5.752255       0.11691
  31     11.80        0.0004        0.0000        5.7088        5.7089       5.708433       0.12269
  30     15.07        0.0004        0.0000        5.6617        5.6618       5.661341       0.12158
  29     18.79        0.0004        0.0000        5.6101        5.6102       5.609757       0.11696
  28     23.16        0.0004        0.0000        5.5539        5.5539       5.553495       0.10879
  27     28.12        0.0004        0.0000        5.4957        5.4958       5.495346       0.09885
  26     33.73        0.0004        0.0000        5.4379        5.4379       5.437536       0.08692
  25     40.54        0.0004        0.0001        5.3749        5.3750       5.374576       0.07811
  24     48.69        0.0004        0.0001        5.3044        5.3045       5.304114       0.07292
  23     57.69        0.0004        0.0001        5.2294        5.2295       5.229112       0.07030
  22     68.43        0.0004        0.0001        5.1416        5.1417       5.141350       0.06899
  21     81.20        0.0003        0.0001        5.0402        5.0403       5.039936       0.06701
  20     96.49        0.0003        0.0001        4.9260        4.9261       4.925754       0.06302
  19     114.6        0.0003        0.0001        4.7954        4.7956       4.795279       0.06092
  18     136.5        0.0003        0.0002        4.6558        4.6560       4.655686       0.05368
  17     162.9        0.0002        0.0002        4.4963        4.4964       4.496195       0.05098
  16     196.4        0.0002        0.0002        4.2728        4.2731       4.272841       0.05622
  15     218.7        0.0002        0.0002        4.0724        4.0727       4.072472       0.07607
  14     243.0        0.0002        0.0002        3.8102        3.8105       3.810325       0.09092
  13     269.0        0.0001        0.0002        3.4720        3.4722       3.472075       0.10973
  12     297.5        0.0001        0.0002        3.0589        3.0591       3.058989       0.12252
  11     328.5        0.0001        0.0002        2.6499        2.6502       2.650068       0.11118
  10     361.9        0.0001        0.0002        2.2815        2.2817       2.281611       0.09322
   9     398.1        0.0001        0.0002        1.9524        1.9526       1.952508       0.07667
   8     437.6        0.0001        0.0002        1.6512        1.6515       1.651401       0.06438
   7     480.5        0.0000        0.0002        1.3776        1.3778       1.377756       0.05374
   6     533.0        0.0000        0.0002        1.0886        1.0888       1.088780       0.04649
   5     589.8        0.0000        0.0002        0.8105        0.8106       0.810586       0.04129
   4     651.6        0.0000        0.0001        0.5333        0.5334       0.533392       0.03791
   3     718.7        0.0000        0.0001        0.3032        0.3033       0.303276       0.02892
   2     792.3        0.0000        0.0001        0.1278        0.1279       0.127843       0.02012
   1     891.5        0.0000        0.0000        0.0187        0.0187       0.018710       0.00929
   0    1013.0        0.0003        0.0000        0.0004        0.0004       0.000118       0.00129



 Wavenumbers:  4000. -  4650. cm-1, ATM      1
 LEVEL PRESSURE   UPWARD FLUX   DIFDOWN FLUX  DIRDOWN FLUX  DOWNWARD FLUX   NET FLUX    HEATING RATE
          mb          W/m2          W/m2          W/m2        W/m2          W/m2       degree/day
  51    .06700        0.6048        0.0000        6.9421        6.9421       6.337222       0.00000
  50    .07753        0.6048        0.0000        6.9421        6.9421       6.337221       0.00080
  49    .09103        0.6048        0.0000        6.9421        6.9421       6.337220       0.00078
  48    0.1069        0.6048        0.0000        6.9421        6.9421       6.337218       0.00076
  47    0.1255        0.6048        0.0000        6.9421        6.9421       6.337217       0.00075
  46    0.1487        0.6048        0.0000        6.9421        6.9421       6.337215       0.00076
  45    0.1794        0.6048        0.0000        6.9421        6.9421       6.337212       0.00078
  44    0.2165        0.6048        0.0000        6.9421        6.9421       6.337208       0.00076
  43    0.2613        0.6048        0.0000        6.9420        6.9421       6.337204       0.00075
  42    0.3336        0.6048        0.0000        6.9420        6.9420       6.337198       0.00077
  41    0.4307        0.6048        0.0000        6.9420        6.9420       6.337189       0.00077
  40    0.5894        0.6048        0.0000        6.9420        6.9420       6.337174       0.00080
  39     1.339        0.6048        0.0000        6.9419        6.9419       6.337085       0.00101
  38     1.782        0.6048        0.0000        6.9418        6.9419       6.337015       0.00133
  37     2.292        0.6048        0.0000        6.9418        6.9418       6.336921       0.00156
  36     2.964        0.6048        0.0000        6.9416        6.9416       6.336781       0.00176
  35     3.853        0.6048        0.0000        6.9414        6.9414       6.336573       0.00197
  34     5.035        0.6048        0.0000        6.9411        6.9411       6.336267       0.00219
  33     6.613        0.6048        0.0000        6.9406        6.9406       6.335817       0.00241
  32     8.786        0.6048        0.0000        6.9399        6.9400       6.335154       0.00258
  31     11.80        0.6048        0.0000        6.9389        6.9389       6.334115       0.00291
  30     15.07        0.6048        0.0001        6.9376        6.9377       6.332899       0.00314
  29     18.79        0.6048        0.0001        6.9361        6.9362       6.331434       0.00332
  28     23.16        0.6048        0.0001        6.9343        6.9344       6.329622       0.00350
  27     28.12        0.6048        0.0001        6.9321        6.9322       6.327439       0.00371
  26     33.73        0.6047        0.0001        6.9294        6.9295       6.324760       0.00403
  25     40.54        0.6047        0.0001        6.9257        6.9259       6.321149       0.00448
  24     48.69        0.6047        0.0002        6.9209        6.9211       6.316369       0.00495
  23     57.69        0.6047        0.0002        6.9152        6.9154       6.310747       0.00527
  22     68.43        0.6046        0.0002        6.9081        6.9084       6.303759       0.00549
  21     81.20        0.6046        0.0003        6.8995        6.8998       6.295217       0.00564
  20     96.49        0.6046        0.0004        6.8891        6.8895       6.284904       0.00569
  19     114.6        0.6045        0.0004        6.8762        6.8767       6.272129       0.00596
  18     136.5        0.6045        0.0005        6.8608        6.8613       6.256850       0.00588
  17     162.9        0.6044        0.0006        6.8421        6.8427       6.238269       0.00594
  16     196.4        0.6044        0.0007        6.8166        6.8173       6.212888       0.00639
  15     218.7        0.6044        0.0008        6.7976        6.7983       6.193912       0.00720
  14     243.0        0.6045        0.0009        6.7731        6.7740       6.169540       0.00845
  13     269.0        0.6046        0.0010        6.7409        6.7419       6.137360       0.01044
  12     297.5        0.6047        0.0011        6.6982        6.6992       6.094524       0.01270
  11     328.5        0.6050        0.0012        6.6434        6.6446       6.039610       0.01493
  10     361.9        0.6053        0.0013        6.5741        6.5754       5.970040       0.01760
   9     398.1        0.6058        0.0014        6.4889        6.4903       5.884488       0.01993
   8     437.6        0.6064        0.0015        6.3876        6.3891       5.782717       0.02176
   7     480.5        0.6072        0.0016        6.2749        6.2765       5.669300       0.02227
   6     533.0        0.6083        0.0018        6.1332        6.1349       5.526609       0.02295
   5     589.8        0.6099        0.0019        5.9653        5.9672       5.357271       0.02514
   4     651.6        0.6124        0.0021        5.7389        5.7409       5.128513       0.03128
   3     718.7        0.6163        0.0022        5.4502        5.4524       4.836069       0.03675
   2     792.3        0.6227        0.0023        5.1134        5.1156       4.492981       0.03935
   1     891.5        0.6371        0.0024        4.6750        4.6774       4.040244       0.03853
   0    1013.0        0.6696        0.0025        4.1801        4.1825       3.512912       0.03662



 Wavenumbers:  4650. -  5150. cm-1, ATM      1
 LEVEL PRESSURE   UPWARD FLUX   DIFDOWN FLUX  DIRDOWN FLUX  DOWNWARD FLUX   NET FLUX    HEATING RATE
          mb          W/m2          W/m2          W/m2        W/m2          W/m2       degree/day
  51    .06700        0.4370        0.0000        6.5710        6.5710       6.133968       0.00000
  50    .07753        0.4370        0.0000        6.5708        6.5708       6.133733       0.18877
  49    .09103        0.4370        0.0000        6.5705        6.5705       6.133439       0.18352
  48    0.1069        0.4370        0.0000        6.5701        6.5701       6.133105       0.17796
  47    0.1255        0.4370        0.0000        6.5697        6.5697       6.132725       0.17229
  46    0.1487        0.4370        0.0000        6.5693        6.5693       6.132251       0.17259
  45    0.1794        0.4370        0.0000        6.5686        6.5686       6.131615       0.17464
  44    0.2165        0.4370        0.0000        6.5679        6.5679       6.130878       0.16778
  43    0.2613        0.4370        0.0000        6.5670        6.5670       6.130025       0.16069
  42    0.3336        0.4370        0.0000        6.5657        6.5657       6.128663       0.15885
  41    0.4307        0.4370        0.0000        6.5640        6.5640       6.126942       0.14962
  40    0.5894        0.4370        0.0000        6.5613        6.5613       6.124327       0.13905
  39     1.339        0.4370        0.0000        6.5516        6.5516       6.114555       0.11001
  38     1.782        0.4370        0.0000        6.5473        6.5474       6.110342       0.08021
  37     2.292        0.4370        0.0000        6.5435        6.5435       6.106458       0.06433
  36     2.964        0.4370        0.0000        6.5395        6.5395       6.102506       0.04960
  35     3.853        0.4370        0.0000        6.5356        6.5356       6.098567       0.03739
  34     5.035        0.4370        0.0000        6.5315        6.5316       6.094568       0.02856
  33     6.613        0.4370        0.0000        6.5271        6.5272       6.090179       0.02347
  32     8.786        0.4370        0.0000        6.5216        6.5217       6.084690       0.02132
  31     11.80        0.4370        0.0001        6.5135        6.5136       6.076620       0.02259
  30     15.07        0.4370        0.0001        6.5041        6.5042       6.067263       0.02416
  29     18.79        0.4369        0.0001        6.4926        6.4927       6.055762       0.02608
  28     23.16        0.4369        0.0001        6.4780        6.4781       6.041188       0.02818
  27     28.12        0.4369        0.0002        6.4600        6.4601       6.023236       0.03052
  26     33.73        0.4369        0.0002        6.4385        6.4387       6.001834       0.03218
  25     40.54        0.4368        0.0002        6.4114        6.4116       5.974746       0.03361
  24     48.69        0.4368        0.0003        6.3777        6.3780       5.941158       0.03476
  23     57.69        0.4368        0.0003        6.3406        6.3409       5.904122       0.03471
  22     68.43        0.4367        0.0004        6.2974        6.2978       5.861003       0.03390
  21     81.20        0.4367        0.0004        6.2485        6.2490       5.812275       0.03220
  20     96.49        0.4367        0.0005        6.1952        6.1957       5.759010       0.02940
  19     114.6        0.4366        0.0006        6.1386        6.1392       5.702527       0.02637
  18     136.5        0.4366        0.0007        6.0795        6.0803       5.643652       0.02264
  17     162.9        0.4366        0.0009        6.0168        6.0177       5.581076       0.02000
  16     196.4        0.4366        0.0010        5.9412        5.9423       5.505669       0.01898
  15     218.7        0.4366        0.0011        5.8915        5.8926       5.455975       0.01887
  14     243.0        0.4367        0.0012        5.8346        5.8359       5.399212       0.01969
  13     269.0        0.4368        0.0014        5.7676        5.7690       5.332183       0.02174
  12     297.5        0.4370        0.0015        5.6858        5.6873       5.250302       0.02429
  11     328.5        0.4372        0.0016        5.5899        5.5915       5.154293       0.02610
  10     361.9        0.4376        0.0018        5.4787        5.4805       5.042861       0.02819
   9     398.1        0.4382        0.0019        5.3502        5.3521       4.913953       0.03003
   8     437.6        0.4389        0.0020        5.2035        5.2055       4.766564       0.03151
   7     480.5        0.4399        0.0022        5.0390        5.0412       4.601237       0.03247
   6     533.0        0.4415        0.0024        4.8308        4.8331       4.391665       0.03371
   5     589.8        0.4437        0.0025        4.6030        4.6055       4.161849       0.03411
   4     651.6        0.4469        0.0026        4.3500        4.3527       3.905751       0.03502
   3     718.7        0.4517        0.0028        4.0793        4.0820       3.630321       0.03461
   2     792.3        0.4589        0.0029        3.7904        3.7932       3.334284       0.03395
   1     891.5        0.4738        0.0029        3.4079        3.4109       2.937079       0.03380
   0    1013.0        0.5025        0.0030        2.9969        2.9999       2.497417       0.03053



 Wavenumbers:  5150. -  6150. cm-1, ATM      1
 LEVEL PRESSURE   UPWARD FLUX   DIFDOWN FLUX  DIRDOWN FLUX  DOWNWARD FLUX   NET FLUX    HEATING RATE
          mb          W/m2          W/m2          W/m2        W/m2          W/m2       degree/day
  51    .06700        1.2184        0.0000       16.4735       16.4735      15.255131       0.00000
  50    .07753        1.2184        0.0000       16.4735       16.4735      15.255092       0.03156
  49    .09103        1.2184        0.0000       16.4734       16.4734      15.255041       0.03204
  48    0.1069        1.2184        0.0000       16.4734       16.4734      15.254979       0.03254
  47    0.1255        1.2184        0.0000       16.4733       16.4733      15.254907       0.03304
  46    0.1487        1.2184        0.0000       16.4732       16.4732      15.254811       0.03481
  45    0.1794        1.2184        0.0000       16.4730       16.4730      15.254676       0.03704
  44    0.2165        1.2184        0.0000       16.4729       16.4729      15.254511       0.03759
  43    0.2613        1.2184        0.0000       16.4727       16.4727      15.254308       0.03815
  42    0.3336        1.2184        0.0000       16.4723       16.4723      15.253963       0.04029
  41    0.4307        1.2184        0.0000       16.4719       16.4719      15.253494       0.04080
  40    0.5894        1.2184        0.0000       16.4711       16.4711      15.252709       0.04175
  39     1.339        1.2183        0.0000       16.4673       16.4673      15.248946       0.04237
  38     1.782        1.2183        0.0000       16.4651       16.4651      15.246769       0.04144
  37     2.292        1.2183        0.0001       16.4626       16.4626      15.244318       0.04059
  36     2.964        1.2183        0.0001       16.4595       16.4595      15.241223       0.03885
  35     3.853        1.2183        0.0001       16.4555       16.4556      15.237321       0.03704
  34     5.035        1.2183        0.0001       16.4505       16.4506      15.232345       0.03555
  33     6.613        1.2182        0.0002       16.4440       16.4442      15.225973       0.03407
  32     8.786        1.2182        0.0002       16.4358       16.4360      15.217852       0.03154
  31     11.80        1.2181        0.0003       16.4249       16.4252      15.207106       0.03009
  30     15.07        1.2180        0.0004       16.4143       16.4146      15.196598       0.02713
  29     18.79        1.2180        0.0005       16.4034       16.4039      15.185906       0.02424
  28     23.16        1.2179        0.0006       16.3920       16.3926      15.174682       0.02170
  27     28.12        1.2178        0.0007       16.3803       16.3810      15.163238       0.01945
  26     33.73        1.2177        0.0009       16.3687       16.3696      15.151926       0.01701
  25     40.54        1.2175        0.0010       16.3564       16.3574      15.139907       0.01491
  24     48.69        1.2174        0.0012       16.3435       16.3447      15.127368       0.01298
  23     57.69        1.2172        0.0015       16.3309       16.3324      15.115179       0.01142
  22     68.43        1.2170        0.0017       16.3174       16.3192      15.102164       0.01023
  21     81.20        1.2168        0.0021       16.3027       16.3047      15.087989       0.00937
  20     96.49        1.2165        0.0024       16.2861       16.2886      15.072108       0.00876
  19     114.6        1.2162        0.0029       16.2671       16.2700      15.053830       0.00853
  18     136.5        1.2158        0.0034       16.2445       16.2480      15.032223       0.00831
  17     162.9        1.2153        0.0041       16.2108       16.2149      14.999588       0.01043
  16     196.4        1.2147        0.0049       16.1360       16.1409      14.926179       0.01848
  15     218.7        1.2144        0.0055       16.0099       16.0154      14.801006       0.04752
  14     243.0        1.2140        0.0060       15.7396       15.7456      14.531668       0.09342
  13     269.0        1.2136        0.0065       15.3077       15.3142      14.100612       0.13983
  12     297.5        1.2132        0.0070       14.7951       14.8021      13.588853       0.15178
  11     328.5        1.2129        0.0075       14.2426       14.2501      13.037219       0.14999
  10     361.9        1.2126        0.0080       13.6155       13.6235      12.410857       0.15848
   9     398.1        1.2124        0.0084       12.9439       12.9523      11.739928       0.15631
   8     437.6        1.2122        0.0088       12.2429       12.2517      11.039497       0.14976
   7     480.5        1.2122        0.0092       11.5524       11.5616      10.349435       0.13553
   6     533.0        1.2123        0.0096       10.8188       10.8284       9.616093       0.11797
   5     589.8        1.2129        0.0100       10.1668       10.1768       8.963896       0.09681
   4     651.6        1.2143        0.0103        9.5867        9.5970       8.382741       0.07947
   3     718.7        1.2170        0.0108        9.1006        9.1114       7.894361       0.06138
   2     792.3        1.2223        0.0113        8.6172        8.6286       7.406215       0.05598
   1     891.5        1.2357        0.0119        7.9587        7.9706       6.734866       0.05713
   0    1013.0        1.2693        0.0126        7.3371        7.3496       6.080365       0.04545



 Wavenumbers:  6150. -  7700. cm-1, ATM      1
 LEVEL PRESSURE   UPWARD FLUX   DIFDOWN FLUX  DIRDOWN FLUX  DOWNWARD FLUX   NET FLUX    HEATING RATE
          mb          W/m2          W/m2          W/m2        W/m2          W/m2       degree/day
  51    .06700        1.8141        0.0000       30.4684       30.4684      28.654276       0.00000
  50    .07753        1.8141        0.0000       30.4683       30.4683      28.654219       0.04553
  49    .09103        1.8141        0.0000       30.4682       30.4683      28.654146       0.04582
  48    0.1069        1.8141        0.0000       30.4682       30.4682      28.654059       0.04613
  47    0.1255        1.8141        0.0000       30.4681       30.4681      28.653957       0.04643
  46    0.1487        1.8141        0.0000       30.4679       30.4679      28.653824       0.04850
  45    0.1794        1.8141        0.0000       30.4677       30.4677      28.653637       0.05124
  44    0.2165        1.8141        0.0000       30.4675       30.4675      28.653410       0.05163
  43    0.2613        1.8141        0.0000       30.4672       30.4672      28.653134       0.05205
  42    0.3336        1.8141        0.0000       30.4667       30.4667      28.652665       0.05464
  41    0.4307        1.8141        0.0000       30.4661       30.4661      28.652032       0.05511
  40    0.5894        1.8141        0.0001       30.4650       30.4650      28.650975       0.05619
  39     1.339        1.8140        0.0001       30.4598       30.4599      28.645911       0.05701
  38     1.782        1.8139        0.0002       30.4567       30.4569      28.642968       0.05603
  37     2.292        1.8139        0.0002       30.4533       30.4535      28.639633       0.05523
  36     2.964        1.8138        0.0003       30.4489       30.4492      28.635383       0.05335
  35     3.853        1.8137        0.0004       30.4433       30.4437      28.629961       0.05146
  34     5.035        1.8136        0.0005       30.4360       30.4366      28.622968       0.04995
  33     6.613        1.8134        0.0007       30.4266       30.4273      28.613898       0.04849
  32     8.786        1.8132        0.0009       30.4144       30.4154      28.602138       0.04567
  31     11.80        1.8129        0.0013       30.3978       30.3991      28.586198       0.04463
  30     15.07        1.8126        0.0016       30.3811       30.3827      28.570157       0.04142
  29     18.79        1.8122        0.0020       30.3635       30.3655      28.553294       0.03823
  28     23.16        1.8118        0.0025       30.3443       30.3468      28.535038       0.03530
  27     28.12        1.8113        0.0030       30.3239       30.3269      28.515685       0.03290
  26     33.73        1.8107        0.0036       30.3029       30.3066      28.495863       0.02980
  25     40.54        1.8100        0.0043       30.2799       30.2842      28.474179       0.02690
  24     48.69        1.8092        0.0052       30.2548       30.2600      28.450791       0.02420
  23     57.69        1.8083        0.0062       30.2296       30.2357      28.427456       0.02187
  22     68.43        1.8072        0.0073       30.2020       30.2093      28.402086       0.01994
  21     81.20        1.8059        0.0087       30.1714       30.1801      28.374154       0.01846
  20     96.49        1.8044        0.0103       30.1369       30.1471      28.342748       0.01733
  19     114.6        1.8026        0.0122       30.0970       30.1092      28.306653       0.01685
  18     136.5        1.8004        0.0145       30.0504       30.0649      28.264500       0.01621
  17     162.9        1.7978        0.0172       29.9842       30.0014      28.203562       0.01948
  16     196.4        1.7945        0.0207       29.8533       29.8740      28.079495       0.03123
  15     218.7        1.7923        0.0229       29.6742       29.6972      27.904873       0.06630
  14     243.0        1.7900        0.0253       29.3154       29.3407      27.550681       0.12285
  13     269.0        1.7876        0.0276       28.6682       28.6958      26.908181       0.20842
  12     297.5        1.7851        0.0298       27.7720       27.8018      26.016650       0.26442
  11     328.5        1.7826        0.0319       26.8285       26.8604      25.077767       0.25528
  10     361.9        1.7801        0.0341       25.7886       25.8227      24.042576       0.26191
   9     398.1        1.7777        0.0361       24.6047       24.6408      22.863096       0.27479
   8     437.6        1.7754        0.0379       23.3058       23.3437      21.568293       0.27684
   7     480.5        1.7735        0.0395       21.9700       22.0095      20.236036       0.26165
   6     533.0        1.7718        0.0411       20.4313       20.4724      18.700687       0.24699
   5     589.8        1.7712        0.0424       18.8913       18.9337      17.162523       0.22831
   4     651.6        1.7730        0.0433       17.2864       17.3297      15.556642       0.21961
   3     718.7        1.7789        0.0438       15.7330       15.7768      13.997841       0.19590
   2     792.3        1.7923        0.0440       14.2351       14.2791      12.486790       0.17330
   1     891.5        1.8287        0.0441       12.5248       12.5689      10.740208       0.14863
   0    1013.0        1.9213        0.0442       10.9349       10.9791       9.057762       0.11682



 Wavenumbers:  7700. -  8050. cm-1, ATM      1
 LEVEL PRESSURE   UPWARD FLUX   DIFDOWN FLUX  DIRDOWN FLUX  DOWNWARD FLUX   NET FLUX    HEATING RATE
          mb          W/m2          W/m2          W/m2        W/m2          W/m2       degree/day
  51    .06700        0.9748        0.0000        7.2006        7.2006       6.225832       0.00000
  50    .07753        0.9748        0.0000        7.2006        7.2006       6.225814       0.01471
  49    .09103        0.9748        0.0000        7.2005        7.2005       6.225791       0.01441
  48    0.1069        0.9748        0.0000        7.2005        7.2005       6.225764       0.01411
  47    0.1255        0.9748        0.0000        7.2005        7.2005       6.225734       0.01381
  46    0.1487        0.9748        0.0000        7.2004        7.2004       6.225695       0.01401
  45    0.1794        0.9748        0.0000        7.2004        7.2004       6.225643       0.01442
  44    0.2165        0.9748        0.0000        7.2003        7.2003       6.225580       0.01414
  43    0.2613        0.9748        0.0000        7.2003        7.2003       6.225507       0.01388
  42    0.3336        0.9748        0.0000        7.2001        7.2001       6.225385       0.01420
  41    0.4307        0.9748        0.0000        7.2000        7.2000       6.225224       0.01404
  40    0.5894        0.9748        0.0000        7.1997        7.1997       6.224960       0.01402
  39     1.339        0.9748        0.0001        7.1984        7.1985       6.223713       0.01404
  38     1.782        0.9748        0.0001        7.1977        7.1978       6.222980       0.01394
  37     2.292        0.9748        0.0001        7.1968        7.1969       6.222133       0.01404
  36     2.964        0.9748        0.0001        7.1957        7.1958       6.221021       0.01396
  35     3.853        0.9748        0.0002        7.1942        7.1944       6.219552       0.01394
  34     5.035        0.9748        0.0002        7.1922        7.1924       6.217603       0.01392
  33     6.613        0.9749        0.0003        7.1896        7.1899       6.215002       0.01390
  32     8.786        0.9749        0.0004        7.1860        7.1864       6.211503       0.01359
  31     11.80        0.9750        0.0005        7.1810        7.1815       6.206509       0.01398
  30     15.07        0.9750        0.0006        7.1755        7.1762       6.201163       0.01380
  29     18.79        0.9751        0.0008        7.1694        7.1702       6.195144       0.01365
  28     23.16        0.9752        0.0010        7.1623        7.1633       6.188143       0.01354
  27     28.12        0.9753        0.0012        7.1543        7.1555       6.180174       0.01355
  26     33.73        0.9754        0.0014        7.1453        7.1467       6.171304       0.01334
  25     40.54        0.9755        0.0017        7.1344        7.1362       6.160656       0.01321
  24     48.69        0.9757        0.0021        7.1215        7.1236       6.147918       0.01318
  23     57.69        0.9759        0.0025        7.1075        7.1099       6.134051       0.01300
  22     68.43        0.9761        0.0029        7.0909        7.0938       6.117705       0.01285
  21     81.20        0.9763        0.0034        7.0714        7.0748       6.098467       0.01271
  20     96.49        0.9766        0.0041        7.0484        7.0525       6.075871       0.01247
  19     114.6        0.9770        0.0048        7.0217        7.0265       6.049491       0.01232
  18     136.5        0.9775        0.0057        6.9906        6.9963       6.018827       0.01179
  17     162.9        0.9781        0.0068        6.9544        6.9612       5.983121       0.01141
  16     196.4        0.9789        0.0081        6.9088        6.9169       5.938058       0.01134
  15     218.7        0.9794        0.0090        6.8795        6.8885       5.909119       0.01099
  14     243.0        0.9800        0.0100        6.8482        6.8582       5.878196       0.01072
  13     269.0        0.9806        0.0110        6.8148        6.8259       5.845227       0.01069
  12     297.5        0.9814        0.0122        6.7794        6.7915       5.810119       0.01041
  11     328.5        0.9823        0.0134        6.7415        6.7549       5.772650       0.01019
  10     361.9        0.9833        0.0147        6.7014        6.7161       5.732827       0.01008
   9     398.1        0.9844        0.0161        6.6586        6.6747       5.690300       0.00991
   8     437.6        0.9857        0.0176        6.6128        6.6304       5.644694       0.00975
   7     480.5        0.9872        0.0191        6.5638        6.5829       5.595684       0.00963
   6     533.0        0.9893        0.0211        6.5031        6.5241       5.534814       0.00979
   5     589.8        0.9919        0.0231        6.4362        6.4594       5.467504       0.00999
   4     651.6        0.9952        0.0254        6.3609        6.3862       5.391081       0.01045
   3     718.7        0.9994        0.0277        6.2745        6.3022       5.302748       0.01110
   2     792.3        1.0051        0.0301        6.1727        6.2028       5.197642       0.01205
   1     891.5        1.0153        0.0333        6.0169        6.0501       5.034839       0.01385
   0    1013.0        1.0321        0.0369        5.8007        5.8376       4.805473       0.01593



 Wavenumbers:  8050. - 12850. cm-1, ATM      1
 LEVEL PRESSURE   UPWARD FLUX   DIFDOWN FLUX  DIRDOWN FLUX  DOWNWARD FLUX   NET FLUX    HEATING RATE
          mb          W/m2          W/m2          W/m2        W/m2          W/m2       degree/day
  51    .06700       15.9333        0.0000      100.8135      100.8135      84.880197       0.00000
  50    .07753       15.9333        0.0000      100.8135      100.8135      84.880197       0.00000
  49    .09103       15.9333        0.0001      100.8134      100.8135      84.880197       0.00000
  48    0.1069       15.9332        0.0001      100.8134      100.8134      84.880197      -0.00000
  47    0.1255       15.9332        0.0001      100.8133      100.8134      84.880197      -0.00000
  46    0.1487       15.9332        0.0002      100.8132      100.8134      84.880197       0.00000
  45    0.1794       15.9331        0.0002      100.8131      100.8133      84.880197       0.00000
  44    0.2165       15.9330        0.0003      100.8129      100.8132      84.880197      -0.00000
  43    0.2613       15.9330        0.0004      100.8127      100.8132      84.880197       0.00000
  42    0.3336       15.9328        0.0006      100.8125      100.8130      84.880197      -0.00000
  41    0.4307       15.9327        0.0008      100.8121      100.8128      84.880197       0.00000
  40    0.5894       15.9324        0.0011      100.8115      100.8126      84.880197      -0.00000
  39     1.339       15.9310        0.0027      100.8085      100.8112      84.880197       0.00000
  38     1.782       15.9302        0.0036      100.8068      100.8104      84.880197       0.00000
  37     2.292       15.9293        0.0047      100.8047      100.8095      84.880197       0.00000
  36     2.964       15.9280        0.0061      100.8021      100.8082      84.880197      -0.00000
  35     3.853       15.9264        0.0080      100.7986      100.8066      84.880197      -0.00000
  34     5.035       15.9243        0.0105      100.7940      100.8045      84.880197       0.00000
  33     6.613       15.9214        0.0138      100.7878      100.8016      84.880197       0.00000
  32     8.786       15.9175        0.0183      100.7794      100.7977      84.880197       0.00000
  31     11.80       15.9120        0.0248      100.7674      100.7922      84.880197      -0.00000
  30     15.07       15.9060        0.0317      100.7546      100.7862      84.880197       0.00000
  29     18.79       15.8993        0.0395      100.7400      100.7795      84.880197      -0.00000
  28     23.16       15.8914        0.0486      100.7230      100.7716      84.880197       0.00000
  27     28.12       15.8824        0.0591      100.7035      100.7626      84.880197       0.00000
  26     33.73       15.8723        0.0708      100.6817      100.7525      84.880197      -0.00000
  25     40.54       15.8601        0.0850      100.6552      100.7403      84.880197       0.00000
  24     48.69       15.8453        0.1022      100.6234      100.7255      84.880197      -0.00000
  23     57.69       15.8291        0.1210      100.5883      100.7093      84.880197       0.00000
  22     68.43       15.8097        0.1435      100.5464      100.6899      84.880197       0.00000
  21     81.20       15.7866        0.1703      100.4965      100.6668      84.880197       0.00000
  20     96.49       15.7590        0.2022      100.4370      100.6392      84.880197      -0.00000
  19     114.6       15.7262        0.2403      100.3601      100.6003      84.874150       0.00282
  18     136.5       15.6872        0.2854      100.2685      100.5539      84.866655       0.00288
  17     162.9       15.6407        0.3392      100.1557      100.4949      84.854214       0.00398
  16     196.4       15.5803        0.4092       99.9935      100.4027      84.822383       0.00801
  15     218.7       15.5405        0.4551       99.8490      100.3041      84.763605       0.02232
  14     243.0       15.4974        0.5050       99.6218      100.1268      84.629471       0.04652
  13     269.0       15.4507        0.5588       99.2701       99.8289      84.378154       0.08153
  12     297.5       15.4008        0.6165       98.7863       99.4028      84.002051       0.11155
  11     328.5       15.3472        0.6786       98.2127       98.8913      83.544082       0.12452
  10     361.9       15.2902        0.7449       97.5096       98.2545      82.964291       0.14669
   9     398.1       15.2299        0.8155       96.6249       97.4404      82.210478       0.17562
   8     437.6       15.1669        0.8901       95.5141       96.4041      81.237252       0.20808
   7     480.5       15.1015        0.9682       94.1664       95.1347      80.033118       0.23649
   6     533.0       15.0253        1.0618       92.2972       93.3590      78.333660       0.27339
   5     589.8       14.9507        1.1583       90.0044       91.1626      76.211955       0.31493
   4     651.6       14.8854        1.2550       87.0975       88.3525      73.467165       0.37536
   3     718.7       14.8391        1.3508       83.6639       85.0147      70.175574       0.41366
   2     792.3       14.8328        1.4425       79.5919       81.0344      66.201613       0.45577
   1     891.5       14.9328        1.5481       73.8807       75.4288      60.495921       0.48553
   0    1013.0       15.3087        1.6549       67.5841       69.2390      53.930256       0.45589



 Wavenumbers: 12850. - 16000. cm-1, ATM      1
 LEVEL PRESSURE   UPWARD FLUX   DIFDOWN FLUX  DIRDOWN FLUX  DOWNWARD FLUX   NET FLUX    HEATING RATE
          mb          W/m2          W/m2          W/m2        W/m2          W/m2       degree/day
  51    .06700       18.7198        0.0000       63.1686       63.1686      44.448814       0.00000
  50    .07753       18.7197        0.0001       63.1677       63.1678      44.448038       0.62185
  49    .09103       18.7197        0.0001       63.1666       63.1668      44.447072       0.60386
  48    0.1069       18.7196        0.0002       63.1654       63.1656      44.445973       0.58499
  47    0.1255       18.7196        0.0003       63.1640       63.1643      44.444724       0.56599
  46    0.1487       18.7195        0.0004       63.1623       63.1627      44.443169       0.56674
  45    0.1794       18.7194        0.0005       63.1600       63.1605      44.441088       0.57149
  44    0.2165       18.7193        0.0007       63.1573       63.1580      44.438685       0.54659
  43    0.2613       18.7192        0.0009       63.1542       63.1551      44.435920       0.52124
  42    0.3336       18.7190        0.0013       63.1493       63.1506      44.431527       0.51217
  41    0.4307       18.7188        0.0017       63.1431       63.1449      44.426053       0.47591
  40    0.5894       18.7185        0.0025       63.1338       63.1363      44.417810       0.43838
  39     1.339       18.7176        0.0060       63.0956       63.1016      44.383926       0.38146
  38     1.782       18.7177        0.0081       63.0740       63.0821      44.364440       0.37098
  37     2.292       18.7181        0.0105       63.0477       63.0581      44.339994       0.40489
  36     2.964       18.7195        0.0136       63.0095       63.0231      44.303653       0.45619
  35     3.853       18.7223        0.0178       62.9533       62.9710      44.248742       0.52112
  34     5.035       18.7270        0.0233       62.8725       62.8958      44.168791       0.57114
  33     6.613       18.7338        0.0306       62.7621       62.7927      44.058903       0.58746
  32     8.786       18.7424        0.0405       62.6182       62.6587      43.916341       0.55366
  31     11.80       18.7528        0.0546       62.4284       62.4829      43.730170       0.52122
  30     15.07       18.7616        0.0696       62.2426       62.3123      43.550654       0.46348
  29     18.79       18.7695        0.0866       62.0493       62.1359      43.366392       0.41778
  28     23.16       18.7765        0.1064       61.8425       61.9489      43.172422       0.37508
  27     28.12       18.7816        0.1290       61.6278       61.7568      42.975214       0.33524
  26     33.73       18.7834        0.1542       61.4177       61.5719      42.788453       0.28080
  25     40.54       18.7810        0.1846       61.1983       61.3829      42.601827       0.23153
  24     48.69       18.7738        0.2211       60.9680       61.1891      42.415335       0.19299
  23     57.69       18.7615        0.2612       60.7478       61.0090      42.247496       0.15732
  22     68.43       18.7422        0.3088       60.5202       60.8290      42.086783       0.12634
  21     81.20       18.7130        0.3655       60.2938       60.6594      41.946387       0.09277
  20     96.49       18.6723        0.4330       60.0643       60.4973      41.825043       0.06697
  19     114.6       18.6243        0.5134       59.8078       60.3213      41.696965       0.05980
  18     136.5       18.5648        0.6085       59.5158       60.1243      41.559547       0.05284
  17     162.9       18.4915        0.7214       59.1773       59.8987      41.407234       0.04869
  16     196.4       18.3912        0.8672       58.7611       59.6283      41.237125       0.04282
  15     218.7       18.3235        0.9626       58.4958       59.4585      41.134938       0.03880
  14     243.0       18.2492        1.0661       58.2104       59.2765      41.027342       0.03732
  13     269.0       18.1678        1.1779       57.9039       59.0818      40.913974       0.03678
  12     297.5       18.0792        1.2983       57.5736       58.8719      40.792674       0.03598
  11     328.5       17.9833        1.4279       57.2160       58.6440      40.660604       0.03591
  10     361.9       17.8801        1.5670       56.8288       58.3957      40.515567       0.03670
   9     398.1       17.7693        1.7159       56.4074       58.1233      40.353969       0.03765
   8     437.6       17.6510        1.8751       55.9445       57.8196      40.168615       0.03963
   7     480.5       17.5253        2.0447       55.4356       57.4803      39.954992       0.04195
   6     533.0       17.3728        2.2518       54.7850       57.0368      39.664017       0.04681
   5     589.8       17.2128        2.4727       54.0438       56.5165      39.303731       0.05348
   4     651.6       17.0498        2.7063       53.1687       55.8750      38.825203       0.06544
   3     718.7       16.8869        2.9511       52.1625       55.1137      38.226718       0.07521
   2     792.3       16.7348        3.2038       50.9845       54.1883      37.453540       0.08867
   1     891.5       16.5805        3.5266       49.2385       52.7651      36.184591       0.10798
   0    1013.0       16.4901        3.8868       47.0085       50.8952      34.405179       0.12355



 Wavenumbers: 16000. - 22650. cm-1, ATM      1
 LEVEL PRESSURE   UPWARD FLUX   DIFDOWN FLUX  DIRDOWN FLUX  DOWNWARD FLUX   NET FLUX    HEATING RATE
          mb          W/m2          W/m2          W/m2        W/m2          W/m2       degree/day
  51    .06700       43.6325        0.0000      100.7153      100.7153      57.082834       0.00000
  50    .07753       43.6323        0.0003      100.7147      100.7150      57.082732       0.08187
  49    .09103       43.6321        0.0007      100.7140      100.7147      57.082583       0.09286
  48    0.1069       43.6318        0.0011      100.7131      100.7142      57.082384       0.10589
  47    0.1255       43.6316        0.0016      100.7121      100.7137      57.082118       0.12070
  46    0.1487       43.6312        0.0022      100.7108      100.7129      57.081726       0.14303
  45    0.1794       43.6308        0.0030      100.7089      100.7119      57.081112       0.16840
  44    0.2165       43.6303        0.0040      100.7066      100.7106      57.080280       0.18927
  43    0.2613       43.6297        0.0052      100.7037      100.7088      57.079152       0.21278
  42    0.3336       43.6288        0.0071      100.6987      100.7058      57.077005       0.25022
  41    0.4307       43.6277        0.0097      100.6918      100.7015      57.073771       0.28126
  40    0.5894       43.6260        0.0139      100.6797      100.6936      57.067602       0.32806
  39     1.339       43.6212        0.0337      100.6095      100.6432      57.022037       0.51297
  38     1.782       43.6206        0.0454      100.5585      100.6039      56.983238       0.73867
  37     2.292       43.6221        0.0589      100.4903      100.5492      56.927101       0.92978
  36     2.964       43.6271        0.0766      100.3868      100.4634      56.836217       1.14087
  35     3.853       43.6384        0.1000      100.2306      100.3306      56.692151       1.36721
  34     5.035       43.6578        0.1309      100.0045      100.1354      56.477540       1.53309
  33     6.613       43.6861        0.1722       99.6939       99.8661      56.179933       1.59101
  32     8.786       43.7219        0.2276       99.2881       99.5157      55.793788       1.49965
  31     11.80       43.7644        0.3067       98.7496       99.0563      55.291865       1.40522
  30     15.07       43.7999        0.3912       98.2198       98.6110      54.811077       1.24130
  29     18.79       43.8309        0.4862       97.6651       98.1513      54.320419       1.11247
  28     23.16       43.8567        0.5967       97.0671       97.6639      53.807189       0.99242
  27     28.12       43.8739        0.7225       96.4406       97.1631      53.289160       0.88061
  26     33.73       43.8757        0.8627       95.8179       96.6806      52.804900       0.72810
  25     40.54       43.8577        1.0314       95.1548       96.1862      52.328577       0.59093
  24     48.69       43.8164        1.2338       94.4420       95.6757      51.859372       0.48555
  23     57.69       43.7522        1.4549       93.7416       95.1965      51.444290       0.38908
  22     68.43       43.6557        1.7169       92.9954       94.7123      51.056568       0.30480
  21     81.20       43.5132        2.0275       92.2231       94.2507      50.737422       0.21089
  20     96.49       43.3182        2.3954       91.4110       93.8064      50.488192       0.13756
  19     114.6       43.0748        2.8287       90.5070       93.3357      50.260899       0.10613
  18     136.5       42.7788        3.3370       89.4803       92.8173      50.038517       0.08551
  17     162.9       42.4202        3.9351       88.3023       92.2374      49.817126       0.07077
  16     196.4       41.9413        4.7000       86.8607       91.5607      49.619447       0.04976
  15     218.7       41.6224        5.1957       85.9494       91.1451      49.522680       0.03674
  14     243.0       41.2746        5.7286       84.9792       90.7078      49.433250       0.03102
  13     269.0       40.8967        6.2994       83.9498       90.2493      49.352590       0.02617
  12     297.5       40.4877        6.9084       82.8601       89.7685      49.280839       0.02128
  11     328.5       40.0469        7.5574       81.7009       89.2583      49.211362       0.01889
  10     361.9       39.5740        8.2458       80.4725       88.7183      49.144226       0.01699
   9     398.1       39.0672        8.9747       79.1714       88.1461      49.078852       0.01523
   8     437.6       38.5260        9.7440       77.7953       87.5393      49.013303       0.01401
   7     480.5       37.9493       10.5533       76.3434       86.8967      48.947401       0.01294
   6     533.0       37.2447       11.5281       74.5859       86.1140      48.869278       0.01257
   5     589.8       36.4922       12.5528       72.7227       85.2756      48.783371       0.01275
   4     651.6       35.6922       13.6248       70.7478       84.3726      48.680411       0.01408
   3     718.7       34.8448       14.7409       68.6568       83.3977      48.552939       0.01602
   2     792.3       33.9535       15.8950       66.4416       82.3366      48.383112       0.01948
   1     891.5       32.7820       17.3834       63.4790       80.8624      48.080338       0.02576
   0    1013.0       31.4226       19.0683       59.9822       79.0506      47.627979       0.03141



 Wavenumbers: 22650. - 29000. cm-1, ATM      1
 LEVEL PRESSURE   UPWARD FLUX   DIFDOWN FLUX  DIRDOWN FLUX  DOWNWARD FLUX   NET FLUX    HEATING RATE
          mb          W/m2          W/m2          W/m2        W/m2          W/m2       degree/day
  51    .06700       22.7234        0.0000       38.0063       38.0063      15.282921       0.00000
  50    .07753       22.7232        0.0003       38.0057       38.0061      15.282921       0.00000
  49    .09103       22.7229        0.0008       38.0050       38.0058      15.282921      -0.00000
  48    0.1069       22.7226        0.0013       38.0042       38.0055      15.282921       0.00000
  47    0.1255       22.7223        0.0019       38.0033       38.0052      15.282921       0.00000
  46    0.1487       22.7219        0.0026       38.0022       38.0048      15.282921       0.00000
  45    0.1794       22.7213        0.0036       38.0006       38.0042      15.282921      -0.00000
  44    0.2165       22.7206        0.0048       37.9987       38.0035      15.282921      -0.00000
  43    0.2613       22.7198        0.0062       37.9965       38.0027      15.282921       0.00000
  42    0.3336       22.7184        0.0085       37.9928       38.0014      15.282921       0.00000
  41    0.4307       22.7166        0.0116       37.9880       37.9996      15.282921      -0.00000
  40    0.5894       22.7137        0.0166       37.9800       37.9967      15.282921       0.00000
  39     1.339       22.6999        0.0404       37.9425       37.9829      15.282921      -0.00000
  38     1.782       22.6919        0.0543       37.9204       37.9748      15.282921       0.00000
  37     2.292       22.6825        0.0705       37.8949       37.9654      15.282921      -0.00000
  36     2.964       22.6702        0.0917       37.8614       37.9531      15.282921       0.00000
  35     3.853       22.6539        0.1196       37.8172       37.9369      15.282921      -0.00000
  34     5.035       22.6324        0.1567       37.7586       37.9153      15.282921       0.00000
  33     6.613       22.6036        0.2062       37.6803       37.8865      15.282921       0.00000
  32     8.786       22.5649        0.2728       37.5750       37.8478      15.282921      -0.00000
  31     11.80       22.5096        0.3677       37.4249       37.7925      15.282921       0.00000
  30     15.07       22.4504        0.4691       37.2642       37.7333      15.282921      -0.00000
  29     18.79       22.3836        0.5832       37.0833       37.6665      15.282921       0.00000
  28     23.16       22.3059        0.7158       36.8730       37.5888      15.282921       0.00000
  27     28.12       22.2173        0.8665       36.6338       37.5003      15.282921       0.00000
  26     33.73       22.1187        1.0339       36.3677       37.4016      15.282921      -0.00000
  25     40.54       22.0001        1.2344       36.0486       37.2830      15.282921       0.00000
  24     48.69       21.8580        1.4737       35.6672       37.1409      15.282921      -0.00000
  23     57.69       21.7031        1.7333       35.2527       36.9860      15.282921       0.00000
  22     68.43       21.5202        2.0382       34.7649       36.8031      15.282921       0.00000
  21     81.20       21.3045        2.3952       34.1922       36.5874      15.282921      -0.00000
  20     96.49       21.0507        2.8119       33.5217       36.3336      15.282921       0.00000
  19     114.6       20.7539        3.2944       32.7424       36.0368      15.282921       0.00000
  18     136.5       20.4083        3.8496       31.8416       35.6912      15.282921       0.00000
  17     162.9       20.0053        4.4874       30.8008       35.2882      15.282921       0.00000
  16     196.4       19.4961        5.2783       29.5007       34.7790      15.282921      -0.00000
  15     218.7       19.1697        5.7759       28.6767       34.4527      15.282921       0.00000
  14     243.0       18.8219        6.2980       27.8068       34.1048      15.282921      -0.00000
  13     269.0       18.4528        6.8424       26.8934       33.7358      15.282921       0.00000
  12     297.5       18.0628        7.4063       25.9394       33.3458      15.282921      -0.00000
  11     328.5       17.6512        7.9887       24.9454       32.9341      15.282921      -0.00000
  10     361.9       17.2190        8.5853       23.9166       32.5019      15.282921       0.00000
   9     398.1       16.7659        9.1937       22.8551       32.0488      15.282921       0.00000
   8     437.6       16.2928        9.8091       21.7666       31.5757      15.282921       0.00000
   7     480.5       15.8001       10.4279       20.6551       31.0830      15.282921      -0.00000
   6     533.0       15.2132       11.1337       19.3625       30.4962      15.282921       0.00000
   5     589.8       14.6028       11.8300       18.0557       29.8857      15.282921      -0.00000
   4     651.6       13.9693       12.5108       16.7414       29.2522      15.282921       0.00000
   3     718.7       13.3149       13.1648       15.4330       28.5978      15.282921       0.00000
   2     792.3       12.6404       13.7851       14.1382       27.9233      15.282921      -0.00000
   1     891.5       11.7694       14.4994       12.5529       27.0523      15.282921       0.00000
   0    1013.0       10.7749       15.1905       10.8674       26.0578      15.282921       0.00000



 Wavenumbers: 29000. - 38000. cm-1, ATM      1
 LEVEL PRESSURE   UPWARD FLUX   DIFDOWN FLUX  DIRDOWN FLUX  DOWNWARD FLUX   NET FLUX    HEATING RATE
          mb          W/m2          W/m2          W/m2        W/m2          W/m2       degree/day
  51    .06700        3.7610        0.0000       13.4026       13.4026       9.641574       0.00000
  50    .07753        3.7608        0.0003       13.3983       13.3986       9.637777       3.04335
  49    .09103        3.7605        0.0006       13.3921       13.3928       9.632260       3.44848
  48    0.1069        3.7602        0.0011       13.3840       13.3851       9.624886       3.92539
  47    0.1255        3.7598        0.0015       13.3733       13.3749       9.615044       4.46158
  46    0.1487        3.7594        0.0021       13.3579       13.3600       9.600607       5.26246
  45    0.1794        3.7588        0.0029       13.3340       13.3370       9.578216       6.14696
  44    0.2165        3.7581        0.0039       13.3024       13.3063       9.548209       6.82613
  43    0.2613        3.7573        0.0050       13.2604       13.2654       9.508170       7.54708
  42    0.3336        3.7560        0.0069       13.1833       13.1902       9.434195       8.62479
  41    0.4307        3.7543        0.0093       13.0729       13.0822       9.327871       9.24462
  40    0.5894        3.7517        0.0130       12.8796       12.8926       9.140922       9.94172
  39     1.339        3.7420        0.0288       11.9165       11.9453       8.203298      10.55594
  38     1.782        3.7378        0.0368       11.4399       11.4768       7.738921       8.84099
  37     2.292        3.7341        0.0454       10.9796       11.0250       7.290844       7.42133
  36     2.964        3.7309        0.0558       10.4786       10.5345       6.803570       6.11676
  35     3.853        3.7288        0.0688        9.9429       10.0116       6.282829       4.94193
  34     5.035        3.7283        0.0848        9.4007        9.4855       5.757210       3.75480
  33     6.613        3.7292        0.1051        8.8752        8.9803       5.251104       2.70564
  32     8.786        3.7309        0.1312        8.3786        8.5098       4.778929       1.83376
  31     11.80        3.7321        0.1670        7.8897        8.0566       4.324543       1.27214
  30     15.07        3.7319        0.2038        7.5108        7.7146       3.982688       0.88260
  29     18.79        3.7305        0.2438        7.1776        7.4214       3.690938       0.66149
  28     23.16        3.7273        0.2887        6.8664        7.1551       3.427810       0.50881
  27     28.12        3.7220        0.3383        6.5780        6.9163       3.194309       0.39694
  26     33.73        3.7126        0.3921        6.3195        6.7116       2.999021       0.29362
  25     40.54        3.6971        0.4555        6.0663        6.5218       2.824652       0.21632
  24     48.69        3.6748        0.5295        5.8128        6.3424       2.667542       0.16258
  23     57.69        3.6469        0.6083        5.5777        6.1860       2.539083       0.12041
  22     68.43        3.6100        0.6992        5.3379        6.0371       2.427043       0.08808
  21     81.20        3.5604        0.8043        5.0965        5.9008       2.340343       0.05729
  20     96.49        3.4967        0.9252        4.8476        5.7728       2.276153       0.03543
  19     114.6        3.4208        1.0615        4.5799        5.6414       2.220621       0.02593
  18     136.5        3.3329        1.2128        4.2891        5.5019       2.168938       0.01987
  17     162.9        3.2322        1.3791        3.9732        5.3523       2.120077       0.01562
  16     196.4        3.1054        1.5761        3.6080        5.1842       2.078735       0.01041
  15     218.7        3.0252        1.6947        3.3898        5.0845       2.059241       0.00740
  14     243.0        2.9412        1.8143        3.1686        4.9829       2.041698       0.00608
  13     269.0        2.8536        1.9338        2.9461        4.8799       2.026356       0.00498
  12     297.5        2.7626        2.0519        2.7239        4.7758       2.013210       0.00390
  11     328.5        2.6689        2.1670        2.5029        4.6699       2.000990       0.00332
  10     361.9        2.5728        2.2779        2.2846        4.5625       1.989709       0.00285
   9     398.1        2.4746        2.3832        2.0708        4.4539       1.979357       0.00241
   8     437.6        2.3746        2.4812        1.8631        4.3443       1.969706       0.00206
   7     480.5        2.2730        2.5712        1.6626        4.2338       1.960853       0.00174
   6     533.0        2.1551        2.6622        1.4445        4.1066       1.951566       0.00149
   5     589.8        2.0358        2.7386        1.2402        3.9788       1.942953       0.00128
   4     651.6        1.9154        2.7988        1.0514        3.8503       1.934892       0.00110
   3     718.7        1.7937        2.8417        0.8794        3.7211       1.927359       0.00095
   2     792.3        1.6708        2.8661        0.7250        3.5911       1.920340       0.00081
   1     891.5        1.5144        2.8697        0.5569        3.4266       1.912172       0.00070
   0    1013.0        1.3378        2.8380        0.4037        3.2416       1.903808       0.00058



 Wavenumbers: 38000. - 50000. cm-1, ATM      1
 LEVEL PRESSURE   UPWARD FLUX   DIFDOWN FLUX  DIRDOWN FLUX  DOWNWARD FLUX   NET FLUX    HEATING RATE
          mb          W/m2          W/m2          W/m2        W/m2          W/m2       degree/day
  51    .06700        0.0051        0.0000        0.8267        0.8267       0.821528       0.00000
  50    .07753        0.0051        0.0001        0.8242        0.8243       0.819196       1.86936
  49    .09103        0.0050        0.0002        0.8207        0.8209       0.815872       2.07705
  48    0.1069        0.0049        0.0002        0.8162        0.8164       0.811514       2.31984
  47    0.1255        0.0048        0.0004        0.8103        0.8106       0.805801       2.59006
  46    0.1487        0.0047        0.0005        0.8018        0.8023       0.797567       3.00143
  45    0.1794        0.0045        0.0007        0.7889        0.7896       0.785013       3.44648
  44    0.2165        0.0044        0.0009        0.7720        0.7729       0.768507       3.75474
  43    0.2613        0.0042        0.0011        0.7500        0.7511       0.746955       4.06246
  42    0.3336        0.0039        0.0015        0.7106        0.7121       0.708267       4.51071
  41    0.4307        0.0035        0.0019        0.6566        0.6584       0.654972       4.63387
  40    0.5894        0.0029        0.0024        0.5680        0.5704       0.567464       4.65357
  39     1.339        0.0015        0.0030        0.2422        0.2452       0.243720       3.64476
  38     1.782        0.0010        0.0026        0.1493        0.1519       0.150889       1.76735
  37     2.292        0.0007        0.0022        0.0924        0.0946       0.093932       0.94336
  36     2.964        0.0005        0.0018        0.0539        0.0557       0.055224       0.48589
  35     3.853        0.0003        0.0013        0.0295        0.0308       0.030502       0.23462
  34     5.035        0.0002        0.0010        0.0154        0.0164       0.016181       0.10230
  33     6.613        0.0001        0.0007        0.0073        0.0080       0.007912       0.04420
  32     8.786        0.0000        0.0004        0.0030        0.0034       0.003390       0.01756
  31     11.80        0.0000        0.0003        0.0010        0.0012       0.001199       0.00613
  30     15.07        0.0000        0.0001        0.0003        0.0005       0.000463       0.00190
  29     18.79        0.0000        0.0001        0.0001        0.0002       0.000182       0.00064
  28     23.16        0.0000        0.0000        0.0000        0.0001       0.000071       0.00022
  27     28.12        0.0000        0.0000        0.0000        0.0000       0.000028       0.00007
  26     33.73        0.0000        0.0000        0.0000        0.0000       0.000011       0.00002
  25     40.54        0.0000        0.0000        0.0000        0.0000       0.000005       0.00001
  24     48.69        0.0000        0.0000        0.0000        0.0000       0.000002       0.00000
  23     57.69        0.0000        0.0000        0.0000        0.0000       0.000001       0.00000
  22     68.43        0.0000        0.0000        0.0000        0.0000       0.000000       0.00000
  21     81.20        0.0000        0.0000        0.0000        0.0000       0.000000       0.00000
  20     96.49        0.0000        0.0000        0.0000        0.0000       0.000000       0.00000
  19     114.6        0.0000        0.0000        0.0000        0.0000       0.000000       0.00000
  18     136.5        0.0000        0.0000        0.0000        0.0000       0.000000       0.00000
  17     162.9        0.0000        0.0000        0.0000        0.0000       0.000000       0.00000
  16     196.4        0.0000        0.0000        0.0000        0.0000       0.000000       0.00000
  15     218.7        0.0000        0.0000        0.0000        0.0000       0.000000       0.00000
  14     243.0        0.0000        0.0000        0.0000        0.0000       0.000000       0.00000
  13     269.0        0.0000        0.0000        0.0000        0.0000       0.000000       0.00000
  12     297.5        0.0000        0.0000        0.0000        0.0000       0.000000       0.00000
  11     328.5        0.0000        0.0000        0.0000        0.0000       0.000000       0.00000
  10     361.9        0.0000        0.0000        0.0000        0.0000       0.000000       0.00000
   9     398.1        0.0000        0.0000        0.0000        0.0000       0.000000       0.00000
   8     437.6        0.0000        0.0000        0.0000        0.0000       0.000000       0.00000
   7     480.5        0.0000        0.0000        0.0000        0.0000       0.000000       0.00000
   6     533.0        0.0000        0.0000        0.0000        0.0000       0.000000       0.00000
   5     589.8        0.0000        0.0000        0.0000        0.0000       0.000000       0.00000
   4     651.6        0.0000        0.0000        0.0000        0.0000       0.000000       0.00000
   3     718.7        0.0000        0.0000        0.0000        0.0000       0.000000       0.00000
   2     792.3        0.0000        0.0000        0.0000        0.0000       0.000000       0.00000
   1     891.5        0.0000        0.0000        0.0000        0.0000       0.000000       0.00000
   0    1013.0        0.0000        0.0000        0.0000        0.0000       0.000000       0.00000



 Wavenumbers:   820. -  2600. cm-1, ATM      1
 LEVEL PRESSURE   UPWARD FLUX   DIFDOWN FLUX  DIRDOWN FLUX  DOWNWARD FLUX   NET FLUX    HEATING RATE
          mb          W/m2          W/m2          W/m2        W/m2          W/m2       degree/day
  51    .06700        0.1101        0.0000        3.8670        3.8670       3.756908       0.00000
  50    .07753        0.1101        0.0000        3.8643        3.8643       3.754182       2.18510
  49    .09103        0.1101        0.0000        3.8635        3.8635       3.753360       0.51376
  48    0.1069        0.1101        0.0000        3.8626        3.8626       3.752456       0.48157
  47    0.1255        0.1101        0.0000        3.8616        3.8616       3.751478       0.44311
  46    0.1487        0.1101        0.0000        3.8605        3.8605       3.750347       0.41229
  45    0.1794        0.1101        0.0000        3.8591        3.8591       3.748982       0.37466
  44    0.2165        0.1101        0.0000        3.8577        3.8577       3.747569       0.32151
  43    0.2613        0.1101        0.0000        3.8562        3.8562       3.746065       0.28348
  42    0.3336        0.1101        0.0000        3.8539        3.8539       3.743759       0.26886
  41    0.4307        0.1101        0.0000        3.8509        3.8509       3.740783       0.25878
  40    0.5894        0.1101        0.0000        3.8460        3.8460       3.735900       0.25968
  39     1.339        0.1101        0.0000        3.8240        3.8240       3.713880       0.24790
  38     1.782        0.1101        0.0000        3.8119        3.8119       3.701761       0.23071
  37     2.292        0.1101        0.0000        3.7986        3.7986       3.688444       0.22057
  36     2.964        0.1101        0.0000        3.7823        3.7823       3.672152       0.20451
  35     3.853        0.1101        0.0000        3.7623        3.7623       3.652222       0.18914
  34     5.035        0.1101        0.0000        3.7378        3.7378       3.627707       0.17513
  33     6.613        0.1101        0.0000        3.7076        3.7076       3.597466       0.16167
  32     8.786        0.1101        0.0000        3.6716        3.6716       3.561473       0.13979
  31     11.80        0.1101        0.0000        3.6316        3.6316       3.521461       0.11202
  30     15.07        0.1101        0.0000        3.6017        3.6017       3.491633       0.07701
  29     18.79        0.1101        0.0000        3.5785        3.5785       3.468400       0.05268
  28     23.16        0.1101        0.0000        3.5580        3.5581       3.447939       0.03956
  27     28.12        0.1101        0.0000        3.5377        3.5377       3.427567       0.03463
  26     33.73        0.1101        0.0000        3.5162        3.5162       3.406096       0.03228
  25     40.54        0.1101        0.0000        3.4913        3.4914       3.381234       0.03084
  24     48.69        0.1101        0.0000        3.4628        3.4628       3.352677       0.02955
  23     57.69        0.1101        0.0000        3.4327        3.4327       3.322611       0.02818
  22     68.43        0.1101        0.0000        3.3986        3.3986       3.288506       0.02681
  21     81.20        0.1101        0.0000        3.3606        3.3606       3.250480       0.02513
  20     96.49        0.1101        0.0000        3.3183        3.3183       3.208177       0.02335
  19     114.6        0.1101        0.0000        3.2715        3.2715       3.161337       0.02187
  18     136.5        0.1101        0.0000        3.2206        3.2206       3.110493       0.01955
  17     162.9        0.1101        0.0000        3.1613        3.1613       3.051161       0.01896
  16     196.4        0.1102        0.0000        3.0792        3.0792       2.969023       0.02068
  15     218.7        0.1102        0.0000        3.0115        3.0115       2.901379       0.02568
  14     243.0        0.1102        0.0000        2.9223        2.9223       2.812138       0.03095
  13     269.0        0.1102        0.0000        2.8151        2.8152       2.704939       0.03477
  12     297.5        0.1103        0.0000        2.6710        2.6710       2.560758       0.04276
  11     328.5        0.1104        0.0000        2.4998        2.4998       2.389476       0.04657
  10     361.9        0.1105        0.0000        2.3186        2.3186       2.208116       0.04589
   9     398.1        0.1106        0.0000        2.1555        2.1556       2.044907       0.03802
   8     437.6        0.1109        0.0000        2.0290        2.0290       1.918151       0.02710
   7     480.5        0.1111        0.0000        1.9377        1.9378       1.826648       0.01797
   6     533.0        0.1115        0.0000        1.8432        1.8432       1.731689       0.01528
   5     589.8        0.1122        0.0000        1.7350        1.7350       1.622843       0.01616
   4     651.6        0.1134        0.0000        1.6037        1.6038       1.490394       0.01811
   3     718.7        0.1155        0.0000        1.4647        1.4648       1.349280       0.01773
   2     792.3        0.1194        0.0000        1.3161        1.3161       1.196681       0.01750
   1     891.5        0.1293        0.0000        1.0919        1.0920       0.962639       0.01992
   0    1013.0        0.1535        0.0000        0.7886        0.7886       0.635167       0.02274

  Modules and versions used in this calculation:

       rrtmg_sw.1col.f90:  $Revision$                    rrtmg_sw_init.f90:  $Revision$        
     rrtmgsw_cldprop.f90:  $Revision$                  rrtmgsw_cldprmc.f90:  NOT USED          
     rrtmg_sw_reftra.f90:  $Revision$                  rrtmg_sw_spcvrt.f90:  NOT USED          
     rrtmg_sw_spcvmc.f90:  NOT USED                    rrtmgsw_setcoef.f90:  NOT USED          
     rrtmg_sw_taumol.f90:  $Revision$                  rrtmg_sw_vrtqdr.f90:  NOT USED          
                rrtatm.f:  NOT USED                             util_xxx.f:  NOT USED          
                 extra.f:  NOT USED                       rrtmg_sw_k_g.f90:  $Revision$        

