

 Wavenumbers:   820. - 50000. cm-1, ATM      1
 LEVEL PRESSURE   UPWARD FLUX   DIFDOWN FLUX  DIRDOWN FLUX  DOWNWARD FLUX   NET FLUX    HEATING RATE
          mb          W/m2          W/m2          W/m2        W/m2          W/m2       degree/day
  51    .06700      318.3040        0.0000      617.8126      617.8126     299.508622       0.00000
  50    .07753      318.3034        0.0012      617.7947      617.7959     299.492520      12.90576
  49    .09103      318.3027        0.0027      617.7778      617.7804     299.477767       9.22141
  48    0.1069      318.3019        0.0044      617.7581      617.7625     299.460581       9.14815
  47    0.1255      318.3010        0.0064      617.7340      617.7403     299.439338       9.63062
  46    0.1487      318.2999        0.0089      617.7009      617.7097     299.409802      10.76595
  45    0.1794      318.2985        0.0122      617.6521      617.6643     299.365807      12.07769
  44    0.2165      318.2969        0.0162      617.5895      617.6057     299.308807      12.96657
  43    0.2613      318.2951        0.0210      617.5089      617.5299     299.234731      13.96296
  42    0.3336      318.2924        0.0287      617.3641      617.3928     299.100480      15.65237
  41    0.4307      318.2890        0.0389      617.1591      617.1981     298.909118      16.63853
  40    0.5894      318.2840        0.0554      616.8005      616.8559     298.571840      17.93599
  39     1.339      318.2724        0.1294      614.9443      615.0736     296.801168      19.93456
  38     1.782      318.2735        0.1707      613.9670      614.1377     295.864209      17.83819
  37     2.292      318.2818        0.2176      613.0059      613.2235     294.941724      15.27875
  36     2.964      318.3031        0.2785      611.9577      612.2361     293.933071      12.66165
  35     3.853      318.3457        0.3582      610.8024      611.1606     292.814896      10.61168
  34     5.035      318.4166        0.4633      609.5327      609.9960     291.579366       8.82612
  33     6.613      318.5192        0.6026      608.1464      608.7491     290.229861       7.21446
  32     8.786      318.6514        0.7894      606.6250      607.4144     288.762982       5.69683
  31     11.80      318.8159        1.0550      604.8486      605.9036     287.087723       4.69020
  30     15.07      318.9637        1.3381      603.2440      604.5820     285.618300       3.79377
  29     18.79      319.1049        1.6562      601.6511      603.3073     284.202403       3.21027
  28     23.16      319.2403        2.0254      599.9927      602.0181     282.777842       2.75464
  27     28.12      319.3603        2.4452      598.2881      600.7332     281.372896       2.38831
  26     33.73      319.4435        2.9126      596.5951      599.5077     280.064149       1.96774
  25     40.54      319.4843        3.4746      594.7727      598.2473     278.763041       1.61417
  24     48.69      319.4757        4.1480      592.7865      596.9345     277.458877       1.34961
  23     57.69      319.4102        4.8831      590.7959      595.6790     276.268761       1.11555
  22     68.43      319.2715        5.7524      588.6191      594.3715     275.100035       0.91877
  21     81.20      319.0215        6.7813      586.2690      593.0503     274.028773       0.70787
  20     96.49      318.6453        7.9970      583.6961      591.6931     273.047762       0.54145
  19     114.6      318.1689        9.4234      580.7708      590.1943     272.025380       0.47738
  18     136.5      317.5796       11.0887      577.4359      588.5246     270.945008       0.41543
  17     162.9      316.8576       13.0358      573.5624      586.5983     269.740637       0.38497
  16     196.4      315.8738       15.5080      568.5907      584.0987     268.224971       0.38151
  15     218.7      315.2129       17.0998      565.0572      582.1571     266.944111       0.48630
  14     243.0      314.4914       18.8011      560.7495      579.5507     265.059299       0.65372
  13     269.0      313.7079       20.6117      555.3947      576.0064     262.298494       0.89559
  12     297.5      312.8635       22.5304      548.9964      571.5268     258.663219       1.07818
  11     328.5      311.9600       24.5608      542.0895      566.6503     254.690337       1.08022
  10     361.9      310.9999       26.6976      534.6242      561.3219     250.322004       1.10523
   9     398.1      309.9845       28.9424      526.4204      555.3628     245.378319       1.15177
   8     437.6      308.9217       31.2913      517.3907      548.6820     239.760269       1.20117
   7     480.5      307.8192       33.7398      507.7216      541.4614     233.642239       1.20156
   6     533.0      306.5285       36.6598      495.9006      532.5604     226.031917       1.22426
   5     589.8      305.2540       39.6940      483.0788      522.7728     217.518818       1.26362
   4     651.6      304.1153       42.8254      468.6907      511.5160     207.400763       1.38367
   3     718.7      303.2550       46.0409      453.2257      499.2666     196.011638       1.43130
   2     792.3      303.0048       49.3148      436.4928      485.8077     182.802870       1.51490
   1     891.5      304.4241       53.4645      413.9344      467.3989     162.974725       1.68728
   0    1013.0      310.7773       58.0623      388.4125      446.4748     135.697449       1.89400



 Wavenumbers:  2600. -  3250. cm-1, ATM      1
 LEVEL PRESSURE   UPWARD FLUX   DIFDOWN FLUX  DIRDOWN FLUX  DOWNWARD FLUX   NET FLUX    HEATING RATE
          mb          W/m2          W/m2          W/m2        W/m2          W/m2       degree/day
  51    .06700        1.4888        0.0000        5.4450        5.4450       3.956242       0.00000
  50    .07753        1.4888        0.0000        5.4450        5.4450       3.956234       0.00640
  49    .09103        1.4888        0.0000        5.4450        5.4450       3.956224       0.00627
  48    0.1069        1.4888        0.0000        5.4450        5.4450       3.956213       0.00613
  47    0.1255        1.4888        0.0000        5.4450        5.4450       3.956199       0.00599
  46    0.1487        1.4888        0.0000        5.4450        5.4450       3.956183       0.00608
  45    0.1794        1.4888        0.0000        5.4450        5.4450       3.956160       0.00625
  44    0.2165        1.4888        0.0000        5.4449        5.4449       3.956133       0.00612
  43    0.2613        1.4888        0.0000        5.4449        5.4449       3.956101       0.00600
  42    0.3336        1.4888        0.0000        5.4448        5.4448       3.956048       0.00617
  41    0.4307        1.4888        0.0000        5.4448        5.4448       3.955977       0.00620
  40    0.5894        1.4888        0.0000        5.4446        5.4446       3.955857       0.00637
  39     1.339        1.4888        0.0000        5.4439        5.4439       3.955150       0.00797
  38     1.782        1.4888        0.0000        5.4434        5.4434       3.954607       0.01034
  37     2.292        1.4888        0.0000        5.4427        5.4427       3.953891       0.01186
  36     2.964        1.4888        0.0000        5.4416        5.4416       3.952852       0.01304
  35     3.853        1.4888        0.0000        5.4402        5.4402       3.951375       0.01402
  34     5.035        1.4888        0.0000        5.4381        5.4381       3.949319       0.01468
  33     6.613        1.4888        0.0000        5.4353        5.4353       3.946538       0.01487
  32     8.786        1.4888        0.0000        5.4317        5.4317       3.942906       0.01411
  31     11.80        1.4888        0.0000        5.4269        5.4269       3.938125       0.01338
  30     15.07        1.4888        0.0000        5.4224        5.4224       3.933598       0.01169
  29     18.79        1.4888        0.0000        5.4180        5.4180       3.929184       0.01001
  28     23.16        1.4888        0.0000        5.4135        5.4135       3.924696       0.00868
  27     28.12        1.4888        0.0000        5.4088        5.4088       3.920046       0.00791
  26     33.73        1.4888        0.0000        5.4036        5.4036       3.914801       0.00789
  25     40.54        1.4888        0.0000        5.3966        5.3967       3.907853       0.00862
  24     48.69        1.4888        0.0000        5.3872        5.3872       3.898366       0.00982
  23     57.69        1.4888        0.0000        5.3754        5.3754       3.886567       0.01106
  22     68.43        1.4889        0.0000        5.3599        5.3599       3.871059       0.01219
  21     81.20        1.4889        0.0000        5.3401        5.3401       3.851195       0.01313
  20     96.49        1.4890        0.0000        5.3155        5.3155       3.826585       0.01358
  19     114.6        1.4890        0.0000        5.2853        5.2854       3.796328       0.01413
  18     136.5        1.4891        0.0001        5.2504        5.2505       3.761335       0.01346
  17     162.9        1.4893        0.0001        5.2111        5.2112       3.721864       0.01262
  16     196.4        1.4896        0.0001        5.1640        5.1641       3.674551       0.01191
  15     218.7        1.4899        0.0001        5.1331        5.1332       3.643342       0.01185
  14     243.0        1.4904        0.0001        5.0962        5.0963       3.605956       0.01297
  13     269.0        1.4911        0.0001        5.0511        5.0512       3.560068       0.01489
  12     297.5        1.4923        0.0001        4.9956        4.9957       3.503426       0.01680
  11     328.5        1.4939        0.0001        4.9304        4.9305       3.436592       0.01817
  10     361.9        1.4961        0.0001        4.8511        4.8512       3.355144       0.02061
   9     398.1        1.4991        0.0002        4.7507        4.7508       3.251774       0.02408
   8     437.6        1.5031        0.0002        4.6220        4.6222       3.119115       0.02836
   7     480.5        1.5085        0.0002        4.4625        4.4627       2.954138       0.03240
   6     533.0        1.5171        0.0002        4.2460        4.2462       2.729093       0.03620
   5     589.8        1.5299        0.0002        3.9954        3.9956       2.465710       0.03909
   4     651.6        1.5500        0.0002        3.7089        3.7091       2.159026       0.04194
   3     718.7        1.5812        0.0002        3.4018        3.4020       1.820801       0.04251
   2     792.3        1.6323        0.0002        3.0564        3.0566       1.424385       0.04546
   1     891.5        1.7477        0.0002        2.5828        2.5830       0.835298       0.05013
   0    1013.0        2.0191        0.0002        2.0845        2.0847       0.065669       0.05344



 Wavenumbers:  3250. -  4000. cm-1, ATM      1
 LEVEL PRESSURE   UPWARD FLUX   DIFDOWN FLUX  DIRDOWN FLUX  DOWNWARD FLUX   NET FLUX    HEATING RATE
          mb          W/m2          W/m2          W/m2        W/m2          W/m2       degree/day
  51    .06700        0.0006        0.0000        9.1795        9.1795       9.178967       0.00000
  50    .07753        0.0006        0.0000        9.1747        9.1747       9.174124       3.88148
  49    .09103        0.0006        0.0000        9.1713        9.1713       9.170736       2.11747
  48    0.1069        0.0006        0.0000        9.1688        9.1688       9.168211       1.34402
  47    0.1255        0.0006        0.0000        9.1665        9.1665       9.165952       1.02422
  46    0.1487        0.0006        0.0000        9.1641        9.1641       9.163511       0.88991
  45    0.1794        0.0006        0.0000        9.1612        9.1612       9.160633       0.79008
  44    0.2165        0.0006        0.0000        9.1583        9.1583       9.157712       0.66430
  43    0.2613        0.0006        0.0000        9.1553        9.1553       9.154739       0.56041
  42    0.3336        0.0006        0.0000        9.1511        9.1511       9.150560       0.48723
  41    0.4307        0.0006        0.0000        9.1464        9.1464       9.145792       0.41459
  40    0.5894        0.0006        0.0000        9.1393        9.1394       9.138787       0.37255
  39     1.339        0.0006        0.0000        9.1127        9.1127       9.112173       0.29962
  38     1.782        0.0006        0.0000        9.1011        9.1011       9.100585       0.22062
  37     2.292        0.0006        0.0000        9.0901        9.0901       9.089518       0.18329
  36     2.964        0.0006        0.0000        9.0776        9.0776       9.077088       0.15603
  35     3.853        0.0006        0.0000        9.0629        9.0629       9.062298       0.14036
  34     5.035        0.0006        0.0000        9.0441        9.0441       9.043559       0.13386
  33     6.613        0.0006        0.0000        9.0191        9.0191       9.018558       0.13366
  32     8.786        0.0006        0.0000        8.9843        8.9843       8.983774       0.13509
  31     11.80        0.0005        0.0000        8.9327        8.9327       8.932158       0.14451
  30     15.07        0.0005        0.0000        8.8758        8.8759       8.875313       0.14676
  29     18.79        0.0005        0.0000        8.8110        8.8110       8.810486       0.14698
  28     23.16        0.0005        0.0000        8.7365        8.7366       8.736041       0.14395
  27     28.12        0.0005        0.0000        8.6554        8.6555       8.654928       0.13789
  26     33.73        0.0005        0.0000        8.5719        8.5719       8.571428       0.12554
  25     40.54        0.0005        0.0001        8.4812        8.4812       8.480704       0.11255
  24     48.69        0.0005        0.0001        8.3838        8.3839       8.383403       0.10069
  23     57.69        0.0005        0.0001        8.2861        8.2862       8.285668       0.09161
  22     68.43        0.0005        0.0001        8.1751        8.1751       8.174671       0.08726
  21     81.20        0.0005        0.0001        8.0457        8.0458       8.045313       0.08548
  20     96.49        0.0004        0.0001        7.8949        7.8950       7.894610       0.08318
  19     114.6        0.0004        0.0001        7.7162        7.7163       7.715900       0.08344
  18     136.5        0.0004        0.0002        7.5193        7.5194       7.519057       0.07569
  17     162.9        0.0004        0.0002        7.2913        7.2915       7.291165       0.07284
  16     196.4        0.0003        0.0002        6.9660        6.9662       6.965893       0.08187
  15     218.7        0.0003        0.0002        6.6648        6.6650       6.664704       0.11435
  14     243.0        0.0003        0.0002        6.2619        6.2622       6.261910       0.13970
  13     269.0        0.0003        0.0003        5.7576        5.7579       5.757610       0.16359
  12     297.5        0.0002        0.0003        5.1719        5.1722       5.171920       0.17371
  11     328.5        0.0002        0.0002        4.5757        4.5760       4.575760       0.16209
  10     361.9        0.0002        0.0002        3.9995        3.9998       3.999585       0.14578
   9     398.1        0.0002        0.0002        3.4655        3.4657       3.465528       0.12442
   8     437.6        0.0002        0.0002        2.9740        2.9742       2.974080       0.10507
   7     480.5        0.0002        0.0002        2.5307        2.5309       2.530707       0.08708
   6     533.0        0.0001        0.0002        2.0614        2.0616       2.061409       0.07550
   5     589.8        0.0001        0.0002        1.6150        1.6151       1.614976       0.06627
   4     651.6        0.0002        0.0001        1.1565        1.1566       1.156424       0.06271
   3     718.7        0.0002        0.0001        0.7390        0.7391       0.738906       0.05247
   2     792.3        0.0003        0.0001        0.3985        0.3985       0.398209       0.03907
   1     891.5        0.0009        0.0000        0.1139        0.1139       0.113006       0.02427
   0    1013.0        0.0091        0.0000        0.0094        0.0094       0.000296       0.00783



 Wavenumbers:  4000. -  4650. cm-1, ATM      1
 LEVEL PRESSURE   UPWARD FLUX   DIFDOWN FLUX  DIRDOWN FLUX  DOWNWARD FLUX   NET FLUX    HEATING RATE
          mb          W/m2          W/m2          W/m2        W/m2          W/m2       degree/day
  51    .06700        6.0121        0.0000       10.7795       10.7795       4.767471       0.00000
  50    .07753        6.0121        0.0000       10.7795       10.7795       4.767470       0.00080
  49    .09103        6.0121        0.0000       10.7795       10.7795       4.767468       0.00078
  48    0.1069        6.0121        0.0000       10.7795       10.7795       4.767467       0.00076
  47    0.1255        6.0121        0.0000       10.7795       10.7795       4.767465       0.00075
  46    0.1487        6.0121        0.0000       10.7795       10.7795       4.767463       0.00076
  45    0.1794        6.0121        0.0000       10.7795       10.7795       4.767460       0.00078
  44    0.2165        6.0121        0.0000       10.7795       10.7795       4.767457       0.00076
  43    0.2613        6.0121        0.0000       10.7795       10.7795       4.767453       0.00075
  42    0.3336        6.0121        0.0000       10.7795       10.7795       4.767446       0.00077
  41    0.4307        6.0121        0.0000       10.7795       10.7795       4.767438       0.00077
  40    0.5894        6.0121        0.0000       10.7795       10.7795       4.767423       0.00080
  39     1.339        6.0121        0.0000       10.7794       10.7794       4.767333       0.00101
  38     1.782        6.0121        0.0000       10.7793       10.7793       4.767263       0.00133
  37     2.292        6.0121        0.0000       10.7792       10.7792       4.767169       0.00156
  36     2.964        6.0121        0.0000       10.7791       10.7791       4.767029       0.00176
  35     3.853        6.0121        0.0000       10.7789       10.7789       4.766821       0.00197
  34     5.035        6.0121        0.0000       10.7786       10.7786       4.766514       0.00219
  33     6.613        6.0121        0.0000       10.7781       10.7781       4.766062       0.00241
  32     8.786        6.0121        0.0000       10.7774       10.7775       4.765396       0.00259
  31     11.80        6.0121        0.0001       10.7763       10.7764       4.764348       0.00293
  30     15.07        6.0120        0.0001       10.7751       10.7752       4.763119       0.00317
  29     18.79        6.0120        0.0001       10.7736       10.7737       4.761632       0.00337
  28     23.16        6.0120        0.0001       10.7717       10.7718       4.759786       0.00357
  27     28.12        6.0120        0.0001       10.7695       10.7696       4.757551       0.00380
  26     33.73        6.0120        0.0002       10.7667       10.7668       4.754795       0.00414
  25     40.54        6.0121        0.0002       10.7629       10.7631       4.751056       0.00464
  24     48.69        6.0121        0.0002       10.7579       10.7582       4.746074       0.00516
  23     57.69        6.0121        0.0003       10.7520       10.7523       4.740167       0.00554
  22     68.43        6.0122        0.0003       10.7446       10.7449       4.732763       0.00582
  21     81.20        6.0123        0.0004       10.7355       10.7359       4.723643       0.00603
  20     96.49        6.0124        0.0005       10.7245       10.7249       4.712543       0.00613
  19     114.6        6.0126        0.0006       10.7107       10.7113       4.698656       0.00648
  18     136.5        6.0129        0.0007       10.6942       10.6949       4.681917       0.00644
  17     162.9        6.0134        0.0008       10.6740       10.6748       4.661379       0.00656
  16     196.4        6.0143        0.0009       10.6464       10.6473       4.633004       0.00714
  15     218.7        6.0151        0.0010       10.6255       10.6265       4.611376       0.00821
  14     243.0        6.0164        0.0012       10.5980       10.5992       4.582821       0.00990
  13     269.0        6.0183        0.0013       10.5611       10.5624       4.544053       0.01258
  12     297.5        6.0212        0.0014       10.5119       10.5134       4.492158       0.01539
  11     328.5        6.0252        0.0016       10.4499       10.4514       4.426244       0.01792
  10     361.9        6.0304        0.0017       10.3702       10.3719       4.341470       0.02145
   9     398.1        6.0369        0.0019       10.2678       10.2696       4.232740       0.02533
   8     437.6        6.0450        0.0020       10.1390       10.1410       4.096014       0.02923
   7     480.5        6.0551        0.0022        9.9877        9.9899       3.934850       0.03165
   6     533.0        6.0700        0.0024        9.7937        9.7961       3.726116       0.03358
   5     589.8        6.0907        0.0026        9.5752        9.5778       3.487135       0.03547
   4     651.6        6.1220        0.0028        9.2958        9.2986       3.176679       0.04246
   3     718.7        6.1704        0.0031        8.9267        8.9298       2.759341       0.05245
   2     792.3        6.2502        0.0032        8.4542        8.4575       2.207286       0.06331
   1     891.5        6.4330        0.0034        7.7948        7.7983       1.365285       0.07165
   0    1013.0        6.8573        0.0036        7.0767        7.0803       0.223030       0.07931



 Wavenumbers:  4650. -  5150. cm-1, ATM      1
 LEVEL PRESSURE   UPWARD FLUX   DIFDOWN FLUX  DIRDOWN FLUX  DOWNWARD FLUX   NET FLUX    HEATING RATE
          mb          W/m2          W/m2          W/m2        W/m2          W/m2       degree/day
  51    .06700        4.2329        0.0000       10.2033       10.2033       5.970436       0.00000
  50    .07753        4.2329        0.0000       10.2031       10.2031       5.970200       0.18901
  49    .09103        4.2329        0.0000       10.2028       10.2028       5.969905       0.18428
  48    0.1069        4.2329        0.0000       10.2025       10.2025       5.969568       0.17931
  47    0.1255        4.2329        0.0000       10.2021       10.2021       5.969184       0.17426
  46    0.1487        4.2329        0.0000       10.2016       10.2016       5.968703       0.17536
  45    0.1794        4.2329        0.0000       10.2010       10.2010       5.968053       0.17850
  44    0.2165        4.2329        0.0000       10.2002       10.2002       5.967293       0.17277
  43    0.2613        4.2329        0.0000       10.1993       10.1993       5.966408       0.16690
  42    0.3336        4.2329        0.0000       10.1979       10.1979       5.964975       0.16702
  41    0.4307        4.2329        0.0000       10.1960       10.1960       5.963135       0.16002
  40    0.5894        4.2329        0.0000       10.1932       10.1932       5.960261       0.15283
  39     1.339        4.2329        0.0000       10.1816       10.1816       5.948669       0.13050
  38     1.782        4.2329        0.0000       10.1760       10.1760       5.943141       0.10526
  37     2.292        4.2329        0.0000       10.1706       10.1706       5.937684       0.09037
  36     2.964        4.2329        0.0000       10.1646       10.1647       5.931761       0.07435
  35     3.853        4.2329        0.0000       10.1584       10.1584       5.925546       0.05898
  34     5.035        4.2329        0.0000       10.1521       10.1521       5.919210       0.04526
  33     6.613        4.2329        0.0000       10.1456       10.1456       5.912752       0.03453
  32     8.786        4.2329        0.0001       10.1386       10.1386       5.905739       0.02723
  31     11.80        4.2329        0.0001       10.1295       10.1296       5.896695       0.02532
  30     15.07        4.2329        0.0001       10.1196       10.1197       5.886811       0.02552
  29     18.79        4.2329        0.0001       10.1076       10.1077       5.874795       0.02724
  28     23.16        4.2329        0.0002       10.0923       10.0924       5.859478       0.02962
  27     28.12        4.2330        0.0002       10.0731       10.0733       5.840367       0.03249
  26     33.73        4.2330        0.0002       10.0500       10.0503       5.817248       0.03476
  25     40.54        4.2331        0.0003       10.0201       10.0204       5.787310       0.03714
  24     48.69        4.2332        0.0003        9.9820        9.9823       5.749087       0.03956
  23     57.69        4.2334        0.0004        9.9384        9.9388       5.705480       0.04087
  22     68.43        4.2336        0.0005        9.8858        9.8862       5.652651       0.04153
  21     81.20        4.2339        0.0006        9.8234        9.8240       5.590123       0.04132
  20     96.49        4.2343        0.0007        9.7518        9.7524       5.518113       0.03974
  19     114.6        4.2349        0.0008        9.6719        9.6727       5.437792       0.03750
  18     136.5        4.2357        0.0009        9.5858        9.5867       5.350975       0.03338
  17     162.9        4.2369        0.0011        9.4940        9.4951       5.258212       0.02965
  16     196.4        4.2387        0.0013        9.3883        9.3896       5.150835       0.02703
  15     218.7        4.2402        0.0014        9.3229        9.3244       5.084152       0.02532
  14     243.0        4.2421        0.0016        9.2520        9.2536       5.011426       0.02522
  13     269.0        4.2448        0.0017        9.1717        9.1734       4.928611       0.02686
  12     297.5        4.2486        0.0019        9.0763        9.0782       4.829596       0.02937
  11     328.5        4.2536        0.0021        8.9650        8.9671       4.713472       0.03157
  10     361.9        4.2600        0.0023        8.8349        8.8372       4.577152       0.03449
   9     398.1        4.2684        0.0025        8.6820        8.6845       4.416063       0.03753
   8     437.6        4.2793        0.0027        8.5028        8.5055       4.226180       0.04060
   7     480.5        4.2934        0.0029        8.2948        8.2977       4.004348       0.04357
   6     533.0        4.3146        0.0031        8.0209        8.0240       3.709396       0.04745
   5     589.8        4.3439        0.0034        7.7063        7.7097       3.365826       0.05100
   4     651.6        4.3865        0.0036        7.3412        7.3448       2.958378       0.05572
   3     718.7        4.4490        0.0038        6.9387        6.9425       2.493470       0.05843
   2     792.3        4.5438        0.0040        6.5066        6.5106       1.966832       0.06040
   1     891.5        4.7410        0.0042        5.9361        5.9403       1.199301       0.06531
   0    1013.0        5.1397        0.0044        5.3025        5.3069       0.167167       0.07167



 Wavenumbers:  5150. -  6150. cm-1, ATM      1
 LEVEL PRESSURE   UPWARD FLUX   DIFDOWN FLUX  DIRDOWN FLUX  DOWNWARD FLUX   NET FLUX    HEATING RATE
          mb          W/m2          W/m2          W/m2        W/m2          W/m2       degree/day
  51    .06700       10.8099        0.0000       25.5798       25.5798      14.769959       0.00000
  50    .07753       10.8099        0.0000       25.5798       25.5798      14.769920       0.03160
  49    .09103       10.8099        0.0000       25.5797       25.5797      14.769869       0.03209
  48    0.1069       10.8099        0.0000       25.5797       25.5797      14.769807       0.03260
  47    0.1255       10.8099        0.0000       25.5796       25.5796      14.769734       0.03310
  46    0.1487       10.8099        0.0000       25.5795       25.5795      14.769639       0.03487
  45    0.1794       10.8099        0.0000       25.5794       25.5794      14.769503       0.03711
  44    0.2165       10.8099        0.0000       25.5792       25.5792      14.769338       0.03767
  43    0.2613       10.8099        0.0000       25.5790       25.5790      14.769135       0.03825
  42    0.3336       10.8099        0.0000       25.5786       25.5786      14.768788       0.04042
  41    0.4307       10.8099        0.0000       25.5782       25.5782      14.768317       0.04096
  40    0.5894       10.8099        0.0000       25.5774       25.5774      14.767528       0.04197
  39     1.339       10.8098        0.0000       25.5735       25.5736      14.763726       0.04280
  38     1.782       10.8098        0.0001       25.5713       25.5714      14.761512       0.04215
  37     2.292       10.8098        0.0001       25.5688       25.5688      14.759007       0.04150
  36     2.964       10.8098        0.0001       25.5656       25.5657      14.755823       0.03996
  35     3.853       10.8098        0.0001       25.5615       25.5616      14.751777       0.03840
  34     5.035       10.8098        0.0002       25.5562       25.5564      14.746565       0.03723
  33     6.613       10.8098        0.0002       25.5494       25.5496      14.739804       0.03615
  32     8.786       10.8098        0.0003       25.5406       25.5409      14.731041       0.03403
  31     11.80       10.8099        0.0004       25.5287       25.5290      14.719188       0.03319
  30     15.07       10.8099        0.0005       25.5167       25.5172      14.707298       0.03070
  29     18.79       10.8099        0.0006       25.5042       25.5048      14.694866       0.02819
  28     23.16       10.8099        0.0007       25.4907       25.4914      14.681469       0.02590
  27     28.12       10.8100        0.0009       25.4764       25.4773      14.667339       0.02402
  26     33.73       10.8101        0.0011       25.4620       25.4631      14.653011       0.02154
  25     40.54       10.8102        0.0013       25.4463       25.4475      14.637331       0.01945
  24     48.69       10.8104        0.0015       25.4294       25.4309      14.620521       0.01740
  23     57.69       10.8106        0.0018       25.4126       25.4144      14.603814       0.01566
  22     68.43       10.8109        0.0022       25.3944       25.3966      14.585653       0.01428
  21     81.20       10.8113        0.0026       25.3744       25.3770      14.565649       0.01322
  20     96.49       10.8119        0.0031       25.3519       25.3550      14.543148       0.01242
  19     114.6       10.8125        0.0036       25.3262       25.3298      14.517326       0.01206
  18     136.5       10.8133        0.0043       25.2962       25.3005      14.487254       0.01156
  17     162.9       10.8142        0.0051       25.2521       25.2572      14.442999       0.01415
  16     196.4       10.8156        0.0062       25.1593       25.1655      14.349904       0.02343
  15     218.7       10.8165        0.0068       25.0159       25.0228      14.206259       0.05454
  14     243.0       10.8177        0.0075       24.7089       24.7164      13.898792       0.10664
  13     269.0       10.8191        0.0082       24.1619       24.1701      13.350992       0.17770
  12     297.5       10.8209        0.0089       23.4544       23.4633      12.642362       0.21017
  11     328.5       10.8232        0.0096       22.7355       22.7451      11.921845       0.19591
  10     361.9       10.8261        0.0103       21.9224       21.9327      11.106633       0.20626
   9     398.1       10.8297        0.0110       20.9939       21.0049      10.175177       0.21701
   8     437.6       10.8344        0.0116       19.9833       19.9950       9.160553       0.21693
   7     480.5       10.8405        0.0123       18.9483       18.9606       8.120101       0.20434
   6     533.0       10.8500        0.0130       17.7796       17.7926       6.942613       0.18942
   5     589.8       10.8642        0.0138       16.6726       16.6863       5.822133       0.16632
   4     651.6       10.8880        0.0145       15.6343       15.6488       4.760815       0.14514
   3     718.7       10.9281        0.0154       14.7738       14.7892       3.861062       0.11307
   2     792.3       10.9997        0.0164       14.0291       14.0455       3.045757       0.09351
   1     891.5       11.1794        0.0176       13.0822       13.0998       1.920402       0.09576
   0    1013.0       11.6775        0.0189       12.0384       12.0573       0.379804       0.10697



 Wavenumbers:  6150. -  7700. cm-1, ATM      1
 LEVEL PRESSURE   UPWARD FLUX   DIFDOWN FLUX  DIRDOWN FLUX  DOWNWARD FLUX   NET FLUX    HEATING RATE
          mb          W/m2          W/m2          W/m2        W/m2          W/m2       degree/day
  51    .06700       15.9072        0.0000       47.3109       47.3109      31.403626       0.00000
  50    .07753       15.9072        0.0000       47.3108       47.3108      31.403569       0.04553
  49    .09103       15.9072        0.0000       47.3107       47.3107      31.403496       0.04583
  48    0.1069       15.9072        0.0000       47.3106       47.3106      31.403409       0.04614
  47    0.1255       15.9072        0.0000       47.3105       47.3105      31.403307       0.04645
  46    0.1487       15.9072        0.0000       47.3104       47.3104      31.403174       0.04852
  45    0.1794       15.9072        0.0000       47.3102       47.3102      31.402987       0.05127
  44    0.2165       15.9072        0.0000       47.3100       47.3100      31.402760       0.05167
  43    0.2613       15.9072        0.0000       47.3097       47.3097      31.402483       0.05210
  42    0.3336       15.9072        0.0000       47.3092       47.3092      31.402014       0.05471
  41    0.4307       15.9072        0.0000       47.3085       47.3086      31.401379       0.05521
  40    0.5894       15.9072        0.0001       47.3074       47.3075      31.400320       0.05633
  39     1.339       15.9071        0.0002       47.3022       47.3024      31.395228       0.05733
  38     1.782       15.9071        0.0002       47.2991       47.2994      31.392257       0.05655
  37     2.292       15.9071        0.0003       47.2956       47.2959      31.388882       0.05591
  36     2.964       15.9070        0.0004       47.2912       47.2916      31.384563       0.05421
  35     3.853       15.9069        0.0005       47.2855       47.2860      31.379029       0.05252
  34     5.035       15.9068        0.0006       47.2780       47.2787      31.371848       0.05129
  33     6.613       15.9067        0.0008       47.2683       47.2692      31.362461       0.05019
  32     8.786       15.9065        0.0011       47.2556       47.2567      31.350161       0.04777
  31     11.80       15.9063        0.0015       47.2380       47.2396      31.333258       0.04732
  30     15.07       15.9060        0.0019       47.2201       47.2220      31.315971       0.04463
  29     18.79       15.9057        0.0024       47.2008       47.2032      31.297492       0.04190
  28     23.16       15.9054        0.0030       47.1795       47.1825      31.277102       0.03943
  27     28.12       15.9050        0.0036       47.1565       47.1601      31.255109       0.03739
  26     33.73       15.9046        0.0043       47.1324       47.1367      31.232188       0.03446
  25     40.54       15.9040        0.0052       47.1054       47.1106      31.206553       0.03180
  24     48.69       15.9034        0.0062       47.0754       47.0817      31.178301       0.02924
  23     57.69       15.9027        0.0074       47.0449       47.0523      31.149681       0.02683
  22     68.43       15.9018        0.0088       47.0110       47.0198      31.117947       0.02495
  21     81.20       15.9008        0.0104       46.9729       46.9833      31.082457       0.02345
  20     96.49       15.8996        0.0123       46.9294       46.9417      31.042122       0.02226
  19     114.6       15.8982        0.0147       46.8790       46.8937      30.995497       0.02177
  18     136.5       15.8965        0.0174       46.8200       46.8374      30.940887       0.02100
  17     162.9       15.8945        0.0207       46.7361       46.7568      30.862288       0.02512
  16     196.4       15.8920        0.0249       46.5703       46.5951      30.703150       0.04006
  15     218.7       15.8904        0.0276       46.3473       46.3749      30.484470       0.08302
  14     243.0       15.8889        0.0305       45.9299       45.9603      30.071413       0.14326
  13     269.0       15.8876        0.0333       45.1708       45.2041      29.316504       0.24489
  12     297.5       15.8868        0.0362       44.0115       44.0476      28.160796       0.34277
  11     328.5       15.8867        0.0390       42.7242       42.7632      26.876529       0.34919
  10     361.9       15.8876        0.0419       41.3539       41.3959      25.508240       0.34619
   9     398.1       15.8901        0.0448       39.7953       39.8401      23.949917       0.36305
   8     437.6       15.8952        0.0475       37.9948       38.0423      22.147059       0.38546
   7     480.5       15.9039        0.0501       36.0647       36.1148      20.210901       0.38025
   6     533.0       15.9209        0.0528       33.7773       33.8301      17.909221       0.37027
   5     589.8       15.9512        0.0554       31.4082       31.4636      15.512371       0.35577
   4     651.6       16.0091        0.0575       28.8834       28.9409      12.931857       0.35289
   3     718.7       16.1137        0.0595       26.4104       26.4698      10.356122       0.32370
   2     792.3       16.3075        0.0611       24.0056       24.0667       7.759186       0.29784
   1     891.5       16.7967        0.0631       21.2348       21.2979       4.501120       0.27725
   0    1013.0       18.0919        0.0653       18.6150       18.6803       0.588430       0.27168



 Wavenumbers:  7700. -  8050. cm-1, ATM      1
 LEVEL PRESSURE   UPWARD FLUX   DIFDOWN FLUX  DIRDOWN FLUX  DOWNWARD FLUX   NET FLUX    HEATING RATE
          mb          W/m2          W/m2          W/m2        W/m2          W/m2       degree/day
  51    .06700        8.5089        0.0000       11.1810       11.1810       2.672018       0.00000
  50    .07753        8.5090        0.0000       11.1809       11.1809       2.671995       0.01870
  49    .09103        8.5090        0.0000       11.1809       11.1809       2.671965       0.01833
  48    0.1069        8.5090        0.0000       11.1809       11.1809       2.671932       0.01794
  47    0.1255        8.5090        0.0000       11.1809       11.1809       2.671893       0.01756
  46    0.1487        8.5090        0.0000       11.1808       11.1808       2.671844       0.01782
  45    0.1794        8.5090        0.0000       11.1808       11.1808       2.671777       0.01834
  44    0.2165        8.5090        0.0000       11.1807       11.1807       2.671698       0.01799
  43    0.2613        8.5090        0.0000       11.1806       11.1806       2.671605       0.01765
  42    0.3336        8.5091        0.0000       11.1805       11.1805       2.671450       0.01806
  41    0.4307        8.5091        0.0000       11.1803       11.1804       2.671244       0.01786
  40    0.5894        8.5092        0.0000       11.1801       11.1801       2.670909       0.01784
  39     1.339        8.5096        0.0001       11.1788       11.1789       2.669321       0.01787
  38     1.782        8.5098        0.0001       11.1781       11.1782       2.668389       0.01775
  37     2.292        8.5100        0.0001       11.1772       11.1773       2.667309       0.01788
  36     2.964        8.5104        0.0002       11.1761       11.1763       2.665892       0.01779
  35     3.853        8.5108        0.0002       11.1746       11.1748       2.664020       0.01777
  34     5.035        8.5114        0.0003       11.1726       11.1729       2.661532       0.01777
  33     6.613        8.5122        0.0004       11.1700       11.1704       2.658210       0.01776
  32     8.786        8.5132        0.0005       11.1664       11.1669       2.653733       0.01738
  31     11.80        8.5147        0.0007       11.1613       11.1620       2.647333       0.01792
  30     15.07        8.5163        0.0009       11.1558       11.1568       2.640465       0.01773
  29     18.79        8.5181        0.0012       11.1497       11.1508       2.632712       0.01758
  28     23.16        8.5203        0.0014       11.1425       11.1439       2.623666       0.01749
  27     28.12        8.5227        0.0017       11.1343       11.1360       2.613335       0.01756
  26     33.73        8.5255        0.0021       11.1252       11.1273       2.601791       0.01736
  25     40.54        8.5288        0.0025       11.1142       11.1167       2.587870       0.01727
  24     48.69        8.5329        0.0030       11.1010       11.1040       2.571128       0.01733
  23     57.69        8.5373        0.0035       11.0866       11.0901       2.552790       0.01719
  22     68.43        8.5427        0.0042       11.0695       11.0737       2.531022       0.01711
  21     81.20        8.5491        0.0050       11.0494       11.0543       2.505193       0.01707
  20     96.49        8.5569        0.0059       11.0255       11.0314       2.474563       0.01691
  19     114.6        8.5661        0.0070       10.9975       11.0045       2.438401       0.01689
  18     136.5        8.5772        0.0083       10.9648       10.9731       2.395819       0.01637
  17     162.9        8.5906        0.0098       10.9263       10.9361       2.345486       0.01609
  16     196.4        8.6083        0.0118       10.8773       10.8891       2.280779       0.01629
  15     218.7        8.6201        0.0132       10.8455       10.8587       2.238574       0.01602
  14     243.0        8.6331        0.0146       10.8114       10.8260       2.192889       0.01585
  13     269.0        8.6475        0.0161       10.7749       10.7910       2.143515       0.01602
  12     297.5        8.6633        0.0178       10.7357       10.7535       2.090167       0.01582
  11     328.5        8.6809        0.0196       10.6937       10.7133       2.032465       0.01569
  10     361.9        8.7003        0.0216       10.6489       10.6704       1.970106       0.01578
   9     398.1        8.7219        0.0236       10.6008       10.6244       1.902484       0.01575
   8     437.6        8.7461        0.0259       10.5491       10.5750       1.828835       0.01575
   7     480.5        8.7733        0.0283       10.4934       10.5217       1.748456       0.01579
   6     533.0        8.8086        0.0313       10.4243       10.4555       1.646919       0.01633
   5     589.8        8.8498        0.0344       10.3479       10.3823       1.532573       0.01697
   4     651.6        8.8990        0.0378       10.2613       10.2992       1.400200       0.01810
   3     718.7        8.9591        0.0415       10.1618       10.2032       1.244134       0.01961
   2     792.3        9.0350        0.0453       10.0439       10.0892       1.054208       0.02178
   1     891.5        9.1621        0.0504        9.8626        9.9130       0.750906       0.02581
   0    1013.0        9.3621        0.0563        9.6103        9.6666       0.304498       0.03100



 Wavenumbers:  8050. - 12850. cm-1, ATM      1
 LEVEL PRESSURE   UPWARD FLUX   DIFDOWN FLUX  DIRDOWN FLUX  DOWNWARD FLUX   NET FLUX    HEATING RATE
          mb          W/m2          W/m2          W/m2        W/m2          W/m2       degree/day
  51    .06700      103.2562        0.0000      156.5418      156.5418      53.285571       0.00000
  50    .07753      103.2562        0.0000      156.5417      156.5417      53.285571      -0.00000
  49    .09103      103.2562        0.0001      156.5417      156.5417      53.285571      -0.00000
  48    0.1069      103.2561        0.0001      156.5416      156.5417      53.285571       0.00000
  47    0.1255      103.2561        0.0002      156.5415      156.5417      53.285571      -0.00000
  46    0.1487      103.2561        0.0002      156.5414      156.5417      53.285571      -0.00000
  45    0.1794      103.2561        0.0003      156.5413      156.5416      53.285571       0.00000
  44    0.2165      103.2560        0.0004      156.5412      156.5416      53.285571      -0.00000
  43    0.2613      103.2560        0.0006      156.5410      156.5416      53.285571       0.00000
  42    0.3336      103.2559        0.0008      156.5407      156.5415      53.285571      -0.00000
  41    0.4307      103.2558        0.0011      156.5403      156.5414      53.285571      -0.00000
  40    0.5894      103.2556        0.0015      156.5397      156.5412      53.285571       0.00000
  39     1.339      103.2549        0.0037      156.5367      156.5405      53.285571      -0.00000
  38     1.782      103.2544        0.0050      156.5350      156.5400      53.285571      -0.00000
  37     2.292      103.2539        0.0065      156.5330      156.5395      53.285571       0.00000
  36     2.964      103.2532        0.0085      156.5303      156.5388      53.285571       0.00000
  35     3.853      103.2523        0.0111      156.5268      156.5379      53.285571      -0.00000
  34     5.035      103.2511        0.0145      156.5222      156.5367      53.285571       0.00000
  33     6.613      103.2495        0.0191      156.5160      156.5351      53.285571      -0.00000
  32     8.786      103.2474        0.0253      156.5076      156.5330      53.285571       0.00000
  31     11.80      103.2443        0.0342      156.4957      156.5299      53.285571       0.00000
  30     15.07      103.2410        0.0438      156.4828      156.5266      53.285571       0.00000
  29     18.79      103.2372        0.0546      156.4682      156.5228      53.285571       0.00000
  28     23.16      103.2328        0.0672      156.4512      156.5184      53.285571      -0.00000
  27     28.12      103.2278        0.0817      156.4317      156.5134      53.285571      -0.00000
  26     33.73      103.2222        0.0979      156.4099      156.5078      53.285571       0.00000
  25     40.54      103.2154        0.1175      156.3834      156.5009      53.285571       0.00000
  24     48.69      103.2071        0.1412      156.3515      156.4927      53.285571       0.00000
  23     57.69      103.1981        0.1672      156.3164      156.4837      53.285571       0.00000
  22     68.43      103.1873        0.1983      156.2746      156.4729      53.285571      -0.00000
  21     81.20      103.1744        0.2354      156.2246      156.4600      53.285571      -0.00000
  20     96.49      103.1590        0.2797      156.1649      156.4446      53.285571       0.00000
  19     114.6      103.1409        0.3323      156.0879      156.4202      53.279342       0.00291
  18     136.5      103.1194        0.3948      155.9962      156.3910      53.271617       0.00297
  17     162.9      103.0937        0.4695      155.8831      156.3525      53.258801       0.00410
  16     196.4      103.0605        0.5665      155.7199      156.2865      53.225976       0.00826
  15     218.7      103.0388        0.6304      155.5733      156.2037      53.164848       0.02321
  14     243.0      103.0158        0.6998      155.3367      156.0364      53.020670       0.05001
  13     269.0      102.9920        0.7748      154.9514      155.7262      52.734240       0.09292
  12     297.5      102.9688        0.8556      154.3896      155.2453      52.276492       0.13576
  11     328.5      102.9468        0.9428      153.7151      154.6579      51.711089       0.15373
  10     361.9      102.9278        1.0364      152.9087      153.9451      51.017303       0.17553
   9     398.1      102.9145        1.1365      151.8986      153.0351      50.120603       0.20891
   8     437.6      102.9116        1.2431      150.6031      151.8462      48.934580       0.25358
   7     480.5      102.9248        1.3558      149.0014      150.3572      47.432386       0.29503
   6     533.0      102.9717        1.4923      146.7375      148.2299      45.258149       0.34977
   5     589.8      103.0783        1.6355      143.8730      145.5085      42.430181       0.41976
   4     651.6      103.3101        1.7829      140.0955      141.8784      38.568295       0.52812
   3     718.7      103.7515        1.9330      135.5278      137.4608      33.709287       0.61064
   2     792.3      104.5882        2.0825      130.0690      132.1515      27.563251       0.70488
   1     891.5      106.6868        2.2646      122.1273      124.3919      17.705071       0.83888
   0    1013.0      111.7772        2.4615      112.9512      115.4127       3.635500       0.97692



 Wavenumbers: 12850. - 16000. cm-1, ATM      1
 LEVEL PRESSURE   UPWARD FLUX   DIFDOWN FLUX  DIRDOWN FLUX  DOWNWARD FLUX   NET FLUX    HEATING RATE
          mb          W/m2          W/m2          W/m2        W/m2          W/m2       degree/day
  51    .06700       44.2145        0.0000       98.0872       98.0872      53.872747       0.00000
  50    .07753       44.2145        0.0001       98.0864       98.0864      53.871964       0.62816
  49    .09103       44.2144        0.0001       98.0853       98.0854      53.870981       0.61424
  48    0.1069       44.2144        0.0002       98.0841       98.0843      53.869854       0.59991
  47    0.1255       44.2144        0.0003       98.0826       98.0830      53.868562       0.58573
  46    0.1487       44.2144        0.0004       98.0809       98.0813      53.866936       0.59280
  45    0.1794       44.2143        0.0006       98.0784       98.0791      53.864729       0.60567
  44    0.2165       44.2143        0.0008       98.0756       98.0764      53.862143       0.58846
  43    0.2613       44.2143        0.0011       98.0723       98.0734      53.859112       0.57127
  42    0.3336       44.2143        0.0015       98.0670       98.0685      53.854189       0.57401
  41    0.4307       44.2143        0.0020       98.0602       98.0622      53.847857       0.55051
  40    0.5894       44.2145        0.0028       98.0496       98.0524      53.837962       0.52620
  39     1.339       44.2168        0.0069       98.0043       98.0113      53.794481       0.48953
  38     1.782       44.2193        0.0093       97.9793       97.9886      53.769258       0.48019
  37     2.292       44.2234        0.0121       97.9498       97.9618      53.738447       0.51031
  36     2.964       44.2304        0.0157       97.9088       97.9245      53.694064       0.55715
  35     3.853       44.2422        0.0205       97.8503       97.8708      53.628660       0.62070
  34     5.035       44.2601        0.0268       97.7680       97.7948      53.534739       0.67093
  33     6.613       44.2852        0.0353       97.6562       97.6915      53.406269       0.68680
  32     8.786       44.3179        0.0467       97.5107       97.5574      53.239554       0.64746
  31     11.80       44.3598        0.0630       97.3179       97.3809      53.021076       0.61167
  30     15.07       44.3994        0.0805       97.1283       97.2089      52.809432       0.54642
  29     18.79       44.4393        0.1003       96.9300       97.0303      52.591034       0.49517
  28     23.16       44.4801        0.1233       96.7166       96.8399      52.359755       0.44722
  27     28.12       44.5202        0.1496       96.4935       96.6431      52.122878       0.40267
  26     33.73       44.5556        0.1790       96.2731       96.4521      51.896494       0.34037
  25     40.54       44.5874        0.2145       96.0408       96.2553      51.667887       0.28361
  24     48.69       44.6151        0.2573       95.7946       96.0519      51.436780       0.23916
  23     57.69       44.6352        0.3043       95.5573       95.8616      51.226371       0.19723
  22     68.43       44.6480        0.3603       95.3106       95.6709      51.022912       0.15995
  21     81.20       44.6479        0.4270       95.0643       95.4913      50.843485       0.11856
  20     96.49       44.6336        0.5066       94.8153       95.3218      50.688284       0.08566
  19     114.6       44.6171        0.6018       94.5411       95.1428      50.525675       0.07593
  18     136.5       44.5912        0.7145       94.2320       94.9465      50.355370       0.06549
  17     162.9       44.5543        0.8486       93.8753       94.7240      50.169718       0.05934
  16     196.4       44.4937        1.0225       93.4347       94.4571      49.963393       0.05193
  15     218.7       44.4494        1.1365       93.1513       94.2878      49.838385       0.04746
  14     243.0       44.3992        1.2604       92.8439       94.1043      49.705127       0.04622
  13     269.0       44.3429        1.3945       92.5111       93.9057      49.562765       0.04618
  12     297.5       44.2805        1.5393       92.1495       93.6888      49.408327       0.04580
  11     328.5       44.2128        1.6957       91.7554       93.4511      49.238278       0.04624
  10     361.9       44.1400        1.8638       91.3262       93.1900      49.049990       0.04764
   9     398.1       44.0625        2.0445       90.8575       92.9020      48.839511       0.04904
   8     437.6       43.9814        2.2381       90.3418       92.5799      48.598523       0.05152
   7     480.5       43.8979        2.4453       89.7728       92.2181      48.320230       0.05466
   6     533.0       43.8018        2.6995       89.0428       91.7423      47.940550       0.06108
   5     589.8       43.7113        2.9720       88.2038       91.1758      47.464520       0.07066
   4     651.6       43.6416        3.2623       87.1979       90.4602      46.818584       0.08833
   3     718.7       43.6025        3.5688       86.0161       89.5849      45.982385       0.10509
   2     792.3       43.6266        3.8880       84.5970       88.4850      44.858375       0.12891
   1     891.5       43.8155        4.3007       82.4374       86.7382      42.922651       0.16472
   0    1013.0       44.3548        4.7707       79.6182       84.3889      40.034093       0.20057



 Wavenumbers: 16000. - 22650. cm-1, ATM      1
 LEVEL PRESSURE   UPWARD FLUX   DIFDOWN FLUX  DIRDOWN FLUX  DOWNWARD FLUX   NET FLUX    HEATING RATE
          mb          W/m2          W/m2          W/m2        W/m2          W/m2       degree/day
  51    .06700       80.1709        0.0000      156.3892      156.3892      76.218327       0.00000
  50    .07753       80.1708        0.0003      156.3887      156.3890      76.218207       0.09558
  49    .09103       80.1707        0.0007      156.3879      156.3887      76.218034       0.10841
  48    0.1069       80.1705        0.0012      156.3871      156.3883      76.217802       0.12362
  47    0.1255       80.1703        0.0018      156.3861      156.3878      76.217491       0.14091
  46    0.1487       80.1702        0.0025      156.3847      156.3872      76.217033       0.16698
  45    0.1794       80.1699        0.0034      156.3828      156.3862      76.216317       0.19660
  44    0.2165       80.1697        0.0045      156.3805      156.3850      76.215345       0.22096
  43    0.2613       80.1695        0.0059      156.3776      156.3835      76.214027       0.24841
  42    0.3336       80.1692        0.0081      156.3726      156.3807      76.211522       0.29212
  41    0.4307       80.1690        0.0110      156.3657      156.3767      76.207745       0.32837
  40    0.5894       80.1689        0.0157      156.3537      156.3694      76.200543       0.38303
  39     1.339       80.1744        0.0383      156.2834      156.3217      76.147333       0.59905
  38     1.782       80.1819        0.0515      156.2324      156.2839      76.102009       0.86288
  37     2.292       80.1945        0.0668      156.1641      156.2309      76.036411       1.08648
  36     2.964       80.2173        0.0869      156.0605      156.1474      75.930160       1.33377
  35     3.853       80.2559        0.1135      155.9041      156.0175      75.761612       1.59955
  34     5.035       80.3158        0.1487      155.6774      155.8260      75.510256       1.79559
  33     6.613       80.4001        0.1956      155.3656      155.5612      75.161148       1.86633
  32     8.786       80.5092        0.2588      154.9577      155.2164      74.707237       1.76283
  31     11.80       80.6486        0.3490      154.4153      154.7642      74.115614       1.65636
  30     15.07       80.7788        0.4456      153.8804      154.3259      73.547156       1.46765
  29     18.79       80.9083        0.5545      153.3191      153.8735      72.965227       1.31941
  28     23.16       81.0394        0.6814      152.7126      153.3939      72.354533       1.18088
  27     28.12       81.1656        0.8261      152.0755      152.9016      71.736003       1.05146
  26     33.73       81.2730        0.9879      151.4409      152.4288      71.155790       0.87237
  25     40.54       81.3635        1.1829      150.7637      151.9466      70.583097       0.71049
  24     48.69       81.4345        1.4176      150.0338      151.4515      70.016913       0.58591
  23     57.69       81.4758        1.6748      149.3151      150.9900      69.514220       0.47120
  22     68.43       81.4852        1.9805      148.5476      150.5281      69.042975       0.37046
  21     81.20       81.4420        2.3441      147.7517      150.0957      68.653682       0.25724
  20     96.49       81.3403        2.7763      146.9127      149.6889      68.348597       0.16838
  19     114.6       81.1938        3.2873      145.9763      149.2636      68.069767       0.13019
  18     136.5       81.0026        3.8897      144.9088      148.7985      67.795880       0.10532
  17     162.9       80.7589        4.6024      143.6785      148.2809      67.521991       0.08755
  16     196.4       80.4087        5.5198      142.1651      147.6848      67.276146       0.06188
  15     218.7       80.1661        6.1180      141.2033      147.3214      67.155242       0.04590
  14     243.0       79.8966        6.7644      140.1753      146.9397      67.043094       0.03890
  13     269.0       79.5985        7.4603      139.0797      146.5400      66.941566       0.03294
  12     297.5       79.2704        8.2073      137.9141      146.1213      66.850910       0.02689
  11     328.5       78.9131        9.0083      136.6676      145.6759      66.762774       0.02396
  10     361.9       78.5256        9.8637      135.3392      145.2029      66.677249       0.02164
   9     398.1       78.1061       10.7763      133.9235      144.6997      66.593613       0.01949
   8     437.6       77.6540       11.7471      132.4163      144.1633      66.509376       0.01801
   7     480.5       77.1676       12.7772      130.8147      143.5919      66.424285       0.01671
   6     533.0       76.5677       14.0306      128.8599      142.8906      66.322841       0.01632
   5     589.8       75.9213       15.3638      126.7679      142.1318      66.210493       0.01668
   4     651.6       75.2295       16.7766      124.5274      141.3041      66.074611       0.01858
   3     718.7       74.4929       18.2686      122.1285      140.3971      65.904209       0.02141
   2     792.3       73.7183       19.8361      119.5548      139.3909      65.672686       0.02655
   1     891.5       72.7084       21.8996      116.0566      137.9562      65.247817       0.03615
   0    1013.0       71.5540       24.2972      111.8404      136.1377      64.583713       0.04611



 Wavenumbers: 22650. - 29000. cm-1, ATM      1
 LEVEL PRESSURE   UPWARD FLUX   DIFDOWN FLUX  DIRDOWN FLUX  DOWNWARD FLUX   NET FLUX    HEATING RATE
          mb          W/m2          W/m2          W/m2        W/m2          W/m2       degree/day
  51    .06700       36.5583        0.0000       59.0156       59.0156      22.457295       0.00000
  50    .07753       36.5582        0.0004       59.0151       59.0155      22.457295       0.00000
  49    .09103       36.5580        0.0009       59.0144       59.0153      22.457295      -0.00000
  48    0.1069       36.5577        0.0015       59.0136       59.0150      22.457295       0.00000
  47    0.1255       36.5575        0.0021       59.0127       59.0148      22.457295      -0.00000
  46    0.1487       36.5571        0.0029       59.0115       59.0144      22.457295      -0.00000
  45    0.1794       36.5567        0.0041       59.0099       59.0140      22.457295       0.00000
  44    0.2165       36.5561        0.0054       59.0080       59.0134      22.457295       0.00000
  43    0.2613       36.5555        0.0070       59.0058       59.0128      22.457295       0.00000
  42    0.3336       36.5545        0.0096       59.0022       59.0117      22.457295       0.00000
  41    0.4307       36.5531        0.0131       58.9973       59.0104      22.457295      -0.00000
  40    0.5894       36.5508        0.0187       58.9894       59.0081      22.457295       0.00000
  39     1.339       36.5400        0.0455       58.9518       58.9973      22.457295      -0.00000
  38     1.782       36.5336        0.0612       58.9297       58.9909      22.457295       0.00000
  37     2.292       36.5263        0.0794       58.9042       58.9836      22.457295      -0.00000
  36     2.964       36.5167        0.1033       58.8706       58.9740      22.457295       0.00000
  35     3.853       36.5039        0.1349       58.8264       58.9612      22.457295       0.00000
  34     5.035       36.4870        0.1768       58.7676       58.9443      22.457295       0.00000
  33     6.613       36.4645        0.2327       58.6891       58.9217      22.457295       0.00000
  32     8.786       36.4340        0.3079       58.5834       58.8913      22.457295       0.00000
  31     11.80       36.3905        0.4153       58.4324       58.8478      22.457295       0.00000
  30     15.07       36.3438        0.5304       58.2706       58.8011      22.457295       0.00000
  29     18.79       36.2911        0.6601       58.0882       58.7484      22.457295       0.00000
  28     23.16       36.2295        0.8111       57.8757       58.6868      22.457295      -0.00000
  27     28.12       36.1592        0.9832       57.6333       58.6165      22.457295       0.00000
  26     33.73       36.0806        1.1749       57.3631       58.5379      22.457295       0.00000
  25     40.54       35.9859        1.4053       57.0379       58.4431      22.457295       0.00000
  24     48.69       35.8718        1.6812       56.6479       58.3291      22.457295       0.00000
  23     57.69       35.7469        1.9821       56.2221       58.2042      22.457295      -0.00000
  22     68.43       35.5985        2.3372       55.7186       58.0558      22.457295       0.00000
  21     81.20       35.4224        2.7558       55.1239       57.8797      22.457295       0.00000
  20     96.49       35.2136        3.2481       54.4228       57.6709      22.457295      -0.00000
  19     114.6       34.9671        3.8234       53.6010       57.4244      22.457295      -0.00000
  18     136.5       34.6769        4.4924       52.6418       57.1341      22.457295       0.00000
  17     162.9       34.3341        5.2710       51.5203       56.7914      22.457295       0.00000
  16     196.4       33.8941        6.2519       50.0994       56.3514      22.457295       0.00000
  15     218.7       33.6078        6.8788       49.1863       56.0651      22.457295       0.00000
  14     243.0       33.2990        7.5450       48.2113       55.7563      22.457295       0.00000
  13     269.0       32.9670        8.2494       47.1749       55.4243      22.457295      -0.00000
  12     297.5       32.6113        8.9903       46.0783       55.0686      22.457295       0.00000
  11     328.5       32.2303        9.7681       44.9195       54.6876      22.457295      -0.00000
  10     361.9       31.8239       10.5794       43.7018       54.2812      22.457295       0.00000
   9     398.1       31.3908       11.4230       42.4250       53.8481      22.457295      -0.00000
   8     437.6       30.9303       12.2959       41.0916       53.3876      22.457295       0.00000
   7     480.5       30.4418       13.1946       39.7045       52.8991      22.457295      -0.00000
   6     533.0       29.8471       14.2502       38.0543       52.3044      22.457295       0.00000
   5     589.8       29.2138       15.3280       36.3431       51.6711      22.457295       0.00000
   4     651.6       28.5411       16.4189       34.5795       50.9984      22.457295      -0.00000
   3     718.7       27.8278       17.5149       32.7702       50.2851      22.457295       0.00000
   2     792.3       27.0734       18.6052       30.9256       49.5307      22.457295       0.00000
   1     891.5       26.0687       19.9482       28.5778       48.5260      22.457295       0.00000
   0    1013.0       24.8810       21.3718       25.9665       47.3383      22.457295       0.00000



 Wavenumbers: 29000. - 38000. cm-1, ATM      1
 LEVEL PRESSURE   UPWARD FLUX   DIFDOWN FLUX  DIRDOWN FLUX  DOWNWARD FLUX   NET FLUX    HEATING RATE
          mb          W/m2          W/m2          W/m2        W/m2          W/m2       degree/day
  51    .06700        6.1024        0.0000       20.8114       20.8114      14.708980       0.00000
  50    .07753        6.1022        0.0003       20.8070       20.8073      14.705176       3.04878
  49    .09103        6.1019        0.0007       20.8009       20.8016      14.699644       3.45767
  48    0.1069        6.1016        0.0011       20.7928       20.7939      14.692241       3.94061
  47    0.1255        6.1013        0.0016       20.7820       20.7837      14.682346       4.48608
  46    0.1487        6.1009        0.0022       20.7665       20.7687      14.667797       5.30331
  45    0.1794        6.1004        0.0031       20.7424       20.7455      14.645154       6.21591
  44    0.2165        6.0998        0.0041       20.7103       20.7144      14.614662       6.93639
  43    0.2613        6.0991        0.0053       20.6675       20.6728      14.573710       7.71929
  42    0.3336        6.0980        0.0073       20.5880       20.5952      14.497232       8.91661
  41    0.4307        6.0966        0.0098       20.4722       20.4820      14.385407       9.72296
  40    0.5894        6.0946        0.0139       20.2637       20.2776      14.182971      10.76525
  39     1.339        6.0881        0.0311       19.0984       19.1295      13.041381      12.85224
  38     1.782        6.0863        0.0400       18.4394       18.4794      12.393050      12.34316
  37     2.292        6.0860        0.0495       17.7714       17.8209      11.734968      10.89955
  36     2.964        6.0879        0.0612       17.0421       17.1033      11.015446       9.03218
  35     3.853        6.0937        0.0757       16.2678       16.3436      10.249904       7.26513
  34     5.035        6.1046        0.0941       15.4803       15.5744       9.469735       5.57320
  33     6.613        6.1214        0.1174       14.7157       14.8331       8.711664       4.05265
  32     8.786        6.1437        0.1479       13.9936       14.1415       7.997716       2.77272
  31     11.80        6.1723        0.1902       13.2835       13.4737       7.301488       1.94922
  30     15.07        6.1989        0.2339       12.7394       12.9733       6.774312       1.36107
  29     18.79        6.2258        0.2822       12.2666       12.5488       6.323034       1.02319
  28     23.16        6.2533        0.3369       11.8300       12.1669       5.913618       0.79168
  27     28.12        6.2802        0.3979       11.4279       11.8258       5.545620       0.62557
  26     33.73        6.3023        0.4650       11.0695       11.5344       5.232120       0.47136
  25     40.54        6.3193        0.5448       10.7209       11.2657       4.946436       0.35442
  24     48.69        6.3305        0.6392       10.3742       11.0134       4.682953       0.27266
  23     57.69        6.3335        0.7411       10.0549       10.7960       4.462473       0.20667
  22     68.43        6.3266        0.8600        9.7327       10.5928       4.266157       0.15433
  21     81.20        6.3025        1.0000        9.4134       10.4134       4.110876       0.10261
  20     96.49        6.2589        1.1638        9.0887       10.2525       3.993596       0.06473
  19     114.6        6.2007        1.3519        8.7388       10.0907       3.890038       0.04835
  18     136.5        6.1287        1.5654        8.3549        9.9203       3.791560       0.03787
  17     162.9        6.0416        1.8065        7.9311        9.7377       3.696119       0.03051
  16     196.4        5.9220        2.1019        7.4333        9.5352       3.613126       0.02089
  15     218.7        5.8421        2.2857        7.1295        9.4152       3.573088       0.01520
  14     243.0        5.7555        2.4759        6.8161        9.2920       3.536444       0.01271
  13     269.0        5.6620        2.6715        6.4943        9.1659       3.503851       0.01057
  12     297.5        5.5615        2.8712        6.1657        9.0369       3.475412       0.00843
  11     328.5        5.4547        3.0737        5.8295        8.9031       3.448482       0.00732
  10     361.9        5.3417        3.2762        5.4886        8.7649       3.423180       0.00640
   9     398.1        5.2224        3.4779        5.1440        8.6219       3.399517       0.00551
   8     437.6        5.0968        3.6769        4.7969        8.4739       3.377031       0.00481
   7     480.5        4.9651        3.8708        4.4504        8.3212       3.356020       0.00413
   6     533.0        4.8068        4.0840        4.0563        8.1403       3.333537       0.00362
   5     589.8        4.6405        4.2845        3.6682        7.9527       3.312239       0.00316
   4     651.6        4.4666        4.4680        3.2905        7.7585       3.291902       0.00278
   3     718.7        4.2847        4.6321        2.9252        7.5572       3.272513       0.00244
   2     792.3        4.0951        4.7727        2.5764        7.3492       3.254096       0.00211
   1     891.5        3.8460        4.9123        2.1659        7.0782       3.232205       0.00186
   0    1013.0        3.5556        5.0122        1.7526        6.7648       3.209227       0.00160



 Wavenumbers: 38000. - 50000. cm-1, ATM      1
 LEVEL PRESSURE   UPWARD FLUX   DIFDOWN FLUX  DIRDOWN FLUX  DOWNWARD FLUX   NET FLUX    HEATING RATE
          mb          W/m2          W/m2          W/m2        W/m2          W/m2       degree/day
  51    .06700        0.0061        0.0000        1.2836        1.2836       1.277518       0.00000
  50    .07753        0.0061        0.0001        1.2812        1.2812       1.275183       1.87150
  49    .09103        0.0060        0.0002        1.2777        1.2778       1.271851       2.08247
  48    0.1069        0.0059        0.0002        1.2731        1.2734       1.267473       2.33059
  47    0.1255        0.0058        0.0004        1.2672        1.2675       1.261717       2.60908
  46    0.1487        0.0057        0.0005        1.2586        1.2591       1.253391       3.03499
  45    0.1794        0.0055        0.0007        1.2455        1.2462       1.240623       3.50520
  44    0.2165        0.0054        0.0009        1.2282        1.2291       1.223697       3.85037
  43    0.2613        0.0052        0.0011        1.2054        1.2065       1.201348       4.21261
  42    0.3336        0.0049        0.0015        1.1639        1.1654       1.160524       4.75970
  41    0.4307        0.0045        0.0020        1.1051        1.1070       1.102565       5.03943
  40    0.5894        0.0039        0.0026        1.0039        1.0064       1.002524       5.32007
  39     1.339        0.0022        0.0035        0.5438        0.5473       0.545104       5.14971
  38     1.782        0.0016        0.0032        0.3635        0.3666       0.365006       3.42879
  37     2.292        0.0012        0.0027        0.2356        0.2383       0.237058       2.11916
  36     2.964        0.0009        0.0022        0.1455        0.1477       0.146786       1.13318
  35     3.853        0.0006        0.0017        0.0858        0.0875       0.086906       0.56828
  34     5.035        0.0004        0.0013        0.0488        0.0501       0.049701       0.26578
  33     6.613        0.0003        0.0010        0.0273        0.0282       0.027974       0.11615
  32     8.786        0.0002        0.0007        0.0144        0.0151       0.014928       0.05067
  31     11.80        0.0001        0.0004        0.0065        0.0070       0.006903       0.02247
  30     15.07        0.0000        0.0003        0.0031        0.0034       0.003329       0.00923
  29     18.79        0.0000        0.0002        0.0014        0.0016       0.001583       0.00396
  28     23.16        0.0000        0.0001        0.0006        0.0007       0.000720       0.00167
  27     28.12        0.0000        0.0001        0.0003        0.0003       0.000317       0.00069
  26     33.73        0.0000        0.0000        0.0001        0.0001       0.000140       0.00027
  25     40.54        0.0000        0.0000        0.0000        0.0001       0.000057       0.00010
  24     48.69        0.0000        0.0000        0.0000        0.0000       0.000021       0.00004
  23     57.69        0.0000        0.0000        0.0000        0.0000       0.000008       0.00001
  22     68.43        0.0000        0.0000        0.0000        0.0000       0.000003       0.00000
  21     81.20        0.0000        0.0000        0.0000        0.0000       0.000001       0.00000
  20     96.49        0.0000        0.0000        0.0000        0.0000       0.000000       0.00000
  19     114.6        0.0000        0.0000        0.0000        0.0000       0.000000       0.00000
  18     136.5        0.0000        0.0000        0.0000        0.0000       0.000000       0.00000
  17     162.9        0.0000        0.0000        0.0000        0.0000       0.000000       0.00000
  16     196.4        0.0000        0.0000        0.0000        0.0000       0.000000       0.00000
  15     218.7        0.0000        0.0000        0.0000        0.0000       0.000000       0.00000
  14     243.0        0.0000        0.0000        0.0000        0.0000       0.000000       0.00000
  13     269.0        0.0000        0.0000        0.0000        0.0000       0.000000       0.00000
  12     297.5        0.0000        0.0000        0.0000        0.0000       0.000000       0.00000
  11     328.5        0.0000        0.0000        0.0000        0.0000       0.000000       0.00000
  10     361.9        0.0000        0.0000        0.0000        0.0000       0.000000       0.00000
   9     398.1        0.0000        0.0000        0.0000        0.0000       0.000000       0.00000
   8     437.6        0.0000        0.0000        0.0000        0.0000       0.000000       0.00000
   7     480.5        0.0000        0.0000        0.0000        0.0000       0.000000       0.00000
   6     533.0        0.0000        0.0000        0.0000        0.0000       0.000000       0.00000
   5     589.8        0.0000        0.0000        0.0000        0.0000       0.000000       0.00000
   4     651.6        0.0000        0.0000        0.0000        0.0000       0.000000       0.00000
   3     718.7        0.0000        0.0000        0.0000        0.0000       0.000000       0.00000
   2     792.3        0.0000        0.0000        0.0000        0.0000       0.000000       0.00000
   1     891.5        0.0000        0.0000        0.0000        0.0000       0.000000       0.00000
   0    1013.0        0.0000        0.0000        0.0000        0.0000       0.000000       0.00000



 Wavenumbers:   820. -  2600. cm-1, ATM      1
 LEVEL PRESSURE   UPWARD FLUX   DIFDOWN FLUX  DIRDOWN FLUX  DOWNWARD FLUX   NET FLUX    HEATING RATE
          mb          W/m2          W/m2          W/m2        W/m2          W/m2       degree/day
  51    .06700        1.0352        0.0000        6.0047        6.0047       4.969465       0.00000
  50    .07753        1.0352        0.0000        6.0008        6.0008       4.965612       3.08821
  49    .09103        1.0352        0.0000        5.9999        5.9999       4.964726       0.55358
  48    0.1069        1.0352        0.0000        5.9989        5.9989       4.963737       0.52652
  47    0.1255        1.0352        0.0000        5.9978        5.9978       4.962620       0.50650
  46    0.1487        1.0352        0.0000        5.9964        5.9964       4.961263       0.49457
  45    0.1794        1.0352        0.0000        5.9947        5.9947       4.959544       0.47200
  44    0.2165        1.0352        0.0000        5.9929        5.9929       4.957702       0.41910
  43    0.2613        1.0352        0.0000        5.9909        5.9909       4.955742       0.36933
  42    0.3336        1.0352        0.0000        5.9880        5.9880       4.952864       0.33556
  41    0.4307        1.0352        0.0000        5.9846        5.9846       4.949395       0.30165
  40    0.5894        1.0352        0.0000        5.9791        5.9791       4.943890       0.29276
  39     1.339        1.0352        0.0000        5.9536        5.9536       4.918403       0.28694
  38     1.782        1.0352        0.0000        5.9395        5.9395       4.904264       0.26917
  37     2.292        1.0352        0.0000        5.9237        5.9237       4.888513       0.26088
  36     2.964        1.0352        0.0000        5.9039        5.9039       4.868739       0.24822
  35     3.853        1.0352        0.0000        5.8793        5.8793       4.844083       0.23399
  34     5.035        1.0352        0.0000        5.8487        5.8487       4.813519       0.21833
  33     6.613        1.0352        0.0000        5.8108        5.8108       4.775554       0.20296
  32     8.786        1.0352        0.0000        5.7631        5.7631       4.727930       0.18496
  31     11.80        1.0352        0.0000        5.7039        5.7039       4.668672       0.16590
  30     15.07        1.0352        0.0000        5.6539        5.6539       4.618631       0.12920
  29     18.79        1.0352        0.0000        5.6127        5.6127       4.577492       0.09327
  28     23.16        1.0353        0.0000        5.5794        5.5794       4.544111       0.06455
  27     28.12        1.0353        0.0000        5.5518        5.5518       4.516538       0.04687
  26     33.73        1.0353        0.0000        5.5268        5.5268       4.491476       0.03768
  25     40.54        1.0353        0.0000        5.4993        5.4993       4.464020       0.03406
  24     48.69        1.0353        0.0000        5.4678        5.4678       4.432462       0.03266
  23     57.69        1.0354        0.0000        5.4340        5.4340       4.398654       0.03169
  22     68.43        1.0354        0.0000        5.3947        5.3948       4.359355       0.03089
  21     81.20        1.0354        0.0000        5.3497        5.3497       4.314289       0.02978
  20     96.49        1.0355        0.0000        5.2982        5.2982       4.262735       0.02845
  19     114.6        1.0355        0.0000        5.2389        5.2389       4.203363       0.02772
  18     136.5        1.0356        0.0000        5.1716        5.1717       4.136042       0.02589
  17     162.9        1.0357        0.0000        5.0890        5.0891       4.053319       0.02644
  16     196.4        1.0359        0.0000        4.9668        4.9668       3.930920       0.03081
  15     218.7        1.0361        0.0000        4.8585        4.8585       3.822376       0.04121
  14     243.0        1.0364        0.0000        4.7078        4.7079       3.671461       0.05234
  13     269.0        1.0369        0.0000        4.5343        4.5343       3.497424       0.05646
  12     297.5        1.0376        0.0000        4.3419        4.3420       3.304358       0.05726
  11     328.5        1.0386        0.0000        4.1281        4.1281       3.089512       0.05842
  10     361.9        1.0400        0.0000        3.8786        3.8787       2.838657       0.06347
   9     398.1        1.0419        0.0000        3.6159        3.6160       2.574097       0.06164
   8     437.6        1.0443        0.0000        3.3759        3.3759       2.331627       0.05184
   7     480.5        1.0473        0.0000        3.1957        3.1958       2.148523       0.03596
   6     533.0        1.0519        0.0000        3.0467        3.0467       1.994778       0.02473
   5     589.8        1.0590        0.0000        2.9023        2.9023       1.843365       0.02247
   4     651.6        1.0717        0.0000        2.7183        2.7184       1.646698       0.02689
   3     718.7        1.0938        0.0001        2.5058        2.5059       1.412112       0.02948
   2     792.3        1.1344        0.0001        2.2756        2.2757       1.141304       0.03106
   1     891.5        1.2378        0.0001        1.9621        1.9622       0.724365       0.03548
   0    1013.0        1.4982        0.0000        1.5468        1.5469       0.048727       0.04691

  Modules and versions used in this calculation:

       rrtmg_sw.1col.f90:  $Revision$                    rrtmg_sw_init.f90:  $Revision$        
     rrtmgsw_cldprop.f90:  $Revision$                  rrtmgsw_cldprmc.f90:  NOT USED          
     rrtmg_sw_reftra.f90:  $Revision$                  rrtmg_sw_spcvrt.f90:  NOT USED          
     rrtmg_sw_spcvmc.f90:  NOT USED                    rrtmgsw_setcoef.f90:  NOT USED          
     rrtmg_sw_taumol.f90:  $Revision$                  rrtmg_sw_vrtqdr.f90:  NOT USED          
                rrtatm.f:  NOT USED                             util_xxx.f:  NOT USED          
                 extra.f:  NOT USED                       rrtmg_sw_k_g.f90:  $Revision$        

