

 Wavenumbers:   820. - 50000. cm-1, ATM      1
 LEVEL PRESSURE   UPWARD FLUX   DIFDOWN FLUX  DIRDOWN FLUX  DOWNWARD FLUX   NET FLUX    HEATING RATE
          mb          W/m2          W/m2          W/m2        W/m2          W/m2       degree/day
  51    .06700      433.7829        0.0000      617.8126      617.8126     184.029631       0.00000
  50    .07753      433.7826        0.0013      617.7950      617.7964     184.013796      12.69248
  49    .09103      433.7821        0.0030      617.7784      617.7815     183.999355       9.02607
  48    0.1069      433.7816        0.0050      617.7592      617.7641     183.982505       8.96923
  47    0.1255      433.7811        0.0072      617.7355      617.7428     183.961617       9.46963
  46    0.1487      433.7806        0.0100      617.7030      617.7131     183.932498      10.61396
  45    0.1794      433.7798        0.0139      617.6550      617.6689     183.889020      11.93592
  44    0.2165      433.7791        0.0184      617.5933      617.6117     183.832578      12.83952
  43    0.2613      433.7784        0.0238      617.5137      617.5376     183.759111      13.84819
  42    0.3336      433.7776        0.0326      617.3708      617.4034     183.625783      15.54479
  41    0.4307      433.7770        0.0443      617.1682      617.2125     183.435514      16.54344
  40    0.5894      433.7769        0.0630      616.8135      616.8766     183.099693      17.85852
  39     1.339      433.7950        0.1479      614.9745      615.1224     181.327388      19.95294
  38     1.782      433.8186        0.1957      614.0061      614.2018     180.383233      17.97518
  37     2.292      433.8575        0.2500      613.0545      613.3045     179.447047      15.50568
  36     2.964      433.9261        0.3207      612.0178      612.3385     178.412407      12.98786
  35     3.853      434.0413        0.4133      610.8768      611.2901     177.248831      11.04255
  34     5.035      434.2183        0.5356      609.6247      610.1603     175.941920       9.33603
  33     6.613      434.4677        0.6978      608.2598      608.9576     174.489906       7.76247
  32     8.786      434.7926        0.9155      606.7636      607.6791     172.886487       6.22710
  31     11.80      435.2133        1.2255      605.0171      606.2426     171.029256       5.19966
  30     15.07      435.6138        1.5562      603.4395      604.9957     169.381812       4.25338
  29     18.79      436.0205        1.9283      601.8737      603.8020     167.781499       3.62840
  28     23.16      436.4428        2.3607      600.2450      602.6057     166.162891       3.12987
  27     28.12      436.8640        2.8529      598.5728      601.4257     164.561705       2.72191
  26     33.73      437.2450        3.4016      596.9131      600.3147     163.069732       2.24322
  25     40.54      437.6002        4.0622      595.1270      599.1892     161.589021       1.83699
  24     48.69      437.9266        4.8549      593.1796      598.0346     160.107974       1.53265
  23     57.69      438.1864        5.7215      591.2283      596.9497     158.763315       1.26042
  22     68.43      438.3888        6.7481      589.0950      595.8431     157.454282       1.02908
  21     81.20      438.4811        7.9652      586.7930      594.7583     156.277147       0.77783
  20     96.49      438.4533        9.4064      584.2733      593.6797     155.226420       0.57993
  19     114.6      438.3599       11.1016      581.4222      592.5238     154.163845       0.49615
  18     136.5      438.2052       13.0866      578.1739      591.2605     153.055261       0.42628
  17     162.9      437.9836       15.4162      574.4421      589.8583     151.874645       0.37737
  16     196.4      437.6094       18.3872      569.8095      588.1966     150.587236       0.32406
  15     218.7      437.3350       20.3082      566.7890      587.0971     149.762165       0.31325
  14     243.0      437.0273       22.3688      563.4274      585.7962     148.768873       0.34451
  13     269.0      436.6853       24.5707      559.6457      584.2164     147.531123       0.40152
  12     297.5      436.3100       26.9147      555.4291      582.3438     146.033853       0.44407
  11     328.5      435.9093       29.4071      550.8306      580.2377     144.328442       0.46370
  10     361.9      435.4862       32.0443      545.7941      577.8384     142.352258       0.49999
   9     398.1      435.0433       34.8311      540.2511      575.0822     140.038924       0.53895
   8     437.6      434.5884       37.7668      534.1541      571.9208     137.332432       0.57866
   7     480.5      434.1280       40.8499      527.5425      568.3925     134.264444       0.60254
   6     533.0      433.6100       44.5582      519.3153      563.8735     130.263555       0.64362
   5     589.8      433.1333       48.4525      510.2007      558.6532     125.519859       0.70412
   4     651.6      432.7685       52.5256      499.7879      552.3135     119.544964       0.81708
   3     718.7      432.6023       56.7696      488.2780      545.0476     112.445267       0.89224
   2     792.3      432.8127       61.1702      475.7043      536.8744     104.061774       0.96149
   1     891.5      434.0564       66.8800      458.8480      525.7280      91.671571       1.05435
   0    1013.0      437.9235       73.4167      439.5348      512.9515      75.027966       1.15565



 Wavenumbers:  2600. -  3250. cm-1, ATM      1
 LEVEL PRESSURE   UPWARD FLUX   DIFDOWN FLUX  DIRDOWN FLUX  DOWNWARD FLUX   NET FLUX    HEATING RATE
          mb          W/m2          W/m2          W/m2        W/m2          W/m2       degree/day
  51    .06700        2.1616        0.0000        5.4450        5.4450       3.283407       0.00000
  50    .07753        2.1616        0.0000        5.4450        5.4450       3.283399       0.00640
  49    .09103        2.1616        0.0000        5.4450        5.4450       3.283389       0.00627
  48    0.1069        2.1616        0.0000        5.4450        5.4450       3.283377       0.00613
  47    0.1255        2.1616        0.0000        5.4450        5.4450       3.283364       0.00599
  46    0.1487        2.1616        0.0000        5.4450        5.4450       3.283348       0.00608
  45    0.1794        2.1616        0.0000        5.4450        5.4450       3.283325       0.00625
  44    0.2165        2.1616        0.0000        5.4449        5.4449       3.283298       0.00612
  43    0.2613        2.1616        0.0000        5.4449        5.4449       3.283266       0.00600
  42    0.3336        2.1616        0.0000        5.4448        5.4448       3.283213       0.00617
  41    0.4307        2.1616        0.0000        5.4448        5.4448       3.283142       0.00620
  40    0.5894        2.1616        0.0000        5.4446        5.4446       3.283022       0.00637
  39     1.339        2.1616        0.0000        5.4439        5.4439       3.282314       0.00797
  38     1.782        2.1616        0.0000        5.4434        5.4434       3.281771       0.01034
  37     2.292        2.1616        0.0000        5.4427        5.4427       3.281055       0.01186
  36     2.964        2.1616        0.0000        5.4416        5.4416       3.280017       0.01304
  35     3.853        2.1616        0.0000        5.4402        5.4402       3.278539       0.01402
  34     5.035        2.1616        0.0000        5.4381        5.4381       3.276483       0.01469
  33     6.613        2.1616        0.0000        5.4353        5.4353       3.273701       0.01487
  32     8.786        2.1616        0.0000        5.4317        5.4317       3.270066       0.01411
  31     11.80        2.1616        0.0000        5.4269        5.4269       3.265282       0.01339
  30     15.07        2.1616        0.0000        5.4224        5.4224       3.260750       0.01170
  29     18.79        2.1616        0.0000        5.4180        5.4180       3.256329       0.01002
  28     23.16        2.1617        0.0000        5.4135        5.4135       3.251831       0.00870
  27     28.12        2.1617        0.0000        5.4088        5.4088       3.247165       0.00793
  26     33.73        2.1617        0.0000        5.4036        5.4036       3.241900       0.00792
  25     40.54        2.1617        0.0000        5.3966        5.3967       3.234920       0.00866
  24     48.69        2.1618        0.0000        5.3872        5.3872       3.225384       0.00987
  23     57.69        2.1619        0.0000        5.3754        5.3754       3.213520       0.01112
  22     68.43        2.1620        0.0000        5.3599        5.3599       3.197919       0.01227
  21     81.20        2.1622        0.0000        5.3401        5.3401       3.177925       0.01321
  20     96.49        2.1624        0.0000        5.3155        5.3155       3.153135       0.01368
  19     114.6        2.1627        0.0001        5.2860        5.2861       3.123352       0.01391
  18     136.5        2.1631        0.0001        5.2518        5.2519       3.088737       0.01331
  17     162.9        2.1637        0.0001        5.2135        5.2136       3.049829       0.01244
  16     196.4        2.1646        0.0001        5.1688        5.1689       3.004242       0.01147
  15     218.7        2.1653        0.0001        5.1423        5.1424       2.977068       0.01032
  14     243.0        2.1662        0.0001        5.1154        5.1156       2.949365       0.00961
  13     269.0        2.1673        0.0001        5.0878        5.0879       2.920573       0.00934
  12     297.5        2.1689        0.0001        5.0584        5.0585       2.889561       0.00920
  11     328.5        2.1711        0.0001        5.0266        5.0268       2.855711       0.00920
  10     361.9        2.1739        0.0002        4.9913        4.9914       2.817501       0.00967
   9     398.1        2.1776        0.0002        4.9511        4.9512       2.773634       0.01022
   8     437.6        2.1824        0.0002        4.9040        4.9042       2.721854       0.01107
   7     480.5        2.1885        0.0002        4.8476        4.8478       2.659268       0.01229
   6     533.0        2.1978        0.0002        4.7682        4.7685       2.570691       0.01425
   5     589.8        2.2105        0.0002        4.6671        4.6673       2.456880       0.01689
   4     651.6        2.2288        0.0003        4.5335        4.5338       2.304973       0.02077
   3     718.7        2.2554        0.0003        4.3653        4.3655       2.110187       0.02448
   2     792.3        2.2953        0.0003        4.1603        4.1606       1.865328       0.02808
   1     891.5        2.3758        0.0003        3.8676        3.8680       1.492105       0.03176
   0    1013.0        2.5359        0.0003        3.5310        3.5314       0.995472       0.03448



 Wavenumbers:  3250. -  4000. cm-1, ATM      1
 LEVEL PRESSURE   UPWARD FLUX   DIFDOWN FLUX  DIRDOWN FLUX  DOWNWARD FLUX   NET FLUX    HEATING RATE
          mb          W/m2          W/m2          W/m2        W/m2          W/m2       degree/day
  51    .06700        0.4000        0.0000        9.1795        9.1795       8.779562       0.00000
  50    .07753        0.4000        0.0000        9.1749        9.1749       8.774883       3.75083
  49    .09103        0.4000        0.0000        9.1716        9.1716       8.771680       2.00190
  48    0.1069        0.4000        0.0000        9.1693        9.1693       8.769348       1.24123
  47    0.1255        0.4000        0.0000        9.1673        9.1673       8.767286       0.93496
  46    0.1487        0.4000        0.0000        9.1650        9.1650       8.765072       0.80679
  45    0.1794        0.4000        0.0000        9.1624        9.1624       8.762469       0.71475
  44    0.2165        0.4000        0.0000        9.1598        9.1598       8.759845       0.59693
  43    0.2613        0.4000        0.0000        9.1572        9.1572       8.757206       0.49746
  42    0.3336        0.4000        0.0000        9.1535        9.1535       8.753573       0.42351
  41    0.4307        0.4000        0.0000        9.1495        9.1495       8.749524       0.35205
  40    0.5894        0.4000        0.0000        9.1436        9.1436       8.743672       0.31124
  39     1.339        0.4000        0.0000        9.1207        9.1207       8.720749       0.25807
  38     1.782        0.4000        0.0000        9.1103        9.1103       8.710326       0.19844
  37     2.292        0.4000        0.0000        9.1002        9.1002       8.700223       0.16733
  36     2.964        0.4000        0.0000        9.0888        9.0888       8.688825       0.14308
  35     3.853        0.4000        0.0000        9.0753        9.0753       8.675365       0.12774
  34     5.035        0.4000        0.0000        9.0585        9.0585       8.658547       0.12014
  33     6.613        0.4000        0.0000        9.0363        9.0363       8.636303       0.11892
  32     8.786        0.4000        0.0000        9.0052        9.0052       8.605242       0.12063
  31     11.80        0.4000        0.0000        8.9585        8.9586       8.558611       0.13055
  30     15.07        0.3999        0.0000        8.9065        8.9065       8.506592       0.13430
  29     18.79        0.3999        0.0000        8.8462        8.8462       8.446271       0.13677
  28     23.16        0.3999        0.0000        8.7757        8.7757       8.375770       0.13633
  27     28.12        0.3999        0.0000        8.6974        8.6974       8.297473       0.13310
  26     33.73        0.3999        0.0000        8.6153        8.6154       8.215445       0.12333
  25     40.54        0.3999        0.0001        8.5254        8.5254       8.125527       0.11155
  24     48.69        0.3999        0.0001        8.4294        8.4295       8.029558       0.09931
  23     57.69        0.3999        0.0001        8.3346        8.3347       7.934810       0.08881
  22     68.43        0.3999        0.0001        8.2290        8.2291       7.829256       0.08298
  21     81.20        0.3999        0.0001        8.1072        8.1073       7.707450       0.08049
  20     96.49        0.3998        0.0001        7.9656        7.9657       7.565901       0.07812
  19     114.6        0.3998        0.0002        7.8040        7.8041       7.404292       0.07546
  18     136.5        0.3998        0.0002        7.6267        7.6269       7.227105       0.06813
  17     162.9        0.3998        0.0002        7.4340        7.4342       7.034415       0.06159
  16     196.4        0.3997        0.0002        7.2052        7.2054       6.805700       0.05757
  15     218.7        0.3997        0.0003        7.0489        7.0492       6.649471       0.05931
  14     243.0        0.3997        0.0003        6.8552        6.8555       6.455729       0.06720
  13     269.0        0.3998        0.0003        6.6027        6.6030       6.203191       0.08192
  12     297.5        0.3999        0.0003        6.3060        6.3063       5.906446       0.08801
  11     328.5        0.4001        0.0003        6.0036        6.0039       5.603862       0.08227
  10     361.9        0.4004        0.0004        5.6907        5.6911       5.290681       0.07924
   9     398.1        0.4009        0.0004        5.3488        5.3492       4.948258       0.07978
   8     437.6        0.4018        0.0004        4.9628        4.9631       4.561380       0.08272
   7     480.5        0.4031        0.0004        4.5442        4.5446       4.141481       0.08247
   6     533.0        0.4056        0.0004        4.0546        4.0549       3.649364       0.07917
   5     589.8        0.4098        0.0004        3.5637        3.5641       3.154292       0.07348
   4     651.6        0.4175        0.0004        3.0538        3.0541       2.636619       0.07079
   3     718.7        0.4314        0.0003        2.5586        2.5590       2.127544       0.06398
   2     792.3        0.4573        0.0003        2.0766        2.0769       1.619632       0.05825
   1     891.5        0.5241        0.0003        1.5207        1.5209       0.996806       0.05300
   0    1013.0        0.7108        0.0002        0.9896        0.9898       0.279013       0.04984



 Wavenumbers:  4000. -  4650. cm-1, ATM      1
 LEVEL PRESSURE   UPWARD FLUX   DIFDOWN FLUX  DIRDOWN FLUX  DOWNWARD FLUX   NET FLUX    HEATING RATE
          mb          W/m2          W/m2          W/m2        W/m2          W/m2       degree/day
  51    .06700        5.8997        0.0000       10.7795       10.7795       4.879869       0.00000
  50    .07753        5.8997        0.0000       10.7795       10.7795       4.879868       0.00083
  49    .09103        5.8997        0.0000       10.7795       10.7795       4.879867       0.00081
  48    0.1069        5.8997        0.0000       10.7795       10.7795       4.879865       0.00080
  47    0.1255        5.8997        0.0000       10.7795       10.7795       4.879863       0.00078
  46    0.1487        5.8997        0.0000       10.7795       10.7795       4.879861       0.00079
  45    0.1794        5.8997        0.0000       10.7795       10.7795       4.879858       0.00081
  44    0.2165        5.8997        0.0000       10.7795       10.7795       4.879855       0.00080
  43    0.2613        5.8997        0.0000       10.7795       10.7795       4.879851       0.00078
  42    0.3336        5.8997        0.0000       10.7795       10.7795       4.879844       0.00080
  41    0.4307        5.8997        0.0000       10.7795       10.7795       4.879834       0.00081
  40    0.5894        5.8997        0.0000       10.7795       10.7795       4.879819       0.00083
  39     1.339        5.8997        0.0000       10.7794       10.7794       4.879725       0.00105
  38     1.782        5.8997        0.0000       10.7793       10.7793       4.879652       0.00139
  37     2.292        5.8997        0.0000       10.7792       10.7792       4.879554       0.00163
  36     2.964        5.8997        0.0000       10.7791       10.7791       4.879407       0.00184
  35     3.853        5.8997        0.0000       10.7788       10.7789       4.879189       0.00207
  34     5.035        5.8997        0.0000       10.7785       10.7785       4.878868       0.00229
  33     6.613        5.8997        0.0000       10.7780       10.7781       4.878395       0.00253
  32     8.786        5.8997        0.0000       10.7773       10.7774       4.877696       0.00271
  31     11.80        5.8997        0.0001       10.7762       10.7763       4.876597       0.00308
  30     15.07        5.8997        0.0001       10.7749       10.7750       4.875306       0.00333
  29     18.79        5.8997        0.0001       10.7734       10.7735       4.873741       0.00355
  28     23.16        5.8998        0.0001       10.7714       10.7716       4.871794       0.00376
  27     28.12        5.8998        0.0001       10.7691       10.7692       4.869432       0.00402
  26     33.73        5.8999        0.0002       10.7662       10.7664       4.866511       0.00439
  25     40.54        5.9000        0.0002       10.7623       10.7625       4.862538       0.00493
  24     48.69        5.9002        0.0002       10.7572       10.7574       4.857227       0.00550
  23     57.69        5.9004        0.0003       10.7510       10.7513       4.850906       0.00592
  22     68.43        5.9007        0.0003       10.7434       10.7437       4.842951       0.00625
  21     81.20        5.9012        0.0004       10.7339       10.7343       4.833110       0.00650
  20     96.49        5.9019        0.0005       10.7225       10.7229       4.821074       0.00664
  19     114.6        5.9027        0.0006       10.7086       10.7092       4.806467       0.00682
  18     136.5        5.9039        0.0007       10.6920       10.6927       4.788769       0.00681
  17     162.9        5.9055        0.0008       10.6720       10.6728       4.767222       0.00689
  16     196.4        5.9080        0.0009       10.6456       10.6465       4.738523       0.00722
  15     218.7        5.9098        0.0010       10.6277       10.6287       4.718895       0.00745
  14     243.0        5.9122        0.0012       10.6073       10.6084       4.696249       0.00785
  13     269.0        5.9152        0.0013       10.5835       10.5848       4.669615       0.00864
  12     297.5        5.9190        0.0014       10.5554       10.5569       4.637860       0.00942
  11     328.5        5.9238        0.0016       10.5227       10.5243       4.600538       0.01015
  10     361.9        5.9296        0.0017       10.4851       10.4868       4.557177       0.01097
   9     398.1        5.9369        0.0019       10.4415       10.4434       4.506491       0.01181
   8     437.6        5.9459        0.0021       10.3904       10.3925       4.446571       0.01281
   7     480.5        5.9572        0.0022       10.3305       10.3327       4.375559       0.01395
   6     533.0        5.9735        0.0025       10.2477       10.2502       4.276613       0.01592
   5     589.8        5.9949        0.0027       10.1438       10.1465       4.151607       0.01855
   4     651.6        6.0244        0.0030       10.0068       10.0098       3.985448       0.02272
   3     718.7        6.0647        0.0032        9.8343        9.8376       3.772912       0.02671
   2     792.3        6.1206        0.0035        9.6268        9.6304       3.509716       0.03019
   1     891.5        6.2275        0.0039        9.3288        9.3327       3.105175       0.03442
   0    1013.0        6.4293        0.0042        8.9486        8.9528       2.523472       0.04039



 Wavenumbers:  4650. -  5150. cm-1, ATM      1
 LEVEL PRESSURE   UPWARD FLUX   DIFDOWN FLUX  DIRDOWN FLUX  DOWNWARD FLUX   NET FLUX    HEATING RATE
          mb          W/m2          W/m2          W/m2        W/m2          W/m2       degree/day
  51    .06700        4.0789        0.0000       10.2033       10.2033       6.124437       0.00000
  50    .07753        4.0789        0.0000       10.2031       10.2031       6.124208       0.18396
  49    .09103        4.0789        0.0000       10.2028       10.2028       6.123921       0.17938
  48    0.1069        4.0789        0.0000       10.2025       10.2025       6.123593       0.17455
  47    0.1255        4.0789        0.0000       10.2021       10.2021       6.123219       0.16965
  46    0.1487        4.0789        0.0000       10.2017       10.2017       6.122750       0.17073
  45    0.1794        4.0789        0.0000       10.2010       10.2010       6.122117       0.17381
  44    0.2165        4.0789        0.0000       10.2003       10.2003       6.121378       0.16825
  43    0.2613        4.0789        0.0000       10.1994       10.1994       6.120515       0.16255
  42    0.3336        4.0789        0.0000       10.1980       10.1980       6.119120       0.16269
  41    0.4307        4.0789        0.0000       10.1962       10.1962       6.117327       0.15590
  40    0.5894        4.0789        0.0000       10.1934       10.1934       6.114526       0.14893
  39     1.339        4.0789        0.0000       10.1821       10.1821       6.103223       0.12725
  38     1.782        4.0789        0.0000       10.1767       10.1767       6.097828       0.10271
  37     2.292        4.0789        0.0000       10.1714       10.1714       6.092501       0.08824
  36     2.964        4.0789        0.0000       10.1656       10.1656       6.086713       0.07266
  35     3.853        4.0789        0.0000       10.1595       10.1595       6.080632       0.05771
  34     5.035        4.0789        0.0000       10.1533       10.1533       6.074419       0.04438
  33     6.613        4.0789        0.0000       10.1469       10.1470       6.068067       0.03396
  32     8.786        4.0789        0.0001       10.1400       10.1401       6.061142       0.02689
  31     11.80        4.0789        0.0001       10.1310       10.1311       6.052180       0.02509
  30     15.07        4.0790        0.0001       10.1212       10.1213       6.042368       0.02533
  29     18.79        4.0790        0.0001       10.1093       10.1094       6.030431       0.02707
  28     23.16        4.0791        0.0002       10.0941       10.0943       6.015207       0.02944
  27     28.12        4.0792        0.0002       10.0752       10.0754       5.996205       0.03230
  26     33.73        4.0793        0.0002       10.0523       10.0525       5.973210       0.03457
  25     40.54        4.0795        0.0003       10.0227       10.0229       5.943420       0.03696
  24     48.69        4.0798        0.0003        9.9848        9.9852       5.905367       0.03938
  23     57.69        4.0802        0.0004        9.9417        9.9421       5.861929       0.04072
  22     68.43        4.0807        0.0005        9.8895        9.8900       5.809262       0.04140
  21     81.20        4.0814        0.0006        9.8277        9.8283       5.746858       0.04124
  20     96.49        4.0824        0.0007        9.7566        9.7573       5.674883       0.03973
  19     114.6        4.0838        0.0008        9.6776        9.6784       5.594595       0.03749
  18     136.5        4.0857        0.0009        9.5922        9.5931       5.507470       0.03350
  17     162.9        4.0883        0.0011        9.5014        9.5024       5.414161       0.02983
  16     196.4        4.0923        0.0013        9.3968        9.3981       5.305818       0.02727
  15     218.7        4.0953        0.0014        9.3330        9.3345       5.239126       0.02532
  14     243.0        4.0991        0.0016        9.2657        9.2672       5.168156       0.02461
  13     269.0        4.1036        0.0017        9.1933        9.1950       5.091385       0.02490
  12     297.5        4.1092        0.0019        9.1139        9.1158       5.006617       0.02514
  11     328.5        4.1160        0.0021        9.0261        9.0282       4.912174       0.02568
  10     361.9        4.1243        0.0023        8.9281        8.9304       4.806108       0.02684
   9     398.1        4.1345        0.0025        8.8185        8.8210       4.686514       0.02786
   8     437.6        4.1471        0.0027        8.6955        8.6983       4.551170       0.02894
   7     480.5        4.1627        0.0029        8.5582        8.5611       4.398421       0.03000
   6     533.0        4.1854        0.0032        8.3811        8.3843       4.198929       0.03209
   5     589.8        4.2153        0.0035        8.1804        8.1838       3.968547       0.03420
   4     651.6        4.2551        0.0038        7.9530        7.9568       3.701699       0.03649
   3     718.7        4.3080        0.0040        7.6999        7.7039       3.395917       0.03843
   2     792.3        4.3802        0.0043        7.4194        7.4238       3.043600       0.04041
   1     891.5        4.5110        0.0047        7.0364        7.0411       2.530043       0.04370
   0    1013.0        4.7389        0.0051        6.5936        6.5987       1.859776       0.04654



 Wavenumbers:  5150. -  6150. cm-1, ATM      1
 LEVEL PRESSURE   UPWARD FLUX   DIFDOWN FLUX  DIRDOWN FLUX  DOWNWARD FLUX   NET FLUX    HEATING RATE
          mb          W/m2          W/m2          W/m2        W/m2          W/m2       degree/day
  51    .06700       10.2435        0.0000       25.5798       25.5798      15.336334       0.00000
  50    .07753       10.2435        0.0000       25.5798       25.5798      15.336329       0.00347
  49    .09103       10.2435        0.0000       25.5798       25.5798      15.336324       0.00351
  48    0.1069       10.2435        0.0000       25.5798       25.5798      15.336317       0.00356
  47    0.1255       10.2435        0.0000       25.5798       25.5798      15.336309       0.00361
  46    0.1487       10.2435        0.0000       25.5798       25.5798      15.336299       0.00379
  45    0.1794       10.2435        0.0000       25.5798       25.5798      15.336284       0.00403
  44    0.2165       10.2435        0.0000       25.5797       25.5798      15.336266       0.00409
  43    0.2613       10.2435        0.0000       25.5797       25.5797      15.336244       0.00415
  42    0.3336       10.2435        0.0000       25.5797       25.5797      15.336206       0.00438
  41    0.4307       10.2435        0.0000       25.5796       25.5796      15.336155       0.00444
  40    0.5894       10.2435        0.0000       25.5795       25.5796      15.336069       0.00456
  39     1.339       10.2435        0.0000       25.5791       25.5791      15.335648       0.00474
  38     1.782       10.2435        0.0001       25.5788       25.5789      15.335395       0.00482
  37     2.292       10.2435        0.0001       25.5785       25.5786      15.335102       0.00485
  36     2.964       10.2435        0.0001       25.5781       25.5782      15.334720       0.00479
  35     3.853       10.2435        0.0001       25.5776       25.5777      15.334221       0.00474
  34     5.035       10.2435        0.0002       25.5769       25.5771      15.333558       0.00474
  33     6.613       10.2435        0.0002       25.5760       25.5762      15.332666       0.00477
  32     8.786       10.2436        0.0003       25.5747       25.5750      15.331460       0.00469
  31     11.80       10.2436        0.0004       25.5730       25.5733      15.329734       0.00483
  30     15.07       10.2437        0.0005       25.5711       25.5716      15.327888       0.00477
  29     18.79       10.2438        0.0006       25.5690       25.5696      15.325827       0.00467
  28     23.16       10.2439        0.0007       25.5666       25.5673      15.323447       0.00460
  27     28.12       10.2441        0.0009       25.5639       25.5648      15.320751       0.00458
  26     33.73       10.2443        0.0011       25.5609       25.5620      15.317753       0.00451
  25     40.54       10.2446        0.0013       25.5574       25.5587      15.314124       0.00450
  24     48.69       10.2450        0.0015       25.5532       25.5547      15.309778       0.00450
  23     57.69       10.2455        0.0018       25.5487       25.5505      15.304997       0.00448
  22     68.43       10.2461        0.0022       25.5433       25.5454      15.299305       0.00447
  21     81.20       10.2470        0.0026       25.5369       25.5395      15.292502       0.00450
  20     96.49       10.2480        0.0030       25.5293       25.5323      15.284297       0.00453
  19     114.6       10.2493        0.0036       25.5200       25.5236      15.274321       0.00466
  18     136.5       10.2508        0.0043       25.5086       25.5129      15.262094       0.00470
  17     162.9       10.2528        0.0051       25.4921       25.4973      15.244490       0.00563
  16     196.4       10.2554        0.0062       25.4581       25.4643      15.208915       0.00895
  15     218.7       10.2571        0.0068       25.4070       25.4138      15.156720       0.01982
  14     243.0       10.2591        0.0076       25.3059       25.3135      15.054381       0.03549
  13     269.0       10.2614        0.0084       25.1460       25.1544      14.892970       0.05236
  12     297.5       10.2641        0.0092       24.9310       24.9401      14.676026       0.06434
  11     328.5       10.2673        0.0101       24.6586       24.6686      14.401368       0.07468
  10     361.9       10.2709        0.0110       24.3091       24.3201      14.049165       0.08911
   9     398.1       10.2753        0.0119       23.8893       23.9012      13.625896       0.09861
   8     437.6       10.2807        0.0129       23.4128       23.4257      13.145038       0.10281
   7     480.5       10.2873        0.0139       22.8933       22.9072      12.619821       0.10315
   6     533.0       10.2973        0.0151       22.2089       22.2240      11.926632       0.11151
   5     589.8       10.3115        0.0162       21.3701       21.3863      11.074868       0.12643
   4     651.6       10.3338        0.0173       20.3215       20.3388      10.005001       0.14631
   3     718.7       10.3700        0.0182       19.1603       19.1785       8.808550       0.15036
   2     792.3       10.4324        0.0191       17.9370       17.9561       7.523772       0.14735
   1     891.5       10.5840        0.0202       16.5122       16.5324       5.948360       0.13406
   0    1013.0       10.9904        0.0217       15.2808       15.3025       4.312133       0.11361



 Wavenumbers:  6150. -  7700. cm-1, ATM      1
 LEVEL PRESSURE   UPWARD FLUX   DIFDOWN FLUX  DIRDOWN FLUX  DOWNWARD FLUX   NET FLUX    HEATING RATE
          mb          W/m2          W/m2          W/m2        W/m2          W/m2       degree/day
  51    .06700       18.4132        0.0000       47.3108       47.3108      28.897623       0.00000
  50    .07753       18.4132        0.0000       47.3108       47.3108      28.897602       0.01635
  49    .09103       18.4132        0.0000       47.3108       47.3108      28.897576       0.01615
  48    0.1069       18.4132        0.0000       47.3108       47.3108      28.897546       0.01594
  47    0.1255       18.4132        0.0000       47.3107       47.3107      28.897512       0.01573
  46    0.1487       18.4132        0.0000       47.3107       47.3107      28.897468       0.01610
  45    0.1794       18.4132        0.0000       47.3106       47.3106      28.897407       0.01671
  44    0.2165       18.4132        0.0000       47.3105       47.3105      28.897334       0.01653
  43    0.2613       18.4132        0.0000       47.3104       47.3105      28.897247       0.01636
  42    0.3336       18.4132        0.0000       47.3103       47.3103      28.897102       0.01688
  41    0.4307       18.4132        0.0000       47.3101       47.3101      28.896909       0.01681
  40    0.5894       18.4132        0.0001       47.3097       47.3098      28.896591       0.01691
  39     1.339       18.4131        0.0002       47.3080       47.3082      28.895079       0.01703
  38     1.782       18.4131        0.0002       47.3071       47.3073      28.894192       0.01689
  37     2.292       18.4130        0.0003       47.3059       47.3062      28.893171       0.01691
  36     2.964       18.4130        0.0004       47.3045       47.3048      28.891841       0.01669
  35     3.853       18.4129        0.0005       47.3025       47.3030      28.890102       0.01651
  34     5.035       18.4128        0.0007       47.3000       47.3006      28.887808       0.01639
  33     6.613       18.4127        0.0009       47.2966       47.2975      28.884763       0.01628
  32     8.786       18.4126        0.0012       47.2921       47.2932      28.880694       0.01580
  31     11.80       18.4123        0.0016       47.2857       47.2873      28.874944       0.01610
  30     15.07       18.4121        0.0020       47.2789       47.2809      28.868865       0.01570
  29     18.79       18.4118        0.0025       47.2714       47.2739      28.862116       0.01530
  28     23.16       18.4115        0.0031       47.2628       47.2658      28.854376       0.01497
  27     28.12       18.4111        0.0037       47.2530       47.2568      28.845693       0.01476
  26     33.73       18.4107        0.0045       47.2424       47.2469      28.836203       0.01427
  25     40.54       18.4101        0.0054       47.2298       47.2352      28.825033       0.01386
  24     48.69       18.4095        0.0064       47.2151       47.2215      28.811987       0.01350
  23     57.69       18.4088        0.0076       47.1993       47.2069      28.798068       0.01305
  22     68.43       18.4080        0.0090       47.1809       47.1900      28.781965       0.01266
  21     81.20       18.4071        0.0107       47.1596       47.1704      28.763321       0.01232
  20     96.49       18.4059        0.0128       47.1348       47.1476      28.741679       0.01194
  19     114.6       18.4045        0.0151       47.1059       47.1210      28.716497       0.01176
  18     136.5       18.4029        0.0180       47.0722       47.0902      28.687256       0.01124
  17     162.9       18.4010        0.0214       47.0303       47.0517      28.650655       0.01170
  16     196.4       18.3986        0.0258       46.9656       46.9914      28.592825       0.01456
  15     218.7       18.3972        0.0287       46.8965       46.9252      28.528019       0.02460
  14     243.0       18.3959        0.0318       46.7717       46.8036      28.407652       0.04175
  13     269.0       18.3950        0.0351       46.5598       46.5949      28.199931       0.06738
  12     297.5       18.3945        0.0387       46.2513       46.2900      27.895440       0.09031
  11     328.5       18.3948        0.0424       45.8723       45.9147      27.519999       0.10208
  10     361.9       18.3960        0.0464       45.3915       45.4379      27.041917       0.12096
   9     398.1       18.3989        0.0505       44.7703       44.8209      26.421919       0.14445
   8     437.6       18.4045        0.0548       43.9897       44.0445      25.639998       0.16718
   7     480.5       18.4140        0.0591       43.0817       43.1408      24.726879       0.17933
   6     533.0       18.4322        0.0642       41.9063       41.9705      23.538325       0.19120
   5     589.8       18.4639        0.0693       40.5234       40.5927      22.128869       0.20921
   4     651.6       18.5230        0.0740       38.7534       38.8274      20.304382       0.24950
   3     718.7       18.6283        0.0783       36.6740       36.7524      18.124044       0.27401
   2     792.3       18.8194        0.0821       34.3653       34.4474      15.627964       0.28627
   1     891.5       19.2887        0.0863       31.4049       31.4912      12.202476       0.29149
   0    1013.0       20.4630        0.0907       28.3957       28.4864       8.023441       0.29017



 Wavenumbers:  7700. -  8050. cm-1, ATM      1
 LEVEL PRESSURE   UPWARD FLUX   DIFDOWN FLUX  DIRDOWN FLUX  DOWNWARD FLUX   NET FLUX    HEATING RATE
          mb          W/m2          W/m2          W/m2        W/m2          W/m2       degree/day
  51    .06700        6.6074        0.0000       11.1810       11.1810       4.573541       0.00000
  50    .07753        6.6074        0.0000       11.1809       11.1809       4.573519       0.01792
  49    .09103        6.6074        0.0000       11.1809       11.1809       4.573491       0.01756
  48    0.1069        6.6074        0.0000       11.1809       11.1809       4.573458       0.01719
  47    0.1255        6.6074        0.0000       11.1809       11.1809       4.573421       0.01682
  46    0.1487        6.6075        0.0000       11.1808       11.1808       4.573374       0.01707
  45    0.1794        6.6075        0.0000       11.1808       11.1808       4.573310       0.01757
  44    0.2165        6.6075        0.0000       11.1807       11.1807       4.573235       0.01723
  43    0.2613        6.6075        0.0000       11.1806       11.1806       4.573145       0.01691
  42    0.3336        6.6075        0.0000       11.1805       11.1805       4.572997       0.01730
  41    0.4307        6.6076        0.0000       11.1803       11.1804       4.572800       0.01711
  40    0.5894        6.6076        0.0000       11.1801       11.1801       4.572478       0.01710
  39     1.339        6.6079        0.0001       11.1788       11.1789       4.570957       0.01712
  38     1.782        6.6081        0.0001       11.1781       11.1782       4.570064       0.01701
  37     2.292        6.6083        0.0001       11.1772       11.1773       4.569030       0.01713
  36     2.964        6.6086        0.0002       11.1761       11.1762       4.567672       0.01705
  35     3.853        6.6089        0.0002       11.1746       11.1748       4.565878       0.01702
  34     5.035        6.6094        0.0003       11.1726       11.1729       4.563496       0.01702
  33     6.613        6.6100        0.0004       11.1699       11.1703       4.560313       0.01701
  32     8.786        6.6108        0.0005       11.1664       11.1669       4.556026       0.01665
  31     11.80        6.6120        0.0007       11.1613       11.1619       4.549896       0.01716
  30     15.07        6.6133        0.0009       11.1558       11.1566       4.543319       0.01698
  29     18.79        6.6148        0.0011       11.1496       11.1507       4.535896       0.01683
  28     23.16        6.6165        0.0013       11.1424       11.1438       4.527237       0.01674
  27     28.12        6.6185        0.0016       11.1342       11.1358       4.517348       0.01681
  26     33.73        6.6207        0.0019       11.1251       11.1270       4.506302       0.01661
  25     40.54        6.6234        0.0023       11.1141       11.1164       4.492984       0.01652
  24     48.69        6.6266        0.0028       11.1009       11.1036       4.476972       0.01657
  23     57.69        6.6302        0.0033       11.0864       11.0897       4.459439       0.01643
  22     68.43        6.6346        0.0039       11.0693       11.0732       4.438634       0.01636
  21     81.20        6.6397        0.0046       11.0491       11.0537       4.413959       0.01630
  20     96.49        6.6460        0.0054       11.0253       11.0307       4.384714       0.01614
  19     114.6        6.6535        0.0064       10.9972       11.0037       4.350211       0.01611
  18     136.5        6.6624        0.0076       10.9644       10.9720       4.309612       0.01561
  17     162.9        6.6733        0.0091       10.9259       10.9349       4.261667       0.01533
  16     196.4        6.6876        0.0109       10.8768       10.8877       4.200102       0.01550
  15     218.7        6.6971        0.0121       10.8450       10.8571       4.160008       0.01522
  14     243.0        6.7077        0.0134       10.8109       10.8244       4.116699       0.01502
  13     269.0        6.7193        0.0149       10.7745       10.7893       4.070057       0.01513
  12     297.5        6.7320        0.0164       10.7356       10.7520       4.019944       0.01486
  11     328.5        6.7461        0.0181       10.6941       10.7122       3.966087       0.01464
  10     361.9        6.7615        0.0199       10.6500       10.6699       3.908377       0.01460
   9     398.1        6.7785        0.0218       10.6032       10.6250       3.846521       0.01441
   8     437.6        6.7971        0.0238       10.5535       10.5774       3.780271       0.01416
   7     480.5        6.8177        0.0261       10.5010       10.5270       3.709356       0.01393
   6     533.0        6.8438        0.0288       10.4370       10.4658       3.621995       0.01405
   5     589.8        6.8730        0.0317       10.3687       10.4005       3.527404       0.01404
   4     651.6        6.9060        0.0349       10.2956       10.3305       3.424525       0.01407
   3     718.7        6.9433        0.0383       10.2172       10.2555       3.312210       0.01411
   2     792.3        6.9859        0.0419       10.1326       10.1745       3.188601       0.01418
   1     891.5        7.0483        0.0467       10.0162       10.0629       3.014574       0.01481
   0    1013.0        7.1313        0.0525        9.8727        9.9253       2.793947       0.01532



 Wavenumbers:  8050. - 12850. cm-1, ATM      1
 LEVEL PRESSURE   UPWARD FLUX   DIFDOWN FLUX  DIRDOWN FLUX  DOWNWARD FLUX   NET FLUX    HEATING RATE
          mb          W/m2          W/m2          W/m2        W/m2          W/m2       degree/day
  51    .06700       98.7206        0.0000      156.5418      156.5418      57.821110       0.00000
  50    .07753       98.7206        0.0000      156.5417      156.5417      57.821110      -0.00000
  49    .09103       98.7206        0.0001      156.5417      156.5417      57.821110       0.00000
  48    0.1069       98.7206        0.0001      156.5416      156.5417      57.821110       0.00000
  47    0.1255       98.7206        0.0002      156.5415      156.5417      57.821110      -0.00000
  46    0.1487       98.7206        0.0002      156.5414      156.5417      57.821110      -0.00000
  45    0.1794       98.7205        0.0003      156.5413      156.5416      57.821110       0.00000
  44    0.2165       98.7205        0.0004      156.5412      156.5416      57.821110       0.00000
  43    0.2613       98.7204        0.0006      156.5410      156.5415      57.821110      -0.00000
  42    0.3336       98.7203        0.0008      156.5407      156.5415      57.821110       0.00000
  41    0.4307       98.7202        0.0010      156.5403      156.5413      57.821110      -0.00000
  40    0.5894       98.7201        0.0015      156.5397      156.5412      57.821110       0.00000
  39     1.339       98.7192        0.0036      156.5367      156.5404      57.821110       0.00000
  38     1.782       98.7188        0.0049      156.5350      156.5399      57.821110      -0.00000
  37     2.292       98.7182        0.0063      156.5330      156.5393      57.821110       0.00000
  36     2.964       98.7175        0.0082      156.5303      156.5386      57.821110      -0.00000
  35     3.853       98.7165        0.0108      156.5268      156.5376      57.821110      -0.00000
  34     5.035       98.7152        0.0141      156.5222      156.5363      57.821110       0.00000
  33     6.613       98.7135        0.0186      156.5160      156.5346      57.821110      -0.00000
  32     8.786       98.7112        0.0246      156.5076      156.5323      57.821110       0.00000
  31     11.80       98.7078        0.0333      156.4957      156.5289      57.821110      -0.00000
  30     15.07       98.7042        0.0426      156.4828      156.5253      57.821110      -0.00000
  29     18.79       98.7002        0.0531      156.4682      156.5213      57.821110      -0.00000
  28     23.16       98.6954        0.0654      156.4512      156.5166      57.821110       0.00000
  27     28.12       98.6900        0.0794      156.4317      156.5111      57.821110       0.00000
  26     33.73       98.6839        0.0952      156.4099      156.5051      57.821110      -0.00000
  25     40.54       98.6766        0.1143      156.3834      156.4977      57.821110       0.00000
  24     48.69       98.6677        0.1373      156.3515      156.4888      57.821110      -0.00000
  23     57.69       98.6579        0.1626      156.3164      156.4791      57.821110       0.00000
  22     68.43       98.6463        0.1928      156.2746      156.4674      57.821110       0.00000
  21     81.20       98.6324        0.2289      156.2246      156.4535      57.821110       0.00000
  20     96.49       98.6158        0.2719      156.1649      156.4369      57.821110      -0.00000
  19     114.6       98.5960        0.3231      156.0934      156.4165      57.820462       0.00030
  18     136.5       98.5726        0.3840      156.0083      156.3922      57.819656       0.00031
  17     162.9       98.5446        0.4566      155.9063      156.3629      57.818308       0.00043
  16     196.4       98.5082        0.5510      155.7721      156.3230      57.814807       0.00088
  15     218.7       98.4844        0.6131      155.6793      156.2925      57.808066       0.00256
  14     243.0       98.4588        0.6808      155.5691      156.2500      57.791203       0.00585
  13     269.0       98.4316        0.7544      155.4307      156.1851      57.753455       0.01225
  12     297.5       98.4035        0.8339      155.2500      156.0839      57.680353       0.02168
  11     328.5       98.3747        0.9200      155.0236      155.9436      57.568874       0.03031
  10     361.9       98.3461        1.0129      154.7439      155.7568      57.410736       0.04001
   9     398.1       98.3188        1.1131      154.3994      155.5125      57.193713       0.05056
   8     437.6       98.2953        1.2207      153.9760      155.1966      56.901394       0.06250
   7     480.5       98.2782        1.3361      153.4678      154.8039      56.525667       0.07379
   6     533.0       98.2725        1.4783      152.7657      154.2440      55.971503       0.08915
   5     589.8       98.2938        1.6313      151.8833      153.5146      55.220853       0.11142
   4     651.6       98.3736        1.7946      150.6840      152.4785      54.104955       0.15260
   3     718.7       98.5506        1.9677      149.0941      151.0617      52.511103       0.20030
   2     792.3       98.9063        2.1490      146.9860      149.1350      50.228752       0.26176
   1     891.5       99.8006        2.3854      143.5424      145.9277      46.127162       0.34903
   0    1013.0      101.8377        2.6572      138.8775      141.5347      39.696939       0.44648



 Wavenumbers: 12850. - 16000. cm-1, ATM      1
 LEVEL PRESSURE   UPWARD FLUX   DIFDOWN FLUX  DIRDOWN FLUX  DOWNWARD FLUX   NET FLUX    HEATING RATE
          mb          W/m2          W/m2          W/m2        W/m2          W/m2       degree/day
  51    .06700       76.6579        0.0000       98.0872       98.0872      21.429368       0.00000
  50    .07753       76.6579        0.0001       98.0864       98.0864      21.428576       0.63528
  49    .09103       76.6579        0.0002       98.0853       98.0855      21.427580       0.62231
  48    0.1069       76.6579        0.0003       98.0841       98.0843      21.426436       0.60911
  47    0.1255       76.6579        0.0004       98.0826       98.0830      21.425121       0.59622
  46    0.1487       76.6579        0.0005       98.0809       98.0814      21.423460       0.60523
  45    0.1794       76.6580        0.0007       98.0784       98.0792      21.421201       0.62031
  44    0.2165       76.6580        0.0010       98.0756       98.0766      21.418541       0.60492
  43    0.2613       76.6582        0.0012       98.0723       98.0736      21.415413       0.58978
  42    0.3336       76.6584        0.0017       98.0670       98.0687      21.410303       0.59578
  41    0.4307       76.6588        0.0023       98.0602       98.0625      21.403690       0.57499
  40    0.5894       76.6597        0.0033       98.0496       98.0529      21.393258       0.55476
  39     1.339       76.6667        0.0081       98.0043       98.0125      21.345805       0.53423
  38     1.782       76.6730        0.0109       97.9793       97.9902      21.317199       0.54461
  37     2.292       76.6825        0.0142       97.9498       97.9640      21.281490       0.59143
  36     2.964       76.6981        0.0185       97.9088       97.9273      21.229169       0.65679
  35     3.853       76.7233        0.0241       97.8503       97.8744      21.151159       0.74033
  34     5.035       76.7612        0.0316       97.7680       97.7996      21.038406       0.80546
  33     6.613       76.8140        0.0416       97.6562       97.6977      20.883711       0.82700
  32     8.786       76.8829        0.0550       97.5107       97.5657      20.682774       0.78037
  31     11.80       76.9726        0.0742       97.3179       97.3921      20.419471       0.73717
  30     15.07       77.0586        0.0948       97.1283       97.2232      20.164514       0.65825
  29     18.79       77.1466        0.1181       96.9300       97.0481      19.901521       0.59629
  28     23.16       77.2387        0.1453       96.7166       96.8618      19.623150       0.53828
  27     28.12       77.3315        0.1763       96.4935       96.6698      19.338261       0.48429
  26     33.73       77.4176        0.2110       96.2731       96.4841      19.066511       0.40858
  25     40.54       77.5010        0.2530       96.0408       96.2938      18.792774       0.33960
  24     48.69       77.5815        0.3036       95.7946       96.0982      18.516645       0.28575
  23     57.69       77.6506        0.3592       95.5573       95.9165      18.265820       0.23511
  22     68.43       77.7121        0.4254       95.3106       95.7360      18.023982       0.19012
  21     81.20       77.7566        0.5044       95.0644       95.5688      17.812252       0.13991
  20     96.49       77.7831        0.5987       94.8153       95.4140      17.630922       0.10008
  19     114.6       77.8096        0.7115       94.5412       95.2527      17.443088       0.08771
  18     136.5       77.8305        0.8453       94.2324       95.0777      17.247160       0.07534
  17     162.9       77.8458        1.0044       93.8760       94.8804      17.034609       0.06794
  16     196.4       77.8452        1.2109       93.4358       94.6467      16.801542       0.05867
  15     218.7       77.8376        1.3465       93.1534       94.4999      16.662366       0.05284
  14     243.0       77.8263        1.4939       92.8484       94.3422      16.515986       0.05077
  13     269.0       77.8109        1.6535       92.5208       94.1743      16.363425       0.04949
  12     297.5       77.7917        1.8260       92.1697       93.9958      16.204101       0.04725
  11     328.5       77.7703        2.0124       91.7921       93.8046      16.034314       0.04616
  10     361.9       77.7470        2.2131       91.3873       93.6004      15.853421       0.04577
   9     398.1       77.7223        2.4291       90.9543       93.3834      15.661095       0.04481
   8     437.6       77.6972        2.6610       90.4907       93.1517      15.454569       0.04416
   7     480.5       77.6723        2.9097       89.9955       92.9051      15.232785       0.04356
   6     533.0       77.6462        3.2158       89.3856       92.6014      14.955165       0.04466
   5     589.8       77.6258        3.5459       88.7249       92.2707      14.644952       0.04605
   4     651.6       77.6175        3.9007       88.0034       91.9041      14.286534       0.04901
   3     718.7       77.6290        4.2811       87.2136       91.4947      13.865741       0.05288
   2     792.3       77.6742        4.6872       86.3440       91.0312      13.357053       0.05834
   1     891.5       77.8093        5.2322       85.1249       90.3571      12.547741       0.06887
   0    1013.0       78.1127        5.8813       83.6073       89.4885      11.375864       0.08137



 Wavenumbers: 16000. - 22650. cm-1, ATM      1
 LEVEL PRESSURE   UPWARD FLUX   DIFDOWN FLUX  DIRDOWN FLUX  DOWNWARD FLUX   NET FLUX    HEATING RATE
          mb          W/m2          W/m2          W/m2        W/m2          W/m2       degree/day
  51    .06700      141.6132        0.0000      156.3892      156.3892      14.776017       0.00000
  50    .07753      141.6132        0.0004      156.3887      156.3891      14.775869       0.11901
  49    .09103      141.6132        0.0009      156.3879      156.3888      14.775653       0.13498
  48    0.1069      141.6132        0.0015      156.3871      156.3885      14.775364       0.15393
  47    0.1255      141.6132        0.0021      156.3861      156.3882      14.774977       0.17546
  46    0.1487      141.6133        0.0030      156.3847      156.3877      14.774406       0.20791
  45    0.1794      141.6134        0.0041      156.3828      156.3869      14.773515       0.24480
  44    0.2165      141.6136        0.0054      156.3805      156.3859      14.772305       0.27513
  43    0.2613      141.6140        0.0070      156.3776      156.3846      14.770664       0.30931
  42    0.3336      141.6148        0.0097      156.3726      156.3823      14.767544       0.36374
  41    0.4307      141.6160        0.0132      156.3657      156.3789      14.762842       0.40889
  40    0.5894      141.6187        0.0189      156.3537      156.3725      14.753873       0.47695
  39     1.339      141.6417        0.0459      156.2834      156.3293      14.687610       0.74600
  38     1.782      141.6629        0.0617      156.2324      156.2941      14.631162       1.07468
  37     2.292      141.6947        0.0801      156.1641      156.2442      14.549452       1.35332
  36     2.964      141.7476        0.1042      156.0605      156.1647      14.417081       1.66166
  35     3.853      141.8330        0.1360      155.9041      156.0400      14.207039       1.99334
  34     5.035      141.9619        0.1782      155.6774      155.8555      13.893667       2.23859
  33     6.613      142.1419        0.2345      155.3656      155.6001      13.458164       2.32820
  32     8.786      142.3765        0.3103      154.9577      155.2679      12.891461       2.20087
  31     11.80      142.6818        0.4185      154.4153      154.8338      12.152036       2.07016
  30     15.07      142.9743        0.5346      153.8804      154.4150      11.440707       1.83651
  29     18.79      143.2730        0.6655      153.3191      153.9846      10.711633       1.65304
  28     23.16      143.5852        0.8182      152.7126      153.5308       9.945533       1.48139
  27     28.12      143.8995        0.9926      152.0755      153.0681       9.168548       1.32082
  26     33.73      144.1897        1.1875      151.4409      152.6284       8.438696       1.09735
  25     40.54      144.4692        1.4228      150.7637      152.1865       7.717311       0.89496
  24     48.69      144.7369        1.7061      150.0339      151.7400       7.003098       0.73910
  23     57.69      144.9641        2.0170      149.3151      151.3322       6.368065       0.59525
  22     68.43      145.1626        2.3869      148.5476      150.9345       5.771912       0.46866
  21     81.20      145.3003        2.8273      147.7517      150.5790       5.278736       0.32588
  20     96.49      145.3725        3.3516      146.9127      150.2642       4.891704       0.21361
  19     114.6      145.4106        3.9723      145.9763      149.9486       4.537967       0.16517
  18     136.5      145.4240        4.7052      144.9088      149.6140       4.189979       0.13381
  17     162.9      145.4111        5.5739      143.6786      149.2525       3.841406       0.11142
  16     196.4      145.3320        6.6948      142.1652      148.8600       3.527973       0.07889
  15     218.7      145.2571        7.4272      141.2037      148.6309       3.373728       0.05856
  14     243.0      145.1652        8.2200      140.1760      148.3960       3.230816       0.04957
  13     269.0      145.0545        9.0752      139.0813      148.1565       3.102014       0.04178
  12     297.5      144.9241        9.9949      137.9174      147.9123       2.988233       0.03375
  11     328.5      144.7781       10.9834      136.6736      147.6571       2.878991       0.02970
  10     361.9      144.6159       12.0416      135.3493      147.3909       2.774936       0.02633
   9     398.1      144.4370       13.1735      133.9395      147.1130       2.676015       0.02305
   8     437.6      144.2416       14.3811      132.4409      146.8220       2.580395       0.02044
   7     480.5      144.0289       15.6665      130.8515      146.5180       2.489115       0.01793
   6     533.0      143.7642       17.2363      128.9166      146.1529       2.388735       0.01615
   5     589.8      143.4777       18.9135      126.8541      145.7675       2.289822       0.01468
   4     651.6      143.1705       20.6992      124.6609      145.3602       2.189700       0.01369
   3     718.7      142.8430       22.5956      122.3339      144.9295       2.086533       0.01297
   2     792.3      142.4974       24.6009      119.8728      144.4737       1.976347       0.01264
   1     891.5      142.0435       27.2655      116.5973      143.8629       1.819427       0.01335
   0    1013.0      141.5195       30.4017      112.7326      143.1343       1.614887       0.01420



 Wavenumbers: 22650. - 29000. cm-1, ATM      1
 LEVEL PRESSURE   UPWARD FLUX   DIFDOWN FLUX  DIRDOWN FLUX  DOWNWARD FLUX   NET FLUX    HEATING RATE
          mb          W/m2          W/m2          W/m2        W/m2          W/m2       degree/day
  51    .06700       58.3821        0.0000       59.0156       59.0156       0.633510       0.00000
  50    .07753       58.3820        0.0005       59.0151       59.0155       0.633510       0.00000
  49    .09103       58.3819        0.0010       59.0144       59.0154       0.633510      -0.00000
  48    0.1069       58.3818        0.0017       59.0136       59.0153       0.633510       0.00000
  47    0.1255       58.3816        0.0025       59.0127       59.0151       0.633510       0.00000
  46    0.1487       58.3814        0.0034       59.0115       59.0149       0.633510       0.00000
  45    0.1794       58.3812        0.0048       59.0099       59.0147       0.633510      -0.00000
  44    0.2165       58.3809        0.0063       59.0080       59.0144       0.633510       0.00000
  43    0.2613       58.3805        0.0082       59.0058       59.0140       0.633510       0.00000
  42    0.3336       58.3799        0.0113       59.0022       59.0134       0.633510       0.00000
  41    0.4307       58.3791        0.0153       58.9973       59.0126       0.633510      -0.00000
  40    0.5894       58.3778        0.0220       58.9894       59.0113       0.633510       0.00000
  39     1.339       58.3717        0.0534       58.9518       59.0052       0.633510       0.00000
  38     1.782       58.3681        0.0719       58.9297       59.0016       0.633510       0.00000
  37     2.292       58.3639        0.0933       58.9042       58.9974       0.633510      -0.00000
  36     2.964       58.3584        0.1213       58.8706       58.9920       0.633510       0.00000
  35     3.853       58.3512        0.1584       58.8264       58.9847       0.633510       0.00000
  34     5.035       58.3416        0.2076       58.7676       58.9751       0.633510      -0.00000
  33     6.613       58.3288        0.2732       58.6891       58.9623       0.633510       0.00000
  32     8.786       58.3116        0.3617       58.5834       58.9451       0.633510      -0.00000
  31     11.80       58.2869        0.4880       58.4325       58.9205       0.633510       0.00000
  30     15.07       58.2605        0.6234       58.2706       58.8940       0.633510       0.00000
  29     18.79       58.2308        0.7760       58.0882       58.8643       0.633510      -0.00000
  28     23.16       58.1961        0.9539       57.8757       58.8296       0.633510       0.00000
  27     28.12       58.1565        1.1567       57.6333       58.7900       0.633510      -0.00000
  26     33.73       58.1124        1.3828       57.3631       58.7459       0.633510       0.00000
  25     40.54       58.0593        1.6549       57.0379       58.6928       0.633510       0.00000
  24     48.69       57.9956        1.9812       56.6479       58.6291       0.633510       0.00000
  23     57.69       57.9260        2.3375       56.2221       58.5596       0.633510       0.00000
  22     68.43       57.8438        2.7587       55.7186       58.4773       0.633510      -0.00000
  21     81.20       57.7466        3.2562       55.1239       58.3801       0.633510       0.00000
  20     96.49       57.6320        3.8427       54.4228       58.2655       0.633510       0.00000
  19     114.6       57.4976        4.5301       53.6010       58.1311       0.633510      -0.00000
  18     136.5       57.3407        5.3324       52.6418       57.9742       0.633510      -0.00000
  17     162.9       57.1571        6.2703       51.5204       57.7906       0.633510       0.00000
  16     196.4       56.9244        7.4584       50.0995       57.5579       0.633510      -0.00000
  15     218.7       56.7747        8.2219       49.1863       57.4082       0.633510       0.00000
  14     243.0       56.6148        9.0369       48.2114       57.2483       0.633510      -0.00000
  13     269.0       56.4447        9.9031       47.1752       57.0782       0.633510       0.00000
  12     297.5       56.2647       10.8194       46.0787       56.8982       0.633510      -0.00000
  11     328.5       56.0743       11.7874       44.9204       56.7078       0.633510       0.00000
  10     361.9       55.8741       12.8044       43.7032       56.5076       0.633510       0.00000
   9     398.1       55.6640       13.8703       42.4271       56.2975       0.633510      -0.00000
   8     437.6       55.4444       14.9831       41.0948       56.0779       0.633510       0.00000
   7     480.5       55.2157       16.1401       39.7091       55.8492       0.633510       0.00000
   6     533.0       54.9435       17.5150       38.0620       55.5770       0.633510      -0.00000
   5     589.8       54.6611       18.9386       36.3559       55.2946       0.633510       0.00000
   4     651.6       54.3695       20.4047       34.5983       55.0031       0.633510      -0.00000
   3     718.7       54.0701       21.9065       32.7972       54.7037       0.633510      -0.00000
   2     792.3       53.7644       23.4357       30.9622       54.3979       0.633510      -0.00000
   1     891.5       53.3756       25.3720       28.6371       54.0092       0.633510       0.00000
   0    1013.0       52.9417       27.5222       26.0530       53.5752       0.633510      -0.00000



 Wavenumbers: 29000. - 38000. cm-1, ATM      1
 LEVEL PRESSURE   UPWARD FLUX   DIFDOWN FLUX  DIRDOWN FLUX  DOWNWARD FLUX   NET FLUX    HEATING RATE
          mb          W/m2          W/m2          W/m2        W/m2          W/m2       degree/day
  51    .06700        8.7365        0.0000       20.8114       20.8114      12.074866       0.00000
  50    .07753        8.7363        0.0003       20.8070       20.8074      12.071059       3.05152
  49    .09103        8.7361        0.0007       20.8009       20.8016      12.065522       3.46081
  48    0.1069        8.7358        0.0012       20.7928       20.7939      12.058112       3.94425
  47    0.1255        8.7355        0.0017       20.7820       20.7837      12.048207       4.49029
  46    0.1487        8.7352        0.0024       20.7665       20.7688      12.033644       5.30838
  45    0.1794        8.7347        0.0033       20.7424       20.7457      12.010980       6.22197
  44    0.2165        8.7342        0.0044       20.7103       20.7147      11.980457       6.94332
  43    0.2613        8.7336        0.0056       20.6675       20.6731      11.939463       7.72723
  42    0.3336        8.7327        0.0077       20.5880       20.5956      11.862903       8.92613
  41    0.4307        8.7317        0.0104       20.4722       20.4826      11.750952       9.73389
  40    0.5894        8.7301        0.0147       20.2637       20.2784      11.548271      10.77831
  39     1.339        8.7267        0.0331       19.0984       19.1315      10.404817      12.87322
  38     1.782        8.7271        0.0427       18.4394       18.4820       9.754911      12.37315
  37     2.292        8.7298        0.0530       17.7714       17.8244       9.094593      10.93659
  36     2.964        8.7363        0.0656       17.0421       17.1078       8.371512       9.07685
  35     3.853        8.7490        0.0816       16.2679       16.3494       7.600400       7.31799
  34     5.035        8.7700        0.1017       15.4803       15.5820       6.812005       5.63197
  33     6.613        8.8006        0.1275       14.7157       14.8432       6.042560       4.11346
  32     8.786        8.8410        0.1612       13.9936       14.1548       5.313791       2.83027
  31     11.80        8.8937        0.2082       13.2835       13.4918       4.598066       2.00380
  30     15.07        8.9445        0.2570       12.7394       12.9963       4.051825       1.41029
  29     18.79        8.9970        0.3110       12.2666       12.5776       3.580621       1.06836
  28     23.16        9.0528        0.3725       11.8300       12.2025       3.149743       0.83318
  27     28.12        9.1099        0.4413       11.4279       11.8692       2.759321       0.66369
  26     33.73        9.1625        0.5172       11.0695       11.5866       2.424077       0.50405
  25     40.54        9.2125        0.6078       10.7209       11.3287       2.116176       0.38199
  24     48.69        9.2596        0.7153       10.3742       11.0895       1.829892       0.29626
  23     57.69        9.2982        0.8317       10.0549       10.8866       1.588382       0.22638
  22     68.43        9.3294        0.9682        9.7327       10.7009       1.371586       0.17043
  21     81.20        9.3441        1.1294        9.4134       10.5428       1.198727       0.11422
  20     96.49        9.3405        1.3189        9.0887       10.4076       1.067150       0.07262
  19     114.6        9.3265        1.5378        8.7388       10.2766       0.950039       0.05468
  18     136.5        9.3053        1.7881        8.3549       10.1430       0.837677       0.04321
  17     162.9        9.2768        2.0733        7.9311       10.0045       0.727673       0.03516
  16     196.4        9.2291        2.4267        7.4333        9.8600       0.630857       0.02437
  15     218.7        9.1948        2.6489        7.1296        9.7785       0.583643       0.01793
  14     243.0        9.1572        2.8812        6.8161        9.6973       0.540048       0.01512
  13     269.0        9.1162        3.1227        6.4944        9.6171       0.500907       0.01270
  12     297.5        9.0717        3.3723        6.1659        9.5381       0.466405       0.01023
  11     328.5        9.0253        3.6290        5.8296        9.4587       0.433374       0.00898
  10     361.9        8.9774        3.8904        5.4889        9.3793       0.401963       0.00795
   9     398.1        8.9280        4.1559        5.1443        9.3002       0.372199       0.00693
   8     437.6        8.8778        4.4240        4.7973        9.2214       0.343512       0.00613
   7     480.5        8.8271        4.6926        4.4507        9.1434       0.316280       0.00535
   6     533.0        8.7689        4.9984        4.0571        9.0555       0.286605       0.00477
   5     589.8        8.7116        5.2992        3.6703        8.9695       0.257875       0.00426
   4     651.6        8.6559        5.5928        3.2928        8.8856       0.229767       0.00384
   3     718.7        8.6024        5.8759        2.9287        8.8047       0.202244       0.00346
   2     792.3        8.5520        6.1458        2.5815        8.7273       0.175304       0.00309
   1     891.5        8.4940        6.4624        2.1737        8.6360       0.142049       0.00283
   0    1013.0        8.4383        6.7794        1.7642        8.5436       0.105328       0.00255



 Wavenumbers: 38000. - 50000. cm-1, ATM      1
 LEVEL PRESSURE   UPWARD FLUX   DIFDOWN FLUX  DIRDOWN FLUX  DOWNWARD FLUX   NET FLUX    HEATING RATE
          mb          W/m2          W/m2          W/m2        W/m2          W/m2       degree/day
  51    .06700        0.0061        0.0000        1.2836        1.2836       1.277518       0.00000
  50    .07753        0.0061        0.0001        1.2812        1.2812       1.275183       1.87150
  49    .09103        0.0060        0.0002        1.2777        1.2778       1.271851       2.08247
  48    0.1069        0.0059        0.0002        1.2731        1.2734       1.267473       2.33059
  47    0.1255        0.0058        0.0004        1.2672        1.2675       1.261717       2.60908
  46    0.1487        0.0057        0.0005        1.2586        1.2591       1.253391       3.03499
  45    0.1794        0.0055        0.0007        1.2455        1.2462       1.240623       3.50520
  44    0.2165        0.0054        0.0009        1.2282        1.2291       1.223697       3.85037
  43    0.2613        0.0052        0.0011        1.2054        1.2065       1.201348       4.21261
  42    0.3336        0.0049        0.0015        1.1639        1.1654       1.160524       4.75970
  41    0.4307        0.0045        0.0020        1.1051        1.1070       1.102565       5.03943
  40    0.5894        0.0039        0.0026        1.0039        1.0064       1.002524       5.32007
  39     1.339        0.0022        0.0035        0.5438        0.5473       0.545105       5.14971
  38     1.782        0.0016        0.0032        0.3635        0.3666       0.365006       3.42879
  37     2.292        0.0012        0.0027        0.2356        0.2383       0.237058       2.11916
  36     2.964        0.0009        0.0022        0.1455        0.1477       0.146786       1.13318
  35     3.853        0.0006        0.0017        0.0858        0.0875       0.086906       0.56828
  34     5.035        0.0004        0.0013        0.0488        0.0501       0.049701       0.26578
  33     6.613        0.0003        0.0010        0.0273        0.0282       0.027974       0.11615
  32     8.786        0.0002        0.0007        0.0144        0.0151       0.014928       0.05067
  31     11.80        0.0001        0.0004        0.0065        0.0070       0.006903       0.02247
  30     15.07        0.0000        0.0003        0.0031        0.0034       0.003329       0.00923
  29     18.79        0.0000        0.0002        0.0014        0.0016       0.001583       0.00396
  28     23.16        0.0000        0.0001        0.0006        0.0007       0.000720       0.00167
  27     28.12        0.0000        0.0001        0.0003        0.0003       0.000317       0.00069
  26     33.73        0.0000        0.0000        0.0001        0.0001       0.000140       0.00027
  25     40.54        0.0000        0.0000        0.0000        0.0001       0.000057       0.00010
  24     48.69        0.0000        0.0000        0.0000        0.0000       0.000021       0.00004
  23     57.69        0.0000        0.0000        0.0000        0.0000       0.000008       0.00001
  22     68.43        0.0000        0.0000        0.0000        0.0000       0.000003       0.00000
  21     81.20        0.0000        0.0000        0.0000        0.0000       0.000001       0.00000
  20     96.49        0.0000        0.0000        0.0000        0.0000       0.000000       0.00000
  19     114.6        0.0000        0.0000        0.0000        0.0000       0.000000       0.00000
  18     136.5        0.0000        0.0000        0.0000        0.0000       0.000000       0.00000
  17     162.9        0.0000        0.0000        0.0000        0.0000       0.000000       0.00000
  16     196.4        0.0000        0.0000        0.0000        0.0000       0.000000       0.00000
  15     218.7        0.0000        0.0000        0.0000        0.0000       0.000000       0.00000
  14     243.0        0.0000        0.0000        0.0000        0.0000       0.000000       0.00000
  13     269.0        0.0000        0.0000        0.0000        0.0000       0.000000       0.00000
  12     297.5        0.0000        0.0000        0.0000        0.0000       0.000000       0.00000
  11     328.5        0.0000        0.0000        0.0000        0.0000       0.000000       0.00000
  10     361.9        0.0000        0.0000        0.0000        0.0000       0.000000       0.00000
   9     398.1        0.0000        0.0000        0.0000        0.0000       0.000000       0.00000
   8     437.6        0.0000        0.0000        0.0000        0.0000       0.000000       0.00000
   7     480.5        0.0000        0.0000        0.0000        0.0000       0.000000       0.00000
   6     533.0        0.0000        0.0000        0.0000        0.0000       0.000000       0.00000
   5     589.8        0.0000        0.0000        0.0000        0.0000       0.000000       0.00000
   4     651.6        0.0000        0.0000        0.0000        0.0000       0.000000       0.00000
   3     718.7        0.0000        0.0000        0.0000        0.0000       0.000000       0.00000
   2     792.3        0.0000        0.0000        0.0000        0.0000       0.000000       0.00000
   1     891.5        0.0000        0.0000        0.0000        0.0000       0.000000       0.00000
   0    1013.0        0.0000        0.0000        0.0000        0.0000       0.000000       0.00000



 Wavenumbers:   820. -  2600. cm-1, ATM      1
 LEVEL PRESSURE   UPWARD FLUX   DIFDOWN FLUX  DIRDOWN FLUX  DOWNWARD FLUX   NET FLUX    HEATING RATE
          mb          W/m2          W/m2          W/m2        W/m2          W/m2       degree/day
  51    .06700        1.8622        0.0000        6.0047        6.0047       4.142469       0.00000
  50    .07753        1.8622        0.0000        6.0009        6.0009       4.138682       3.03540
  49    .09103        1.8622        0.0000        6.0001        6.0001       4.137882       0.49991
  48    0.1069        1.8622        0.0000        5.9992        5.9992       4.136996       0.47195
  47    0.1255        1.8622        0.0000        5.9982        5.9982       4.136001       0.45104
  46    0.1487        1.8622        0.0000        5.9970        5.9970       4.134804       0.43609
  45    0.1794        1.8622        0.0000        5.9955        5.9955       4.133312       0.40971
  44    0.2165        1.8622        0.0000        5.9939        5.9939       4.131748       0.35584
  43    0.2613        1.8622        0.0000        5.9923        5.9923       4.130129       0.30506
  42    0.3336        1.8622        0.0000        5.9900        5.9900       4.127833       0.26769
  41    0.4307        1.8622        0.0000        5.9873        5.9873       4.125154       0.23292
  40    0.5894        1.8622        0.0000        5.9832        5.9832       4.120970       0.22250
  39     1.339        1.8622        0.0000        5.9639        5.9639       4.101736       0.21654
  38     1.782        1.8622        0.0000        5.9533        5.9533       4.091107       0.20235
  37     2.292        1.8622        0.0000        5.9414        5.9414       4.079199       0.19724
  36     2.964        1.8622        0.0000        5.9262        5.9262       4.064045       0.19023
  35     3.853        1.8622        0.0000        5.9070        5.9070       4.044782       0.18281
  34     5.035        1.8622        0.0000        5.8825        5.8825       4.020343       0.17458
  33     6.613        1.8622        0.0000        5.8509        5.8509       3.988670       0.16932
  32     8.786        1.8622        0.0000        5.8088        5.8088       3.946587       0.16344
  31     11.80        1.8622        0.0000        5.7531        5.7531       3.890915       0.15586
  30     15.07        1.8622        0.0000        5.7040        5.7040       3.841730       0.12699
  29     18.79        1.8623        0.0000        5.6632        5.6632       3.800911       0.09255
  28     23.16        1.8623        0.0000        5.6317        5.6317       3.769464       0.06081
  27     28.12        1.8623        0.0000        5.6089        5.6089       3.746572       0.03892
  26     33.73        1.8623        0.0000        5.5907        5.5907       3.728366       0.02737
  25     40.54        1.8624        0.0000        5.5719        5.5719       3.709537       0.02336
  24     48.69        1.8625        0.0000        5.5499        5.5499       3.687426       0.02288
  23     57.69        1.8625        0.0000        5.5253        5.5253       3.662753       0.02313
  22     68.43        1.8627        0.0000        5.4955        5.4955       3.632887       0.02348
  21     81.20        1.8628        0.0000        5.4605        5.4605       3.597686       0.02326
  20     96.49        1.8630        0.0000        5.4193        5.4193       3.556342       0.02282
  19     114.6        1.8632        0.0000        5.3722        5.3722       3.509044       0.02208
  18     136.5        1.8635        0.0000        5.3197        5.3197       3.456237       0.02031
  17     162.9        1.8638        0.0000        5.2605        5.2605       3.396700       0.01903
  16     196.4        1.8643        0.0000        5.1867        5.1867       3.322421       0.01870
  15     218.7        1.8647        0.0000        5.1362        5.1362       3.271545       0.01932
  14     243.0        1.8652        0.0000        5.0742        5.0742       3.209079       0.02167
  13     269.0        1.8658        0.0000        4.9958        4.9959       3.130090       0.02562
  12     297.5        1.8666        0.0000        4.8960        4.8960       3.029357       0.02988
  11     328.5        1.8677        0.0000        4.7873        4.7873       2.919640       0.02983
  10     361.9        1.8690        0.0000        4.6758        4.6758       2.806766       0.02856
   9     398.1        1.8707        0.0001        4.5638        4.5639       2.693159       0.02647
   8     437.6        1.8728        0.0001        4.4455        4.4456       2.572771       0.02574
   7     480.5        1.8753        0.0001        4.3116        4.3116       2.436303       0.02680
   6     533.0        1.8791        0.0001        4.1246        4.1246       2.245490       0.03070
   5     589.8        1.8845        0.0001        3.8948        3.8949       2.010380       0.03490
   4     651.6        1.8930        0.0001        3.6308        3.6308       1.737851       0.03727
   3     718.7        1.9061        0.0001        3.4008        3.4009       1.494775       0.03055
   2     792.3        1.9275        0.0001        3.2396        3.2397       1.312196       0.02094
   1     891.5        1.9739        0.0001        3.0859        3.0860       1.112142       0.01702
   0    1013.0        2.0740        0.0001        2.8881        2.8882       0.814184       0.02069

  Modules and versions used in this calculation:

       rrtmg_sw.1col.f90:  $Revision$                    rrtmg_sw_init.f90:  $Revision$        
     rrtmgsw_cldprop.f90:  $Revision$                  rrtmgsw_cldprmc.f90:  NOT USED          
     rrtmg_sw_reftra.f90:  $Revision$                  rrtmg_sw_spcvrt.f90:  NOT USED          
     rrtmg_sw_spcvmc.f90:  NOT USED                    rrtmgsw_setcoef.f90:  NOT USED          
     rrtmg_sw_taumol.f90:  $Revision$                  rrtmg_sw_vrtqdr.f90:  NOT USED          
                rrtatm.f:  NOT USED                             util_xxx.f:  NOT USED          
                 extra.f:  NOT USED                       rrtmg_sw_k_g.f90:  $Revision$        

