

 Wavenumbers:   820. - 50000. cm-1, ATM      1
 LEVEL PRESSURE   UPWARD FLUX   DIFDOWN FLUX  DIRDOWN FLUX  DOWNWARD FLUX   NET FLUX    HEATING RATE
          mb          W/m2          W/m2          W/m2        W/m2          W/m2       degree/day
  51    .06700      387.9249        0.0000      617.8126      617.8126     229.887702       0.00000
  50    .07753      387.9245        0.0013      617.7947      617.7960     229.871506      12.98171
  49    .09103      387.9240        0.0030      617.7776      617.7807     229.856635       9.29457
  48    0.1069      387.9235        0.0050      617.7579      617.7628     229.839304       9.22539
  47    0.1255      387.9230        0.0072      617.7337      617.7409     229.817882       9.71192
  46    0.1487      387.9224        0.0100      617.7005      617.7105     229.788103      10.85456
  45    0.1794      387.9216        0.0138      617.6516      617.6654     229.743749      12.17626
  44    0.2165      387.9209        0.0184      617.5888      617.6072     229.686288      13.07142
  43    0.2613      387.9201        0.0237      617.5080      617.5317     229.611611      14.07625
  42    0.3336      387.9191        0.0325      617.3629      617.3954     229.476251      15.78165
  41    0.4307      387.9183        0.0441      617.1575      617.2016     229.283277      16.77867
  40    0.5894      387.9178        0.0628      616.7981      616.8609     228.943025      18.09417
  39     1.339      387.9335        0.1473      614.9388      615.0861     227.152584      20.15711
  38     1.782      387.9550        0.1948      613.9600      614.1548     226.199800      18.13948
  37     2.292      387.9910        0.2489      612.9971      613.2460     225.255029      15.64787
  36     2.964      388.0551        0.3192      611.9468      612.2660     224.210964      13.10617
  35     3.853      388.1631        0.4114      610.7891      611.2005     223.037378      11.13754
  34     5.035      388.3295        0.5330      609.5163      610.0494     221.719844       9.41192
  33     6.613      388.5642        0.6945      608.1264      608.8209     220.256706       7.82194
  32     8.786      388.8697        0.9111      606.6006      607.5118     218.642073       6.27065
  31     11.80      389.2649        1.2195      604.8194      606.0389     216.773983       5.23006
  30     15.07      389.6406        1.5486      603.2104      604.7590     215.118368       4.27447
  29     18.79      390.0214        1.9188      601.6133      603.5321     213.510671       3.64514
  28     23.16      390.4161        2.3490      599.9503      602.2993     211.883215       3.14697
  27     28.12      390.8088        2.8387      598.2410      601.0797     210.270929       2.74078
  26     33.73      391.1622        3.3845      596.5434      599.9279     208.765708       2.26314
  25     40.54      391.4891        4.0417      594.7162      598.7579     207.268777       1.85711
  24     48.69      391.7862        4.8303      592.7251      597.5554     205.769156       1.55187
  23     57.69      392.0184        5.6922      590.7296      596.4218     204.403387       1.28020
  22     68.43      392.1928        6.7133      588.5477      595.2610     203.068136       1.04969
  21     81.20      392.2585        7.9239      586.1922      594.1160     201.857472       0.79999
  20     96.49      392.2051        9.3571      583.6131      592.9702     200.765087       0.60292
  19     114.6      392.0905       11.0432      580.6786      591.7218     199.631302       0.52940
  18     136.5      391.9108       13.0174      577.3331      590.3506     198.439704       0.45820
  17     162.9      391.6595       15.3340      573.4424      588.7764     197.116874       0.42283
  16     196.4      391.2475       18.2880      568.4276      586.7156     195.468102       0.41502
  15     218.7      390.9482       20.1977      564.8356      585.0333     194.085125       0.52506
  14     243.0      390.6134       22.2458      560.4022      582.6480     192.034597       0.71119
  13     269.0      390.2424       24.4337      554.8523      579.2860     189.043654       0.97025
  12     297.5      389.8372       26.7619      548.2437      575.0057     185.168415       1.14935
  11     328.5      389.4056       29.2370      541.1310      570.3679     180.962320       1.14363
  10     361.9      388.9510       31.8549      533.4185      565.2734     176.322402       1.17395
   9     398.1      388.4774       34.6202      524.9458      559.5660     171.088628       1.21935
   8     437.6      387.9950       37.5313      515.6643      553.1956     165.200643       1.25889
   7     480.5      387.5128       40.5865      505.7593      546.3458     158.833021       1.25058
   6     533.0      386.9835       44.2591      493.6627      537.9217     150.938215       1.27002
   5     589.8      386.5263       48.1118      480.5633      528.6751     142.148821       1.30463
   4     651.6      386.2515       52.1324      465.8986      518.0311     131.779526       1.41803
   3     718.7      386.2888       56.3118      450.1443      506.4560     120.167285       1.45934
   2     792.3      386.9380       60.6295      433.0196      493.6492     106.711124       1.54327
   1     891.5      389.3787       66.2038      409.9158      476.1197      86.740946       1.69937
   0    1013.0      396.2634       72.5462      383.9395      456.4857      60.222279       1.84133



 Wavenumbers:  2600. -  3250. cm-1, ATM      1
 LEVEL PRESSURE   UPWARD FLUX   DIFDOWN FLUX  DIRDOWN FLUX  DOWNWARD FLUX   NET FLUX    HEATING RATE
          mb          W/m2          W/m2          W/m2        W/m2          W/m2       degree/day
  51    .06700        1.0230        0.0000        5.4450        5.4450       4.422004       0.00000
  50    .07753        1.0230        0.0000        5.4450        5.4450       4.421996       0.00640
  49    .09103        1.0230        0.0000        5.4450        5.4450       4.421986       0.00627
  48    0.1069        1.0230        0.0000        5.4450        5.4450       4.421975       0.00613
  47    0.1255        1.0230        0.0000        5.4450        5.4450       4.421961       0.00599
  46    0.1487        1.0230        0.0000        5.4450        5.4450       4.421945       0.00608
  45    0.1794        1.0230        0.0000        5.4450        5.4450       4.421922       0.00625
  44    0.2165        1.0230        0.0000        5.4449        5.4449       4.421895       0.00612
  43    0.2613        1.0230        0.0000        5.4449        5.4449       4.421863       0.00600
  42    0.3336        1.0230        0.0000        5.4448        5.4448       4.421810       0.00617
  41    0.4307        1.0230        0.0000        5.4448        5.4448       4.421739       0.00620
  40    0.5894        1.0230        0.0000        5.4446        5.4446       4.421619       0.00637
  39     1.339        1.0230        0.0000        5.4439        5.4439       4.420912       0.00797
  38     1.782        1.0230        0.0000        5.4434        5.4434       4.420369       0.01034
  37     2.292        1.0230        0.0000        5.4427        5.4427       4.419653       0.01186
  36     2.964        1.0230        0.0000        5.4416        5.4416       4.418614       0.01304
  35     3.853        1.0230        0.0000        5.4402        5.4402       4.417137       0.01402
  34     5.035        1.0230        0.0000        5.4381        5.4381       4.415081       0.01468
  33     6.613        1.0230        0.0000        5.4353        5.4353       4.412300       0.01487
  32     8.786        1.0230        0.0000        5.4317        5.4317       4.408668       0.01411
  31     11.80        1.0230        0.0000        5.4269        5.4269       4.403887       0.01338
  30     15.07        1.0230        0.0000        5.4224        5.4224       4.399361       0.01169
  29     18.79        1.0230        0.0000        5.4180        5.4180       4.394948       0.01000
  28     23.16        1.0230        0.0000        5.4135        5.4135       4.390461       0.00868
  27     28.12        1.0230        0.0000        5.4088        5.4088       4.385812       0.00790
  26     33.73        1.0230        0.0000        5.4036        5.4036       4.380569       0.00788
  25     40.54        1.0230        0.0000        5.3966        5.3967       4.373624       0.00862
  24     48.69        1.0230        0.0000        5.3872        5.3872       4.364143       0.00981
  23     57.69        1.0231        0.0000        5.3754        5.3754       4.352351       0.01105
  22     68.43        1.0231        0.0000        5.3599        5.3599       4.336853       0.01218
  21     81.20        1.0231        0.0000        5.3401        5.3401       4.317004       0.01312
  20     96.49        1.0231        0.0000        5.3155        5.3155       4.292415       0.01357
  19     114.6        1.0232        0.0000        5.2852        5.2852       4.262077       0.01417
  18     136.5        1.0232        0.0001        5.2502        5.2503       4.227022       0.01348
  17     162.9        1.0233        0.0001        5.2106        5.2107       4.187385       0.01267
  16     196.4        1.0235        0.0001        5.1632        5.1633       4.139766       0.01199
  15     218.7        1.0237        0.0001        5.1314        5.1315       4.107801       0.01214
  14     243.0        1.0240        0.0001        5.0932        5.0933       4.069230       0.01338
  13     269.0        1.0246        0.0001        5.0459        5.0461       4.021474       0.01549
  12     297.5        1.0254        0.0001        4.9873        4.9874       3.962013       0.01764
  11     328.5        1.0265        0.0001        4.9176        4.9178       3.891258       0.01924
  10     361.9        1.0280        0.0001        4.8319        4.8321       3.804033       0.02207
   9     398.1        1.0301        0.0001        4.7232        4.7234       3.693241       0.02581
   8     437.6        1.0330        0.0002        4.5834        4.5836       3.550644       0.03049
   7     480.5        1.0368        0.0002        4.4130        4.4131       3.376351       0.03423
   6     533.0        1.0429        0.0002        4.1837        4.1838       3.140962       0.03787
   5     589.8        1.0520        0.0002        3.9218        3.9220       2.869965       0.04022
   4     651.6        1.0663        0.0002        3.6298        3.6300       2.563761       0.04187
   3     718.7        1.0887        0.0002        3.3129        3.3131       2.224425       0.04265
   2     792.3        1.1256        0.0002        2.9525        2.9527       1.827067       0.04557
   1     891.5        1.2104        0.0002        2.4661        2.4663       1.255866       0.04861
   0    1013.0        1.4117        0.0002        1.9657        1.9659       0.554180       0.04872



 Wavenumbers:  3250. -  4000. cm-1, ATM      1
 LEVEL PRESSURE   UPWARD FLUX   DIFDOWN FLUX  DIRDOWN FLUX  DOWNWARD FLUX   NET FLUX    HEATING RATE
          mb          W/m2          W/m2          W/m2        W/m2          W/m2       degree/day
  51    .06700        0.0005        0.0000        9.1795        9.1795       9.179064       0.00000
  50    .07753        0.0005        0.0000        9.1747        9.1747       9.174188       3.90829
  49    .09103        0.0005        0.0000        9.1712        9.1712       9.170769       2.13714
  48    0.1069        0.0005        0.0000        9.1687        9.1687       9.168209       1.36263
  47    0.1255        0.0005        0.0000        9.1664        9.1664       9.165913       1.04111
  46    0.1487        0.0005        0.0000        9.1639        9.1639       9.163430       0.90478
  45    0.1794        0.0005        0.0000        9.1610        9.1610       9.160501       0.80415
  44    0.2165        0.0005        0.0000        9.1580        9.1580       9.157527       0.67657
  43    0.2613        0.0005        0.0000        9.1550        9.1550       9.154492       0.57201
  42    0.3336        0.0005        0.0000        9.1507        9.1507       9.150207       0.49958
  41    0.4307        0.0005        0.0000        9.1458        9.1458       9.145309       0.42589
  40    0.5894        0.0005        0.0000        9.1386        9.1386       9.138091       0.38385
  39     1.339        0.0005        0.0000        9.1113        9.1113       9.110854       0.30664
  38     1.782        0.0005        0.0000        9.0995        9.0995       9.099079       0.22418
  37     2.292        0.0005        0.0000        9.0883        9.0883       9.087849       0.18599
  36     2.964        0.0005        0.0000        9.0757        9.0757       9.075225       0.15848
  35     3.853        0.0005        0.0000        9.0606        9.0606       9.060184       0.14274
  34     5.035        0.0005        0.0000        9.0415        9.0415       9.041083       0.13645
  33     6.613        0.0005        0.0000        9.0160        9.0160       9.015568       0.13640
  32     8.786        0.0005        0.0000        8.9805        8.9805       8.980063       0.13789
  31     11.80        0.0005        0.0000        8.9281        8.9281       8.927625       0.14681
  30     15.07        0.0004        0.0000        8.8703        8.8703       8.869903       0.14903
  29     18.79        0.0004        0.0000        8.8047        8.8047       8.804248       0.14886
  28     23.16        0.0004        0.0000        8.7295        8.7296       8.729144       0.14523
  27     28.12        0.0004        0.0000        8.6480        8.6480       8.647602       0.13862
  26     33.73        0.0004        0.0000        8.5642        8.5643       8.563832       0.12595
  25     40.54        0.0004        0.0001        8.4733        8.4733       8.472911       0.11280
  24     48.69        0.0004        0.0001        8.3756        8.3757       8.375281       0.10103
  23     57.69        0.0004        0.0001        8.2772        8.2772       8.276859       0.09226
  22     68.43        0.0004        0.0001        8.1651        8.1652       8.164821       0.08808
  21     81.20        0.0004        0.0001        8.0343        8.0344       8.034049       0.08641
  20     96.49        0.0003        0.0001        7.8819        7.8821       7.881728       0.08407
  19     114.6        0.0003        0.0001        7.6999        7.7001       7.699742       0.08497
  18     136.5        0.0003        0.0002        7.4997        7.4998       7.499537       0.07698
  17     162.9        0.0003        0.0002        7.2657        7.2659       7.265657       0.07476
  16     196.4        0.0002        0.0002        6.9249        6.9252       6.924931       0.08576
  15     218.7        0.0002        0.0002        6.6122        6.6124       6.612192       0.11874
  14     243.0        0.0002        0.0002        6.1904        6.1906       6.190454       0.14627
  13     269.0        0.0002        0.0002        5.6644        5.6646       5.664486       0.17062
  12     297.5        0.0001        0.0002        5.0520        5.0523       5.052152       0.18161
  11     328.5        0.0001        0.0002        4.4356        4.4358       4.435687       0.16762
  10     361.9        0.0001        0.0002        3.8517        3.8520       3.851874       0.14771
   9     398.1        0.0001        0.0002        3.3187        3.3189       3.318856       0.12418
   8     437.6        0.0001        0.0002        2.8352        2.8354       2.835301       0.10339
   7     480.5        0.0001        0.0002        2.3959        2.3961       2.396068       0.08626
   6     533.0        0.0000        0.0002        1.9307        1.9308       1.930796       0.07485
   5     589.8        0.0000        0.0001        1.4876        1.4878       1.487754       0.06576
   4     651.6        0.0000        0.0001        1.0350        1.0351       1.035054       0.06191
   3     718.7        0.0000        0.0001        0.6362        0.6363       0.636267       0.05012
   2     792.3        0.0001        0.0000        0.3187        0.3188       0.318710       0.03642
   1     891.5        0.0002        0.0000        0.0738        0.0738       0.073646       0.02085
   0    1013.0        0.0028        0.0000        0.0039        0.0039       0.001097       0.00504



 Wavenumbers:  4000. -  4650. cm-1, ATM      1
 LEVEL PRESSURE   UPWARD FLUX   DIFDOWN FLUX  DIRDOWN FLUX  DOWNWARD FLUX   NET FLUX    HEATING RATE
          mb          W/m2          W/m2          W/m2        W/m2          W/m2       degree/day
  51    .06700        4.3067        0.0000       10.7795       10.7795       6.472879       0.00000
  50    .07753        4.3067        0.0000       10.7795       10.7795       6.472878       0.00080
  49    .09103        4.3067        0.0000       10.7795       10.7795       6.472877       0.00078
  48    0.1069        4.3067        0.0000       10.7795       10.7795       6.472875       0.00076
  47    0.1255        4.3067        0.0000       10.7795       10.7795       6.472873       0.00075
  46    0.1487        4.3067        0.0000       10.7795       10.7795       6.472871       0.00076
  45    0.1794        4.3067        0.0000       10.7795       10.7795       6.472869       0.00078
  44    0.2165        4.3067        0.0000       10.7795       10.7795       6.472865       0.00076
  43    0.2613        4.3067        0.0000       10.7795       10.7795       6.472861       0.00075
  42    0.3336        4.3067        0.0000       10.7795       10.7795       6.472855       0.00077
  41    0.4307        4.3067        0.0000       10.7795       10.7795       6.472846       0.00077
  40    0.5894        4.3067        0.0000       10.7795       10.7795       6.472831       0.00079
  39     1.339        4.3067        0.0000       10.7794       10.7794       6.472742       0.00100
  38     1.782        4.3067        0.0000       10.7793       10.7793       6.472672       0.00133
  37     2.292        4.3067        0.0000       10.7792       10.7792       6.472578       0.00155
  36     2.964        4.3067        0.0000       10.7791       10.7791       6.472438       0.00176
  35     3.853        4.3067        0.0000       10.7789       10.7789       6.472230       0.00197
  34     5.035        4.3067        0.0000       10.7786       10.7786       6.471924       0.00219
  33     6.613        4.3066        0.0000       10.7781       10.7781       6.471473       0.00241
  32     8.786        4.3066        0.0000       10.7774       10.7775       6.470808       0.00258
  31     11.80        4.3066        0.0001       10.7763       10.7764       6.469763       0.00293
  30     15.07        4.3066        0.0001       10.7751       10.7752       6.468537       0.00317
  29     18.79        4.3066        0.0001       10.7736       10.7737       6.467054       0.00336
  28     23.16        4.3066        0.0001       10.7717       10.7718       6.465214       0.00356
  27     28.12        4.3066        0.0001       10.7695       10.7696       6.462987       0.00379
  26     33.73        4.3066        0.0002       10.7667       10.7668       6.460241       0.00413
  25     40.54        4.3066        0.0002       10.7629       10.7631       6.456518       0.00462
  24     48.69        4.3066        0.0002       10.7580       10.7582       6.451559       0.00513
  23     57.69        4.3066        0.0003       10.7520       10.7523       6.445683       0.00551
  22     68.43        4.3066        0.0003       10.7447       10.7450       6.438323       0.00579
  21     81.20        4.3067        0.0004       10.7356       10.7360       6.429264       0.00599
  20     96.49        4.3068        0.0004       10.7246       10.7250       6.418249       0.00608
  19     114.6        4.3069        0.0005       10.7108       10.7113       6.404398       0.00647
  18     136.5        4.3071        0.0006       10.6942       10.6948       6.387715       0.00641
  17     162.9        4.3074        0.0007       10.6739       10.6746       6.367239       0.00654
  16     196.4        4.3079        0.0009       10.6459       10.6468       6.338894       0.00713
  15     218.7        4.3085        0.0010       10.6245       10.6255       6.317003       0.00831
  14     243.0        4.3093        0.0011       10.5960       10.5971       6.287771       0.01014
  13     269.0        4.3106        0.0012       10.5572       10.5584       6.247759       0.01298
  12     297.5        4.3127        0.0013       10.5052       10.5065       6.193819       0.01600
  11     328.5        4.3155        0.0014       10.4385       10.4399       6.124370       0.01888
  10     361.9        4.3191        0.0016       10.3521       10.3537       6.034582       0.02272
   9     398.1        4.3236        0.0017       10.2416       10.2433       5.919655       0.02678
   8     437.6        4.3293        0.0019       10.1041       10.1059       5.776676       0.03057
   7     480.5        4.3363        0.0020        9.9454        9.9475       5.611183       0.03250
   6     533.0        4.3468        0.0022        9.7453        9.7475       5.400767       0.03385
   5     589.8        4.3614        0.0024        9.5176        9.5200       5.158510       0.03596
   4     651.6        4.3841        0.0026        9.2167        9.2192       4.835190       0.04421
   3     718.7        4.4196        0.0028        8.8169        8.8197       4.400114       0.05468
   2     792.3        4.4790        0.0029        8.3168        8.3197       3.840731       0.06416
   1     891.5        4.6178        0.0031        7.6368        7.6399       3.022065       0.06966
   0    1013.0        4.9480        0.0032        6.8869        6.8901       1.942073       0.07499



 Wavenumbers:  4650. -  5150. cm-1, ATM      1
 LEVEL PRESSURE   UPWARD FLUX   DIFDOWN FLUX  DIRDOWN FLUX  DOWNWARD FLUX   NET FLUX    HEATING RATE
          mb          W/m2          W/m2          W/m2        W/m2          W/m2       degree/day
  51    .06700        3.0551        0.0000       10.2033       10.2033       7.148244       0.00000
  50    .07753        3.0551        0.0000       10.2031       10.2031       7.148009       0.18912
  49    .09103        3.0551        0.0000       10.2028       10.2028       7.147714       0.18439
  48    0.1069        3.0551        0.0000       10.2025       10.2025       7.147376       0.17942
  47    0.1255        3.0551        0.0000       10.2021       10.2021       7.146992       0.17436
  46    0.1487        3.0551        0.0000       10.2016       10.2016       7.146510       0.17546
  45    0.1794        3.0551        0.0000       10.2010       10.2010       7.145860       0.17861
  44    0.2165        3.0551        0.0000       10.2002       10.2002       7.145100       0.17288
  43    0.2613        3.0551        0.0000       10.1993       10.1993       7.144214       0.16700
  42    0.3336        3.0551        0.0000       10.1979       10.1979       7.142781       0.16712
  41    0.4307        3.0551        0.0000       10.1960       10.1960       7.140939       0.16012
  40    0.5894        3.0551        0.0000       10.1932       10.1932       7.138063       0.15292
  39     1.339        3.0551        0.0000       10.1815       10.1816       7.126465       0.13058
  38     1.782        3.0551        0.0000       10.1760       10.1760       7.120933       0.10532
  37     2.292        3.0551        0.0000       10.1705       10.1706       7.115473       0.09043
  36     2.964        3.0551        0.0000       10.1646       10.1646       7.109547       0.07440
  35     3.853        3.0551        0.0000       10.1584       10.1584       7.103329       0.05901
  34     5.035        3.0551        0.0000       10.1520       10.1521       7.096990       0.04528
  33     6.613        3.0551        0.0000       10.1456       10.1456       7.090529       0.03454
  32     8.786        3.0551        0.0001       10.1385       10.1386       7.083515       0.02724
  31     11.80        3.0551        0.0001       10.1295       10.1295       7.074471       0.02532
  30     15.07        3.0551        0.0001       10.1196       10.1197       7.064587       0.02552
  29     18.79        3.0551        0.0001       10.1075       10.1076       7.052574       0.02724
  28     23.16        3.0551        0.0002       10.0922       10.0923       7.037262       0.02961
  27     28.12        3.0551        0.0002       10.0731       10.0733       7.018157       0.03248
  26     33.73        3.0551        0.0002       10.0499       10.0502       6.995050       0.03474
  25     40.54        3.0552        0.0003       10.0200       10.0203       6.965129       0.03712
  24     48.69        3.0552        0.0003        9.9818        9.9821       6.926932       0.03953
  23     57.69        3.0553        0.0004        9.9383        9.9387       6.883362       0.04084
  22     68.43        3.0554        0.0004        9.8856        9.8860       6.830589       0.04149
  21     81.20        3.0556        0.0005        9.8232        9.8238       6.768145       0.04126
  20     96.49        3.0559        0.0006        9.7515        9.7521       6.696259       0.03968
  19     114.6        3.0562        0.0007        9.6716        9.6723       6.616104       0.03743
  18     136.5        3.0568        0.0009        9.5854        9.5863       6.529529       0.03329
  17     162.9        3.0575        0.0010        9.4936        9.4946       6.437109       0.02954
  16     196.4        3.0587        0.0012        9.3877        9.3889       6.330202       0.02691
  15     218.7        3.0596        0.0013        9.3220        9.3234       6.263770       0.02522
  14     243.0        3.0609        0.0015        9.2505        9.2520       6.191062       0.02522
  13     269.0        3.0627        0.0016        9.1687        9.1703       6.107633       0.02706
  12     297.5        3.0654        0.0018        9.0707        9.0725       6.007160       0.02980
  11     328.5        3.0688        0.0020        8.9567        8.9586       5.889841       0.03190
  10     361.9        3.0733        0.0021        8.8223        8.8244       5.751106       0.03510
   9     398.1        3.0792        0.0023        8.6645        8.6668       5.587626       0.03809
   8     437.6        3.0868        0.0025        8.4776        8.4801       5.393271       0.04155
   7     480.5        3.0967        0.0027        8.2613        8.2640       5.167292       0.04438
   6     533.0        3.1118        0.0029        7.9755        7.9784       4.866532       0.04838
   5     589.8        3.1327        0.0031        7.6485        7.6516       4.518881       0.05160
   4     651.6        3.1634        0.0033        7.2708        7.2740       4.110619       0.05583
   3     718.7        3.2090        0.0035        6.8548        6.8583       3.649254       0.05798
   2     792.3        3.2788        0.0036        6.4106        6.4142       3.135488       0.05892
   1     891.5        3.4270        0.0038        5.8193        5.8231       2.396103       0.06292
   0    1013.0        3.7225        0.0039        5.1794        5.1834       1.460895       0.06494



 Wavenumbers:  5150. -  6150. cm-1, ATM      1
 LEVEL PRESSURE   UPWARD FLUX   DIFDOWN FLUX  DIRDOWN FLUX  DOWNWARD FLUX   NET FLUX    HEATING RATE
          mb          W/m2          W/m2          W/m2        W/m2          W/m2       degree/day
  51    .06700        7.8728        0.0000       25.5798       25.5798      17.707043       0.00000
  50    .07753        7.8728        0.0000       25.5798       25.5798      17.706997       0.03689
  49    .09103        7.8728        0.0000       25.5797       25.5797      17.706937       0.03745
  48    0.1069        7.8728        0.0000       25.5796       25.5796      17.706865       0.03805
  47    0.1255        7.8728        0.0000       25.5796       25.5796      17.706780       0.03863
  46    0.1487        7.8728        0.0000       25.5794       25.5794      17.706668       0.04070
  45    0.1794        7.8728        0.0000       25.5793       25.5793      17.706510       0.04332
  44    0.2165        7.8728        0.0000       25.5791       25.5791      17.706317       0.04397
  43    0.2613        7.8728        0.0000       25.5788       25.5789      17.706080       0.04464
  42    0.3336        7.8728        0.0000       25.5784       25.5784      17.705676       0.04716
  41    0.4307        7.8728        0.0000       25.5779       25.5779      17.705126       0.04778
  40    0.5894        7.8728        0.0000       25.5770       25.5770      17.704206       0.04894
  39     1.339        7.8728        0.0000       25.5725       25.5725      17.699780       0.04983
  38     1.782        7.8728        0.0001       25.5699       25.5700      17.697209       0.04895
  37     2.292        7.8727        0.0001       25.5670       25.5671      17.694304       0.04811
  36     2.964        7.8727        0.0001       25.5633       25.5634      17.690621       0.04623
  35     3.853        7.8727        0.0001       25.5586       25.5587      17.685953       0.04430
  34     5.035        7.8727        0.0001       25.5525       25.5527      17.679961       0.04281
  33     6.613        7.8727        0.0002       25.5447       25.5449      17.672220       0.04138
  32     8.786        7.8727        0.0003       25.5347       25.5349      17.662243       0.03875
  31     11.80        7.8727        0.0004       25.5212       25.5215      17.648848       0.03750
  30     15.07        7.8727        0.0005       25.5078       25.5082      17.635553       0.03433
  29     18.79        7.8727        0.0006       25.4939       25.4944      17.621741       0.03132
  28     23.16        7.8727        0.0007       25.4789       25.4796      17.606958       0.02859
  27     28.12        7.8727        0.0008       25.4634       25.4643      17.591583       0.02614
  26     33.73        7.8727        0.0010       25.4478       25.4488      17.576147       0.02321
  25     40.54        7.8727        0.0012       25.4310       25.4322      17.559466       0.02070
  24     48.69        7.8728        0.0015       25.4131       25.4146      17.541789       0.01829
  23     57.69        7.8729        0.0017       25.3956       25.3973      17.524372       0.01633
  22     68.43        7.8731        0.0020       25.3766       25.3787      17.505624       0.01474
  21     81.20        7.8733        0.0024       25.3560       25.3584      17.485154       0.01353
  20     96.49        7.8735        0.0029       25.3329       25.3357      17.462227       0.01265
  19     114.6        7.8738        0.0034       25.3064       25.3098      17.436026       0.01223
  18     136.5        7.8742        0.0040       25.2757       25.2797      17.405501       0.01174
  17     162.9        7.8747        0.0048       25.2301       25.2349      17.360206       0.01448
  16     196.4        7.8754        0.0058       25.1321       25.1379      17.262489       0.02460
  15     218.7        7.8759        0.0064       24.9741       24.9805      17.104601       0.05994
  14     243.0        7.8766        0.0070       24.6311       24.6381      16.761545       0.11898
  13     269.0        7.8775        0.0077       24.0393       24.0469      16.169474       0.19206
  12     297.5        7.8786        0.0083       23.3028       23.3111      15.432500       0.21858
  11     328.5        7.8801        0.0089       22.5428       22.5517      14.671548       0.20690
  10     361.9        7.8820        0.0095       21.6734       21.6829      13.800867       0.22029
   9     398.1        7.8845        0.0101       20.7013       20.7114      12.826874       0.22692
   8     437.6        7.8878        0.0107       19.6612       19.6719      11.784126       0.22295
   7     480.5        7.8920        0.0112       18.6097       18.6209      10.728877       0.20725
   6     533.0        7.8988        0.0118       17.4450       17.4569       9.558078       0.18834
   5     589.8        7.9090        0.0125       16.3681       16.3805       8.471554       0.16128
   4     651.6        7.9262        0.0131       15.3777       15.3909       7.464666       0.13769
   3     718.7        7.9553        0.0139       14.5615       14.5754       6.620145       0.10613
   2     792.3        8.0071        0.0147       13.8243       13.8390       5.831940       0.09040
   1     891.5        8.1357        0.0157       12.8401       12.8558       4.720133       0.09461
   0    1013.0        8.4889        0.0168       11.8027       11.8195       3.330646       0.09648



 Wavenumbers:  6150. -  7700. cm-1, ATM      1
 LEVEL PRESSURE   UPWARD FLUX   DIFDOWN FLUX  DIRDOWN FLUX  DOWNWARD FLUX   NET FLUX    HEATING RATE
          mb          W/m2          W/m2          W/m2        W/m2          W/m2       degree/day
  51    .06700       11.4160        0.0000       47.3109       47.3109      35.894899       0.00000
  50    .07753       11.4160        0.0000       47.3108       47.3108      35.894835       0.05102
  49    .09103       11.4160        0.0000       47.3107       47.3107      35.894753       0.05141
  48    0.1069       11.4160        0.0000       47.3106       47.3106      35.894655       0.05182
  47    0.1255       11.4160        0.0000       47.3105       47.3105      35.894540       0.05222
  46    0.1487       11.4160        0.0000       47.3103       47.3103      35.894390       0.05462
  45    0.1794       11.4160        0.0000       47.3101       47.3101      35.894180       0.05776
  44    0.2165       11.4159        0.0000       47.3099       47.3099      35.893924       0.05828
  43    0.2613       11.4159        0.0000       47.3095       47.3096      35.893612       0.05882
  42    0.3336       11.4159        0.0000       47.3090       47.3090      35.893082       0.06181
  41    0.4307       11.4159        0.0000       47.3082       47.3083      35.892364       0.06241
  40    0.5894       11.4159        0.0001       47.3070       47.3071      35.891165       0.06372
  39     1.339       11.4158        0.0002       47.3011       47.3013      35.885406       0.06485
  38     1.782       11.4158        0.0002       47.2976       47.2979      35.882049       0.06390
  37     2.292       11.4158        0.0003       47.2937       47.2940      35.878239       0.06311
  36     2.964       11.4157        0.0004       47.2887       47.2891      35.873373       0.06109
  35     3.853       11.4156        0.0005       47.2823       47.2828      35.867147       0.05908
  34     5.035       11.4155        0.0006       47.2740       47.2746      35.859087       0.05758
  33     6.613       11.4154        0.0008       47.2632       47.2640      35.848571       0.05621
  32     8.786       11.4152        0.0011       47.2490       47.2500      35.834835       0.05335
  31     11.80       11.4149        0.0014       47.2295       47.2310      35.816031       0.05264
  30     15.07       11.4147        0.0018       47.2097       47.2115      35.796889       0.04942
  29     18.79       11.4143        0.0023       47.1886       47.1909      35.776527       0.04617
  28     23.16       11.4140        0.0028       47.1653       47.1681      35.754173       0.04323
  27     28.12       11.4135        0.0034       47.1403       47.1437      35.730185       0.04078
  26     33.73       11.4130        0.0041       47.1143       47.1184      35.705325       0.03738
  25     40.54       11.4125        0.0049       47.0852       47.0902      35.677698       0.03427
  24     48.69       11.4118        0.0059       47.0534       47.0593      35.647533       0.03122
  23     57.69       11.4110        0.0070       47.0211       47.0281      35.617083       0.02854
  22     68.43       11.4101        0.0083       46.9853       46.9936      35.583540       0.02637
  21     81.20       11.4090        0.0098       46.9453       46.9552      35.546180       0.02469
  20     96.49       11.4077        0.0117       46.8997       46.9114      35.503751       0.02342
  19     114.6       11.4061        0.0139       46.8471       46.8609      35.454814       0.02285
  18     136.5       11.4043        0.0165       46.7854       46.8018      35.397545       0.02202
  17     162.9       11.4021        0.0196       46.6973       46.7169      35.314785       0.02645
  16     196.4       11.3993        0.0236       46.5212       46.5447      35.145411       0.04263
  15     218.7       11.3976        0.0261       46.2830       46.3091      34.911564       0.08878
  14     243.0       11.3958        0.0288       45.8249       45.8536      34.457819       0.15737
  13     269.0       11.3942        0.0314       44.9826       45.0141      33.619883       0.27182
  12     297.5       11.3929        0.0340       43.7347       43.7686      32.375755       0.36899
  11     328.5       11.3921        0.0365       42.3858       42.4223      31.030253       0.36584
  10     361.9       11.3920        0.0391       40.9388       40.9779      29.585956       0.36542
   9     398.1       11.3930        0.0417       39.2804       39.3220      27.929040       0.38602
   8     437.6       11.3958        0.0440       37.3949       37.4389      26.043055       0.40324
   7     480.5       11.4013        0.0461       35.4077       35.4538      24.052504       0.39094
   6     533.0       11.4127        0.0484       33.0765       33.1249      21.712239       0.37647
   5     589.8       11.4337        0.0505       30.6901       30.7406      19.306922       0.35703
   4     651.6       11.4746        0.0521       28.1696       28.2217      16.747060       0.35007
   3     718.7       11.5496        0.0536       25.7130       25.7666      14.217025       0.31796
   2     792.3       11.6892        0.0547       23.3288       23.3835      11.694294       0.28933
   1     891.5       12.0429        0.0560       20.5914       20.6474       8.604411       0.26293
   0    1013.0       12.9793        0.0574       18.0110       18.0684       5.089120       0.24408



 Wavenumbers:  7700. -  8050. cm-1, ATM      1
 LEVEL PRESSURE   UPWARD FLUX   DIFDOWN FLUX  DIRDOWN FLUX  DOWNWARD FLUX   NET FLUX    HEATING RATE
          mb          W/m2          W/m2          W/m2        W/m2          W/m2       degree/day
  51    .06700        6.2705        0.0000       11.1810       11.1810       4.910470       0.00000
  50    .07753        6.2705        0.0000       11.1809       11.1809       4.910448       0.01749
  49    .09103        6.2705        0.0000       11.1809       11.1809       4.910421       0.01714
  48    0.1069        6.2705        0.0000       11.1809       11.1809       4.910389       0.01678
  47    0.1255        6.2705        0.0000       11.1809       11.1809       4.910353       0.01642
  46    0.1487        6.2705        0.0000       11.1808       11.1808       4.910308       0.01667
  45    0.1794        6.2705        0.0000       11.1808       11.1808       4.910245       0.01715
  44    0.2165        6.2705        0.0000       11.1807       11.1807       4.910171       0.01682
  43    0.2613        6.2706        0.0000       11.1806       11.1806       4.910084       0.01651
  42    0.3336        6.2706        0.0000       11.1805       11.1805       4.909939       0.01689
  41    0.4307        6.2706        0.0000       11.1803       11.1804       4.909746       0.01671
  40    0.5894        6.2707        0.0000       11.1801       11.1801       4.909433       0.01669
  39     1.339        6.2709        0.0001       11.1788       11.1789       4.907948       0.01671
  38     1.782        6.2711        0.0001       11.1781       11.1782       4.907076       0.01660
  37     2.292        6.2713        0.0001       11.1772       11.1773       4.906066       0.01672
  36     2.964        6.2715        0.0002       11.1761       11.1762       4.904741       0.01664
  35     3.853        6.2718        0.0002       11.1746       11.1748       4.902990       0.01662
  34     5.035        6.2722        0.0003       11.1726       11.1729       4.900664       0.01661
  33     6.613        6.2728        0.0004       11.1700       11.1703       4.897558       0.01661
  32     8.786        6.2735        0.0005       11.1664       11.1669       4.893373       0.01625
  31     11.80        6.2746        0.0007       11.1613       11.1620       4.887391       0.01675
  30     15.07        6.2757        0.0008       11.1558       11.1567       4.880973       0.01657
  29     18.79        6.2770        0.0011       11.1497       11.1507       4.873731       0.01642
  28     23.16        6.2785        0.0013       11.1425       11.1438       4.865283       0.01634
  27     28.12        6.2803        0.0016       11.1343       11.1359       4.855637       0.01640
  26     33.73        6.2822        0.0019       11.1252       11.1271       4.844863       0.01620
  25     40.54        6.2846        0.0023       11.1142       11.1165       4.831877       0.01611
  24     48.69        6.2875        0.0027       11.1010       11.1037       4.816268       0.01615
  23     57.69        6.2906        0.0032       11.0866       11.0898       4.799180       0.01602
  22     68.43        6.2944        0.0038       11.0695       11.0733       4.778911       0.01593
  21     81.20        6.2990        0.0045       11.0494       11.0539       4.754880       0.01588
  20     96.49        6.3045        0.0054       11.0255       11.0309       4.726411       0.01571
  19     114.6        6.3111        0.0063       10.9975       11.0039       4.692838       0.01568
  18     136.5        6.3189        0.0075       10.9648       10.9723       4.653362       0.01518
  17     162.9        6.3285        0.0089       10.9263       10.9352       4.606777       0.01489
  16     196.4        6.3410        0.0108       10.8773       10.8880       4.547009       0.01504
  15     218.7        6.3494        0.0119       10.8455       10.8575       4.508096       0.01477
  14     243.0        6.3586        0.0132       10.8114       10.8247       4.466033       0.01459
  13     269.0        6.3689        0.0146       10.7748       10.7895       4.420629       0.01473
  12     297.5        6.3801        0.0162       10.7356       10.7518       4.371624       0.01453
  11     328.5        6.3927        0.0178       10.6935       10.7113       4.318673       0.01440
  10     361.9        6.4066        0.0196       10.6485       10.6681       4.261502       0.01446
   9     398.1        6.4221        0.0215       10.6001       10.6216       4.199537       0.01444
   8     437.6        6.4395        0.0235       10.5481       10.5715       4.132064       0.01443
   7     480.5        6.4591        0.0257       10.4919       10.5176       4.058504       0.01445
   6     533.0        6.4847        0.0283       10.4218       10.4501       3.965435       0.01497
   5     589.8        6.5147        0.0312       10.3439       10.3751       3.860438       0.01559
   4     651.6        6.5510        0.0343       10.2550       10.2893       3.738275       0.01671
   3     718.7        6.5959        0.0375       10.1518       10.1894       3.593492       0.01820
   2     792.3        6.6533        0.0410       10.0284       10.0694       3.416121       0.02034
   1     891.5        6.7514        0.0455        9.8360        9.8815       3.130117       0.02434
   0    1013.0        6.9090        0.0507        9.5653        9.6159       2.706879       0.02939



 Wavenumbers:  8050. - 12850. cm-1, ATM      1
 LEVEL PRESSURE   UPWARD FLUX   DIFDOWN FLUX  DIRDOWN FLUX  DOWNWARD FLUX   NET FLUX    HEATING RATE
          mb          W/m2          W/m2          W/m2        W/m2          W/m2       degree/day
  51    .06700       75.2572        0.0000      156.5418      156.5418      81.284523       0.00000
  50    .07753       75.2572        0.0000      156.5417      156.5417      81.284523       0.00000
  49    .09103       75.2572        0.0001      156.5417      156.5417      81.284523      -0.00000
  48    0.1069       75.2572        0.0001      156.5416      156.5417      81.284523       0.00000
  47    0.1255       75.2572        0.0002      156.5415      156.5417      81.284523      -0.00000
  46    0.1487       75.2571        0.0002      156.5414      156.5416      81.284523       0.00000
  45    0.1794       75.2571        0.0003      156.5413      156.5416      81.284523       0.00000
  44    0.2165       75.2570        0.0004      156.5412      156.5416      81.284523      -0.00000
  43    0.2613       75.2570        0.0005      156.5410      156.5415      81.284523       0.00000
  42    0.3336       75.2569        0.0007      156.5407      156.5414      81.284523      -0.00000
  41    0.4307       75.2568        0.0010      156.5403      156.5413      81.284523       0.00000
  40    0.5894       75.2566        0.0014      156.5397      156.5411      81.284523      -0.00000
  39     1.339       75.2556        0.0034      156.5367      156.5401      81.284523       0.00000
  38     1.782       75.2550        0.0046      156.5350      156.5396      81.284523       0.00000
  37     2.292       75.2544        0.0059      156.5330      156.5389      81.284523       0.00000
  36     2.964       75.2535        0.0077      156.5303      156.5381      81.284523      -0.00000
  35     3.853       75.2524        0.0101      156.5268      156.5369      81.284523       0.00000
  34     5.035       75.2509        0.0132      156.5222      156.5354      81.284523       0.00000
  33     6.613       75.2489        0.0174      156.5160      156.5334      81.284523      -0.00000
  32     8.786       75.2462        0.0231      156.5076      156.5307      81.284523       0.00000
  31     11.80       75.2423        0.0312      156.4957      156.5269      81.284523       0.00000
  30     15.07       75.2382        0.0399      156.4828      156.5227      81.284523      -0.00000
  29     18.79       75.2335        0.0498      156.4682      156.5180      81.284523       0.00000
  28     23.16       75.2280        0.0613      156.4512      156.5125      81.284523       0.00000
  27     28.12       75.2217        0.0745      156.4317      156.5062      81.284523      -0.00000
  26     33.73       75.2146        0.0893      156.4099      156.4991      81.284523       0.00000
  25     40.54       75.2061        0.1072      156.3834      156.4906      81.284523       0.00000
  24     48.69       75.1958        0.1288      156.3515      156.4803      81.284523      -0.00000
  23     57.69       75.1844        0.1525      156.3164      156.4689      81.284523      -0.00000
  22     68.43       75.1709        0.1809      156.2746      156.4554      81.284523       0.00000
  21     81.20       75.1547        0.2147      156.2246      156.4393      81.284523      -0.00000
  20     96.49       75.1354        0.2550      156.1649      156.4200      81.284523       0.00000
  19     114.6       75.1127        0.3030      156.0869      156.3900      81.277313       0.00337
  18     136.5       75.0856        0.3601      155.9939      156.3540      81.268372       0.00344
  17     162.9       75.0533        0.4281      155.8787      156.3068      81.253534       0.00474
  16     196.4       75.0114        0.5166      155.7103      156.2269      81.215527       0.00957
  15     218.7       74.9839        0.5747      155.5541      156.1288      81.144875       0.02682
  14     243.0       74.9545        0.6379      155.2966      155.9345      80.979996       0.05719
  13     269.0       74.9235        0.7062      154.8760      155.5821      80.658634       0.10425
  12     297.5       74.8919        0.7796      154.2695      155.0491      80.157220       0.14871
  11     328.5       74.8601        0.8587      153.5462      154.4049      79.544789       0.16652
  10     361.9       74.8294        0.9435      152.6714      153.6149      78.785550       0.19210
   9     398.1       74.8017        1.0340      151.5663      152.6003      77.798589       0.22994
   8     437.6       74.7806        1.1299      150.1523      151.2823      76.501665       0.27729
   7     480.5       74.7703        1.2312      148.4114      149.6426      74.872347       0.31999
   6     533.0       74.7807        1.3535      145.9613      147.3148      72.534121       0.37615
   5     589.8       74.8341        1.4808      142.8844      144.3652      69.531099       0.44575
   4     651.6       74.9797        1.6103      138.8753      140.4856      65.505882       0.55046
   3     718.7       75.2809        1.7413      134.0721      135.8134      60.532503       0.62502
   2     792.3       75.8779        1.8697      128.3373      130.2070      54.329036       0.71147
   1     891.5       77.4135        2.0234      120.0662      122.0895      44.676096       0.82142
   0    1013.0       81.2105        2.1865      110.6732      112.8597      31.649203       0.90452



 Wavenumbers: 12850. - 16000. cm-1, ATM      1
 LEVEL PRESSURE   UPWARD FLUX   DIFDOWN FLUX  DIRDOWN FLUX  DOWNWARD FLUX   NET FLUX    HEATING RATE
          mb          W/m2          W/m2          W/m2        W/m2          W/m2       degree/day
  51    .06700       70.9706        0.0000       98.0872       98.0872      27.116688       0.00000
  50    .07753       70.9705        0.0001       98.0864       98.0864      27.115899       0.63283
  49    .09103       70.9705        0.0002       98.0853       98.0854      27.114908       0.61953
  48    0.1069       70.9705        0.0003       98.0841       98.0843      27.113769       0.60594
  47    0.1255       70.9705        0.0004       98.0826       98.0830      27.112462       0.59260
  46    0.1487       70.9705        0.0005       98.0809       98.0814      27.110814       0.60094
  45    0.1794       70.9706        0.0007       98.0784       98.0791      27.108572       0.61526
  44    0.2165       70.9706        0.0009       98.0756       98.0766      27.105938       0.59924
  43    0.2613       70.9707        0.0012       98.0723       98.0735      27.102843       0.58339
  42    0.3336       70.9709        0.0017       98.0670       98.0687      27.097798       0.58827
  41    0.4307       70.9712        0.0023       98.0602       98.0624      27.091282       0.56654
  40    0.5894       70.9718        0.0032       98.0496       98.0528      27.081035       0.54490
  39     1.339       70.9772        0.0079       98.0043       98.0122      27.034952       0.51881
  38     1.782       70.9823        0.0106       97.9793       97.9899      27.007513       0.52240
  37     2.292       70.9900        0.0137       97.9498       97.9635      26.973493       0.56347
  36     2.964       71.0027        0.0178       97.9088       97.9267      26.923908       0.62244
  35     3.853       71.0234        0.0233       97.8503       97.8736      26.850245       0.69907
  34     5.035       71.0545        0.0305       97.7680       97.7985      26.743988       0.75906
  33     6.613       71.0980        0.0402       97.6562       97.6964      26.598341       0.77863
  32     8.786       71.1546        0.0532       97.5107       97.5638      26.409214       0.73450
  31     11.80       71.2282        0.0717       97.3179       97.3896      26.161383       0.69385
  30     15.07       71.2986        0.0917       97.1283       97.2200      25.921380       0.61964
  29     18.79       71.3704        0.1141       96.9300       97.0442      25.673787       0.56137
  28     23.16       71.4453        0.1404       96.7166       96.8569      25.411685       0.50682
  27     28.12       71.5205        0.1704       96.4935       96.6638      25.143391       0.45608
  26     33.73       71.5897        0.2039       96.2731       96.4770      24.887327       0.38500
  25     40.54       71.6560        0.2444       96.0408       96.2852      24.629214       0.32022
  24     48.69       71.7192        0.2933       95.7946       96.0879      24.368721       0.26957
  23     57.69       71.7722        0.3470       95.5573       95.9042      24.132039       0.22185
  22     68.43       71.8177        0.4109       95.3106       95.7215      23.903810       0.17942
  21     81.20       71.8477        0.4872       95.0643       95.5515      23.703808       0.13216
  20     96.49       71.8611        0.5782       94.8153       95.3935      23.532373       0.09462
  19     114.6       71.8790        0.6874       94.5410       95.2284      23.349411       0.08543
  18     136.5       71.8898        0.8168       94.2320       95.0488      23.159001       0.07322
  17     162.9       71.8930        0.9709       93.8753       94.8461      22.953126       0.06581
  16     196.4       71.8768        1.1707       93.4345       94.6052      22.728404       0.05657
  15     218.7       71.8588        1.3019       93.1510       94.4529      22.594065       0.05100
  14     243.0       71.8360        1.4444       92.8432       94.2876      22.451579       0.04942
  13     269.0       71.8084        1.5989       92.5093       94.1082      22.299848       0.04922
  12     297.5       71.7762        1.7659       92.1456       93.9115      22.135296       0.04880
  11     328.5       71.7413        1.9462       91.7484       93.6946      21.953371       0.04947
  10     361.9       71.7042        2.1404       91.3147       93.4551      21.750835       0.05124
   9     398.1       71.6663        2.3493       90.8394       93.1887      21.522441       0.05321
   8     437.6       71.6298        2.5735       90.3140       92.8875      21.257755       0.05659
   7     480.5       71.5971        2.8136       89.7315       92.5451      20.947966       0.06084
   6     533.0       71.5699        3.1087       88.9789       92.0876      20.517748       0.06921
   5     589.8       71.5652        3.4257       88.1078       91.5335      19.968315       0.08155
   4     651.6       71.6073        3.7638       87.0627       90.8265      19.219181       0.10245
   3     718.7       71.7170        4.1213       85.8262       89.9474      18.230381       0.12426
   2     792.3       71.9544        4.4940       84.3305       88.8245      16.870011       0.15602
   1     891.5       72.5579        4.9773       82.0480       87.0253      14.467431       0.20445
   0    1013.0       73.8494        5.5287       79.0770       84.6057      10.756305       0.25768



 Wavenumbers: 16000. - 22650. cm-1, ATM      1
 LEVEL PRESSURE   UPWARD FLUX   DIFDOWN FLUX  DIRDOWN FLUX  DOWNWARD FLUX   NET FLUX    HEATING RATE
          mb          W/m2          W/m2          W/m2        W/m2          W/m2       degree/day
  51    .06700      139.9841        0.0000      156.3892      156.3892      16.405147       0.00000
  50    .07753      139.9841        0.0004      156.3887      156.3891      16.405000       0.11771
  49    .09103      139.9841        0.0009      156.3879      156.3888      16.404787       0.13351
  48    0.1069      139.9840        0.0015      156.3871      156.3885      16.404501       0.15225
  47    0.1255      139.9841        0.0021      156.3861      156.3882      16.404118       0.17354
  46    0.1487      139.9841        0.0029      156.3847      156.3877      16.403554       0.20564
  45    0.1794      139.9842        0.0041      156.3828      156.3869      16.402672       0.24213
  44    0.2165      139.9844        0.0054      156.3805      156.3859      16.401476       0.27213
  43    0.2613      139.9848        0.0070      156.3776      156.3846      16.399852       0.30594
  42    0.3336      139.9855        0.0096      156.3726      156.3823      16.396767       0.35978
  41    0.4307      139.9867        0.0131      156.3657      156.3788      16.392115       0.40443
  40    0.5894      139.9892        0.0188      156.3537      156.3725      16.383244       0.47175
  39     1.339      140.0115        0.0457      156.2834      156.3292      16.317704       0.73786
  38     1.782      140.0320        0.0615      156.2324      156.2939      16.261873       1.06295
  37     2.292      140.0629        0.0798      156.1641      156.2439      16.181056       1.33854
  36     2.964      140.1142        0.1039      156.0605      156.1644      16.050132       1.64349
  35     3.853      140.1973        0.1356      155.9041      156.0396      15.842389       1.97152
  34     5.035      140.3226        0.1776      155.6774      155.8550      15.532457       2.21403
  33     6.613      140.4977        0.2338      155.3656      155.5994      15.101748       2.30257
  32     8.786      140.7257        0.3094      154.9577      155.2670      14.541309       2.17654
  31     11.80      141.0225        0.4173      154.4153      154.8326      13.810103       2.04715
  30     15.07      141.3067        0.5330      153.8804      154.4134      13.106727       1.81598
  29     18.79      141.5968        0.6635      153.3191      153.9826      12.385856       1.63444
  28     23.16      141.8999        0.8158      152.7126      153.5283      11.628430       1.46462
  27     28.12      142.2048        0.9896      152.0755      153.0651      10.860302       1.30577
  26     33.73      142.4860        1.1839      151.4409      152.6248      10.138824       1.08476
  25     40.54      142.7564        1.4185      150.7637      152.1822       9.425769       0.88462
  24     48.69      143.0149        1.7010      150.0338      151.7348       8.719860       0.73051
  23     57.69      143.2338        2.0109      149.3151      151.3260       8.092258       0.58828
  22     68.43      143.4241        2.3796      148.5476      150.9272       7.503127       0.46314
  21     81.20      143.5545        2.8186      147.7517      150.5702       7.015794       0.32202
  20     96.49      143.6204        3.3411      146.9126      150.2538       6.633374       0.21107
  19     114.6      143.6530        3.9598      145.9763      149.9361       6.283042       0.16358
  18     136.5      143.6606        4.6903      144.9088      149.5990       5.938415       0.13252
  17     162.9      143.6414        5.5561      143.6785      149.2346       5.593206       0.11034
  16     196.4      143.5555        6.6732      142.1650      148.8382       5.282723       0.07815
  15     218.7      143.4767        7.4032      141.2033      148.6064       5.129743       0.05808
  14     243.0      143.3808        8.1932      140.1752      148.3684       4.987609       0.04930
  13     269.0      143.2663        9.0456      139.0794      148.1250       4.858686       0.04182
  12     297.5      143.1324        9.9622      137.9135      147.8757       4.743277       0.03423
  11     328.5      142.9832       10.9475      136.6665      147.6140       4.630765       0.03059
  10     361.9      142.8183       12.0023      135.3373      147.3396       4.521216       0.02772
   9     398.1      142.6374       13.1306      133.9205      147.0510       4.413626       0.02507
   8     437.6      142.4414       14.3344      132.4116      146.7461       4.304681       0.02329
   7     480.5      142.2299       15.6160      130.8078      146.4238       4.193905       0.02176
   6     533.0      141.9698       17.1812      128.8493      146.0306       4.060711       0.02143
   5     589.8      141.6940       18.8536      126.7519      145.6055       3.911582       0.02214
   4     651.6      141.4089       20.6348      124.5028      145.1376       3.728671       0.02501
   3     718.7      141.1215       22.5266      122.0908      144.6174       3.495956       0.02925
   2     792.3      140.8500       24.5268      119.4972      144.0240       3.173937       0.03693
   1     891.5      140.5724       27.1815      115.9607      143.1422       2.569778       0.05141
   0    1013.0      140.3854       30.3004      111.6872      141.9876       1.602206       0.06718



 Wavenumbers: 22650. - 29000. cm-1, ATM      1
 LEVEL PRESSURE   UPWARD FLUX   DIFDOWN FLUX  DIRDOWN FLUX  DOWNWARD FLUX   NET FLUX    HEATING RATE
          mb          W/m2          W/m2          W/m2        W/m2          W/m2       degree/day
  51    .06700       58.3821        0.0000       59.0156       59.0156       0.633476       0.00000
  50    .07753       58.3820        0.0005       59.0151       59.0155       0.633476      -0.00000
  49    .09103       58.3819        0.0010       59.0144       59.0154       0.633476       0.00000
  48    0.1069       58.3818        0.0017       59.0136       59.0153       0.633476       0.00000
  47    0.1255       58.3817        0.0025       59.0127       59.0151       0.633476       0.00000
  46    0.1487       58.3815        0.0034       59.0115       59.0149       0.633476      -0.00000
  45    0.1794       58.3812        0.0048       59.0099       59.0147       0.633476      -0.00000
  44    0.2165       58.3809        0.0063       59.0080       59.0144       0.633476       0.00000
  43    0.2613       58.3805        0.0082       59.0058       59.0140       0.633476       0.00000
  42    0.3336       58.3799        0.0113       59.0022       59.0134       0.633476      -0.00000
  41    0.4307       58.3791        0.0153       58.9973       59.0126       0.633476       0.00000
  40    0.5894       58.3779        0.0220       58.9894       59.0113       0.633476      -0.00000
  39     1.339       58.3717        0.0534       58.9518       59.0052       0.633476      -0.00000
  38     1.782       58.3681        0.0719       58.9297       59.0016       0.633476       0.00000
  37     2.292       58.3640        0.0933       58.9042       58.9974       0.633476       0.00000
  36     2.964       58.3585        0.1213       58.8706       58.9920       0.633476      -0.00000
  35     3.853       58.3513        0.1584       58.8264       58.9847       0.633476       0.00000
  34     5.035       58.3417        0.2076       58.7676       58.9751       0.633476      -0.00000
  33     6.613       58.3289        0.2732       58.6891       58.9623       0.633476       0.00000
  32     8.786       58.3116        0.3617       58.5834       58.9451       0.633476       0.00000
  31     11.80       58.2870        0.4880       58.4324       58.9204       0.633476       0.00000
  30     15.07       58.2606        0.6234       58.2706       58.8940       0.633476      -0.00000
  29     18.79       58.2308        0.7760       58.0882       58.8643       0.633476       0.00000
  28     23.16       58.1961        0.9539       57.8757       58.8296       0.633476       0.00000
  27     28.12       58.1565        1.1567       57.6333       58.7900       0.633476       0.00000
  26     33.73       58.1124        1.3828       57.3631       58.7459       0.633476      -0.00000
  25     40.54       58.0593        1.6549       57.0379       58.6928       0.633476       0.00000
  24     48.69       57.9956        1.9812       56.6479       58.6291       0.633476      -0.00000
  23     57.69       57.9261        2.3375       56.2221       58.5595       0.633476       0.00000
  22     68.43       57.8438        2.7587       55.7186       58.4773       0.633476       0.00000
  21     81.20       57.7466        3.2562       55.1239       58.3801       0.633476      -0.00000
  20     96.49       57.6320        3.8427       54.4228       58.2655       0.633476      -0.00000
  19     114.6       57.4976        4.5301       53.6010       58.1311       0.633476       0.00000
  18     136.5       57.3407        5.3324       52.6418       57.9742       0.633476       0.00000
  17     162.9       57.1571        6.2703       51.5203       57.7906       0.633476       0.00000
  16     196.4       56.9244        7.4584       50.0994       57.5579       0.633476      -0.00000
  15     218.7       56.7747        8.2219       49.1863       57.4082       0.633476       0.00000
  14     243.0       56.6148        9.0370       48.2112       57.2483       0.633476      -0.00000
  13     269.0       56.4447        9.9033       47.1749       57.0782       0.633476       0.00000
  12     297.5       56.2646       10.8199       46.0782       56.8981       0.633476       0.00000
  11     328.5       56.0742       11.7883       44.9194       56.7076       0.633476       0.00000
  10     361.9       55.8738       12.8057       43.7016       56.5073       0.633476      -0.00000
   9     398.1       55.6636       13.8724       42.4246       56.2971       0.633476       0.00000
   8     437.6       55.4438       14.9862       41.0910       56.0772       0.633476      -0.00000
   7     480.5       55.2148       16.1447       39.7036       55.8483       0.633476       0.00000
   6     533.0       54.9421       17.5225       38.0530       55.5755       0.633476      -0.00000
   5     589.8       54.6587       18.9507       36.3415       55.2922       0.633476       0.00000
   4     651.6       54.3661       20.4223       34.5773       54.9996       0.633476      -0.00000
   3     718.7       54.0652       21.9316       32.7671       54.6987       0.633476       0.00000
   2     792.3       53.7574       23.4708       30.9201       54.3909       0.633476       0.00000
   1     891.5       53.3645       25.4276       28.5704       53.9980       0.633476       0.00000
   0    1013.0       52.9244       27.6080       25.9499       53.5579       0.633476      -0.00000



 Wavenumbers: 29000. - 38000. cm-1, ATM      1
 LEVEL PRESSURE   UPWARD FLUX   DIFDOWN FLUX  DIRDOWN FLUX  DOWNWARD FLUX   NET FLUX    HEATING RATE
          mb          W/m2          W/m2          W/m2        W/m2          W/m2       degree/day
  51    .06700        8.7365        0.0000       20.8114       20.8114      12.074830       0.00000
  50    .07753        8.7363        0.0003       20.8070       20.8074      12.071023       3.05152
  49    .09103        8.7361        0.0007       20.8009       20.8016      12.065486       3.46081
  48    0.1069        8.7359        0.0012       20.7928       20.7939      12.058076       3.94425
  47    0.1255        8.7356        0.0017       20.7820       20.7837      12.048171       4.49029
  46    0.1487        8.7352        0.0024       20.7665       20.7688      12.033608       5.30838
  45    0.1794        8.7348        0.0033       20.7424       20.7457      12.010944       6.22197
  44    0.2165        8.7343        0.0044       20.7103       20.7147      11.980421       6.94332
  43    0.2613        8.7337        0.0056       20.6675       20.6731      11.939427       7.72723
  42    0.3336        8.7328        0.0077       20.5880       20.5956      11.862867       8.92614
  41    0.4307        8.7317        0.0104       20.4722       20.4826      11.750916       9.73389
  40    0.5894        8.7301        0.0147       20.2637       20.2784      11.548235      10.77831
  39     1.339        8.7267        0.0331       19.0984       19.1315      10.404781      12.87322
  38     1.782        8.7272        0.0427       18.4394       18.4820       9.754875      12.37315
  37     2.292        8.7298        0.0530       17.7714       17.8244       9.094557      10.93659
  36     2.964        8.7363        0.0656       17.0421       17.1078       8.371476       9.07686
  35     3.853        8.7490        0.0816       16.2678       16.3494       7.600363       7.31800
  34     5.035        8.7701        0.1017       15.4803       15.5820       6.811968       5.63197
  33     6.613        8.8006        0.1275       14.7157       14.8432       6.042522       4.11346
  32     8.786        8.8410        0.1612       13.9936       14.1548       5.313753       2.83028
  31     11.80        8.8937        0.2082       13.2835       13.4918       4.598026       2.00381
  30     15.07        8.9446        0.2570       12.7394       12.9963       4.051784       1.41029
  29     18.79        8.9971        0.3110       12.2666       12.5776       3.580579       1.06837
  28     23.16        9.0528        0.3725       11.8300       12.2025       3.149699       0.83318
  27     28.12        9.1099        0.4413       11.4279       11.8692       2.759275       0.66369
  26     33.73        9.1626        0.5172       11.0695       11.5866       2.424029       0.50405
  25     40.54        9.2126        0.6078       10.7209       11.3287       2.116126       0.38199
  24     48.69        9.2597        0.7153       10.3742       11.0895       1.829840       0.29626
  23     57.69        9.2983        0.8317       10.0549       10.8866       1.588328       0.22638
  22     68.43        9.3294        0.9682        9.7327       10.7009       1.371530       0.17043
  21     81.20        9.3442        1.1294        9.4134       10.5428       1.198668       0.11422
  20     96.49        9.3405        1.3189        9.0887       10.4076       1.067090       0.07262
  19     114.6        9.3266        1.5378        8.7388       10.2766       0.949978       0.05468
  18     136.5        9.3054        1.7881        8.3549       10.1430       0.837614       0.04321
  17     162.9        9.2769        2.0734        7.9311       10.0045       0.727607       0.03516
  16     196.4        9.2292        2.4267        7.4333        9.8600       0.630790       0.02437
  15     218.7        9.1949        2.6489        7.1295        9.7785       0.583575       0.01793
  14     243.0        9.1573        2.8812        6.8161        9.6973       0.539979       0.01512
  13     269.0        9.1162        3.1228        6.4943        9.6171       0.500837       0.01270
  12     297.5        9.0718        3.3724        6.1657        9.5381       0.466335       0.01023
  11     328.5        9.0253        3.6292        5.8294        9.4586       0.433305       0.00898
  10     361.9        8.9774        3.8907        5.4886        9.3793       0.401895       0.00795
   9     398.1        8.9280        4.1562        5.1439        9.3002       0.372132       0.00693
   8     437.6        8.8778        4.4244        4.7969        9.2213       0.343444       0.00613
   7     480.5        8.8271        4.6930        4.4503        9.1433       0.316216       0.00535
   6     533.0        8.7688        4.9991        4.0562        9.0553       0.286538       0.00477
   5     589.8        8.7113        5.3010        3.6681        8.9691       0.257808       0.00426
   4     651.6        8.6553        5.5954        3.2896        8.8850       0.229703       0.00384
   3     718.7        8.6017        5.8794        2.9244        8.8038       0.202183       0.00346
   2     792.3        8.5508        6.1510        2.5750        8.7261       0.175251       0.00309
   1     891.5        8.4923        6.4698        2.1645        8.6343       0.142006       0.00283
   0    1013.0        8.4357        6.7903        1.7507        8.5410       0.105319       0.00255



 Wavenumbers: 38000. - 50000. cm-1, ATM      1
 LEVEL PRESSURE   UPWARD FLUX   DIFDOWN FLUX  DIRDOWN FLUX  DOWNWARD FLUX   NET FLUX    HEATING RATE
          mb          W/m2          W/m2          W/m2        W/m2          W/m2       degree/day
  51    .06700        0.0061        0.0000        1.2836        1.2836       1.277518       0.00000
  50    .07753        0.0061        0.0001        1.2812        1.2812       1.275183       1.87150
  49    .09103        0.0060        0.0002        1.2777        1.2778       1.271851       2.08247
  48    0.1069        0.0059        0.0002        1.2731        1.2734       1.267473       2.33059
  47    0.1255        0.0058        0.0004        1.2672        1.2675       1.261717       2.60908
  46    0.1487        0.0057        0.0005        1.2586        1.2591       1.253391       3.03499
  45    0.1794        0.0055        0.0007        1.2455        1.2462       1.240623       3.50520
  44    0.2165        0.0054        0.0009        1.2282        1.2291       1.223697       3.85037
  43    0.2613        0.0052        0.0011        1.2054        1.2065       1.201348       4.21261
  42    0.3336        0.0049        0.0015        1.1639        1.1654       1.160524       4.75970
  41    0.4307        0.0045        0.0020        1.1051        1.1070       1.102565       5.03943
  40    0.5894        0.0039        0.0026        1.0039        1.0064       1.002524       5.32007
  39     1.339        0.0022        0.0035        0.5438        0.5473       0.545104       5.14971
  38     1.782        0.0016        0.0032        0.3635        0.3666       0.365006       3.42879
  37     2.292        0.0012        0.0027        0.2356        0.2383       0.237058       2.11916
  36     2.964        0.0009        0.0022        0.1455        0.1477       0.146786       1.13318
  35     3.853        0.0006        0.0017        0.0858        0.0875       0.086906       0.56828
  34     5.035        0.0004        0.0013        0.0488        0.0501       0.049701       0.26578
  33     6.613        0.0003        0.0010        0.0273        0.0282       0.027974       0.11615
  32     8.786        0.0002        0.0007        0.0144        0.0151       0.014928       0.05067
  31     11.80        0.0001        0.0004        0.0065        0.0070       0.006903       0.02247
  30     15.07        0.0000        0.0003        0.0031        0.0034       0.003329       0.00923
  29     18.79        0.0000        0.0002        0.0014        0.0016       0.001583       0.00396
  28     23.16        0.0000        0.0001        0.0006        0.0007       0.000720       0.00167
  27     28.12        0.0000        0.0001        0.0003        0.0003       0.000317       0.00069
  26     33.73        0.0000        0.0000        0.0001        0.0001       0.000140       0.00027
  25     40.54        0.0000        0.0000        0.0000        0.0001       0.000057       0.00010
  24     48.69        0.0000        0.0000        0.0000        0.0000       0.000021       0.00004
  23     57.69        0.0000        0.0000        0.0000        0.0000       0.000008       0.00001
  22     68.43        0.0000        0.0000        0.0000        0.0000       0.000003       0.00000
  21     81.20        0.0000        0.0000        0.0000        0.0000       0.000001       0.00000
  20     96.49        0.0000        0.0000        0.0000        0.0000       0.000000       0.00000
  19     114.6        0.0000        0.0000        0.0000        0.0000       0.000000       0.00000
  18     136.5        0.0000        0.0000        0.0000        0.0000       0.000000       0.00000
  17     162.9        0.0000        0.0000        0.0000        0.0000       0.000000       0.00000
  16     196.4        0.0000        0.0000        0.0000        0.0000       0.000000       0.00000
  15     218.7        0.0000        0.0000        0.0000        0.0000       0.000000       0.00000
  14     243.0        0.0000        0.0000        0.0000        0.0000       0.000000       0.00000
  13     269.0        0.0000        0.0000        0.0000        0.0000       0.000000       0.00000
  12     297.5        0.0000        0.0000        0.0000        0.0000       0.000000       0.00000
  11     328.5        0.0000        0.0000        0.0000        0.0000       0.000000       0.00000
  10     361.9        0.0000        0.0000        0.0000        0.0000       0.000000       0.00000
   9     398.1        0.0000        0.0000        0.0000        0.0000       0.000000       0.00000
   8     437.6        0.0000        0.0000        0.0000        0.0000       0.000000       0.00000
   7     480.5        0.0000        0.0000        0.0000        0.0000       0.000000       0.00000
   6     533.0        0.0000        0.0000        0.0000        0.0000       0.000000       0.00000
   5     589.8        0.0000        0.0000        0.0000        0.0000       0.000000       0.00000
   4     651.6        0.0000        0.0000        0.0000        0.0000       0.000000       0.00000
   3     718.7        0.0000        0.0000        0.0000        0.0000       0.000000       0.00000
   2     792.3        0.0000        0.0000        0.0000        0.0000       0.000000       0.00000
   1     891.5        0.0000        0.0000        0.0000        0.0000       0.000000       0.00000
   0    1013.0        0.0000        0.0000        0.0000        0.0000       0.000000       0.00000



 Wavenumbers:   820. -  2600. cm-1, ATM      1
 LEVEL PRESSURE   UPWARD FLUX   DIFDOWN FLUX  DIRDOWN FLUX  DOWNWARD FLUX   NET FLUX    HEATING RATE
          mb          W/m2          W/m2          W/m2        W/m2          W/m2       degree/day
  51    .06700        0.6437        0.0000        6.0047        6.0047       5.360918       0.00000
  50    .07753        0.6437        0.0000        6.0008        6.0008       5.357052       3.09813
  49    .09103        0.6437        0.0000        5.9999        5.9999       5.356150       0.56366
  48    0.1069        0.6437        0.0000        5.9989        5.9989       5.355142       0.53677
  47    0.1255        0.6437        0.0000        5.9977        5.9977       5.354002       0.51691
  46    0.1487        0.6437        0.0000        5.9963        5.9963       5.352615       0.50555
  45    0.1794        0.6437        0.0000        5.9946        5.9946       5.350853       0.48369
  44    0.2165        0.6437        0.0000        5.9927        5.9927       5.348959       0.43097
  43    0.2613        0.6437        0.0000        5.9907        5.9907       5.346935       0.38137
  42    0.3336        0.6437        0.0000        5.9877        5.9877       5.343948       0.34827
  41    0.4307        0.6437        0.0000        5.9841        5.9841       5.340331       0.31450
  40    0.5894        0.6437        0.0000        5.9783        5.9783       5.334579       0.30587
  39     1.339        0.6437        0.0000        5.9517        5.9517       5.307939       0.29993
  38     1.782        0.6437        0.0000        5.9369        5.9369       5.293149       0.28157
  37     2.292        0.6437        0.0000        5.9204        5.9204       5.276705       0.27235
  36     2.964        0.6437        0.0000        5.8998        5.8998       5.256105       0.25859
  35     3.853        0.6437        0.0000        5.8742        5.8742       5.230506       0.24295
  34     5.035        0.6437        0.0000        5.8427        5.8427       5.198942       0.22548
  33     6.613        0.6437        0.0000        5.8036        5.8036       5.159902       0.20871
  32     8.786        0.6437        0.0000        5.7551        5.7551       5.111365       0.18850
  31     11.80        0.6438        0.0000        5.6953        5.6953       5.051553       0.16746
  30     15.07        0.6438        0.0000        5.6451        5.6451       5.001347       0.12962
  29     18.79        0.6438        0.0000        5.6038        5.6038       4.960045       0.09364
  28     23.16        0.6438        0.0000        5.5700        5.5700       4.926189       0.06547
  27     28.12        0.6438        0.0000        5.5415        5.5415       4.897683       0.04846
  26     33.73        0.6438        0.0000        5.5152        5.5152       4.871362       0.03957
  25     40.54        0.6438        0.0000        5.4862        5.4862       4.842389       0.03594
  24     48.69        0.6438        0.0000        5.4530        5.4530       4.809211       0.03433
  23     57.69        0.6438        0.0000        5.4177        5.4177       4.773864       0.03313
  22     68.43        0.6439        0.0000        5.3769        5.3769       4.733007       0.03212
  21     81.20        0.6439        0.0000        5.3304        5.3304       4.686526       0.03071
  20     96.49        0.6439        0.0000        5.2771        5.2771       4.633212       0.02943
  19     114.6        0.6439        0.0000        5.2160        5.2160       4.572085       0.02854
  18     136.5        0.6440        0.0000        5.1466        5.1466       4.502616       0.02671
  17     162.9        0.6440        0.0000        5.0608        5.0608       4.416767       0.02744
  16     196.4        0.6441        0.0000        4.9326        4.9326       4.288480       0.03229
  15     218.7        0.6442        0.0000        4.8186        4.8186       4.174365       0.04333
  14     243.0        0.6444        0.0000        4.6624        4.6625       4.018044       0.05422
  13     269.0        0.6447        0.0000        4.4855        4.4855       3.840834       0.05749
  12     297.5        0.6452        0.0000        4.2829        4.2829       3.637788       0.06022
  11     328.5        0.6458        0.0000        4.0507        4.0508       3.404984       0.06330
  10     361.9        0.6467        0.0000        3.7862        3.7862       3.139511       0.06717
   9     398.1        0.6479        0.0000        3.5214        3.5214       2.873535       0.06197
   8     437.6        0.6494        0.0000        3.2939        3.2939       2.644483       0.04897
   7     480.5        0.6514        0.0000        3.1297        3.1298       2.478333       0.03263
   6     533.0        0.6546        0.0000        2.9854        2.9854       2.330813       0.02373
   5     589.8        0.6594        0.0000        2.8319        2.8320       2.172519       0.02350
   4     651.6        0.6685        0.0000        2.6364        2.6365       1.967988       0.02797
   3     718.7        0.6845        0.0000        2.4165        2.4166       1.732064       0.02965
   2     792.3        0.7145        0.0000        2.1795        2.1795       1.465063       0.03062
   1     891.5        0.7927        0.0000        1.8424        1.8425       1.049820       0.03534
   0    1013.0        0.9957        0.0000        1.3866        1.3866       0.390881       0.04575

  Modules and versions used in this calculation:

       rrtmg_sw.1col.f90:  $Revision$                    rrtmg_sw_init.f90:  $Revision$        
     rrtmgsw_cldprop.f90:  $Revision$                  rrtmgsw_cldprmc.f90:  NOT USED          
     rrtmg_sw_reftra.f90:  $Revision$                  rrtmg_sw_spcvrt.f90:  NOT USED          
     rrtmg_sw_spcvmc.f90:  NOT USED                    rrtmgsw_setcoef.f90:  NOT USED          
     rrtmg_sw_taumol.f90:  $Revision$                  rrtmg_sw_vrtqdr.f90:  NOT USED          
                rrtatm.f:  NOT USED                             util_xxx.f:  NOT USED          
                 extra.f:  NOT USED                       rrtmg_sw_k_g.f90:  $Revision$        

