

 Wavenumbers:   820. - 50000. cm-1, ATM      1
 LEVEL PRESSURE   UPWARD FLUX   DIFDOWN FLUX  DIRDOWN FLUX  DOWNWARD FLUX   NET FLUX    HEATING RATE
          mb          W/m2          W/m2          W/m2        W/m2          W/m2       degree/day
  51    .06700      441.7657        0.0000      617.8126      617.8126     176.046875       0.00000
  50    .07753      441.7653        0.0014      617.7951      617.7964     176.031061      12.67532
  49    .09103      441.7649        0.0031      617.7785      617.7816     176.016647       9.00939
  48    0.1069      441.7645        0.0050      617.7593      617.7643     175.999825       8.95404
  47    0.1255      441.7640        0.0073      617.7357      617.7429     175.978971       9.45439
  46    0.1487      441.7634        0.0101      617.7032      617.7133     175.949890      10.60034
  45    0.1794      441.7627        0.0140      617.6552      617.6692     175.906461      11.92220
  44    0.2165      441.7621        0.0185      617.5936      617.6121     175.850073      12.82742
  43    0.2613      441.7614        0.0239      617.5142      617.5381     175.776665      13.83708
  42    0.3336      441.7607        0.0328      617.3713      617.4041     175.643431      15.53380
  41    0.4307      441.7602        0.0445      617.1690      617.2135     175.453287      16.53258
  40    0.5894      441.7604        0.0634      616.8146      616.8780     175.117640      17.84927
  39     1.339      441.7802        0.1487      614.9771      615.1258     173.345594      19.95002
  38     1.782      441.8050        0.1967      614.0094      614.2062     172.401168      17.98034
  37     2.292      441.8457        0.2514      613.0586      613.3100     171.464295      15.51707
  36     2.964      441.9172        0.3225      612.0229      612.3454     170.428214      13.00594
  35     3.853      442.0367        0.4157      610.8831      611.2987     169.261984      11.06774
  34     5.035      442.2203        0.5386      609.6325      610.1711     167.950800       9.36656
  33     6.613      442.4787        0.7018      608.2695      608.9714     166.492655       7.79524
  32     8.786      442.8153        0.9208      606.7755      607.6964     164.881043       6.25892
  31     11.80      443.2516        1.2326      605.0319      606.2645     163.012894       5.23023
  30     15.07      443.6673        1.5654      603.4567      605.0221     161.354760       4.28098
  29     18.79      444.0898        1.9398      601.8935      603.8333     159.743493       3.65324
  28     23.16      444.5289        2.3749      600.2677      602.6425     158.113612       3.15166
  27     28.12      444.9675        2.8701      598.5988      601.4689     156.501359       2.74072
  26     33.73      445.3654        3.4222      596.9427      600.3649     154.999513       2.25807
  25     40.54      445.7379        4.0870      595.1607      599.2477     153.509784       1.84818
  24     48.69      446.0821        4.8847      593.2178      598.1025     152.020386       1.54129
  23     57.69      446.3586        5.7568      591.2710      597.0278     150.669202       1.26653
  22     68.43      446.5776        6.7900      589.1431      595.9331     149.355468       1.03277
  21     81.20      446.6854        8.0150      586.8473      594.8623     148.176932       0.77876
  20     96.49      446.6719        9.4656      584.3348      593.8004     147.128461       0.57868
  19     114.6      446.5936       11.1721      581.4936      592.6657     146.072040       0.49327
  18     136.5      446.4551       13.1705      578.2570      591.4275     144.972380       0.42285
  17     162.9      446.2510       15.5161      574.5452      590.0613     143.810239       0.37147
  16     196.4      445.8961       18.5079      569.9630      588.4710     142.574819       0.31097
  15     218.7      445.6328       20.4427      567.0333      587.4759     141.843171       0.27778
  14     243.0      445.3357       22.5184      563.8665      586.3849     141.049203       0.27537
  13     269.0      445.0032       24.7368      560.4193      585.1560     140.152845       0.29077
  12     297.5      444.6357       27.0987      556.6541      583.7527     139.117090       0.30719
  11     328.5      444.2407       29.6107      552.5930      582.2037     137.963014       0.31379
  10     361.9      443.8200       32.2692      548.2387      580.5079     136.687880       0.32262
   9     398.1      443.3748       35.0793      543.5470      578.6263     135.251492       0.33465
   8     437.6      442.9102       38.0405      538.4493      576.4898     133.579591       0.35746
   7     480.5      442.4294       41.1515      532.9028      574.0543     131.624853       0.38390
   6     533.0      441.8684       44.8949      525.9631      570.8580     128.989591       0.42393
   5     589.8      441.3136       48.8282      518.3211      567.1493     125.835667       0.46815
   4     651.6      440.8029       52.9449      509.7477      562.6926     121.889683       0.53962
   3     718.7      440.3805       57.2387      500.2593      557.4980     117.117491       0.59973
   2     792.3      440.1350       61.6973      489.7348      551.4320     111.297050       0.66754
   1     891.5      440.2807       67.4933      475.3250      542.8183     102.537509       0.74539
   0    1013.0      441.5034       74.1427      458.5269      532.6696      91.166166       0.78957



 Wavenumbers:  2600. -  3250. cm-1, ATM      1
 LEVEL PRESSURE   UPWARD FLUX   DIFDOWN FLUX  DIRDOWN FLUX  DOWNWARD FLUX   NET FLUX    HEATING RATE
          mb          W/m2          W/m2          W/m2        W/m2          W/m2       degree/day
  51    .06700        0.0564        0.0000        5.4450        5.4450       5.388672       0.00000
  50    .07753        0.0564        0.0000        5.4450        5.4450       5.388664       0.00640
  49    .09103        0.0564        0.0000        5.4450        5.4450       5.388654       0.00627
  48    0.1069        0.0564        0.0000        5.4450        5.4450       5.388643       0.00613
  47    0.1255        0.0564        0.0000        5.4450        5.4450       5.388630       0.00599
  46    0.1487        0.0564        0.0000        5.4450        5.4450       5.388613       0.00608
  45    0.1794        0.0564        0.0000        5.4450        5.4450       5.388590       0.00625
  44    0.2165        0.0564        0.0000        5.4449        5.4449       5.388563       0.00612
  43    0.2613        0.0564        0.0000        5.4449        5.4449       5.388531       0.00600
  42    0.3336        0.0564        0.0000        5.4448        5.4448       5.388479       0.00617
  41    0.4307        0.0564        0.0000        5.4448        5.4448       5.388407       0.00620
  40    0.5894        0.0564        0.0000        5.4446        5.4446       5.388288       0.00637
  39     1.339        0.0564        0.0000        5.4439        5.4439       5.387580       0.00797
  38     1.782        0.0564        0.0000        5.4434        5.4434       5.387037       0.01034
  37     2.292        0.0564        0.0000        5.4427        5.4427       5.386321       0.01186
  36     2.964        0.0564        0.0000        5.4416        5.4416       5.385282       0.01304
  35     3.853        0.0564        0.0000        5.4402        5.4402       5.383805       0.01402
  34     5.035        0.0564        0.0000        5.4381        5.4381       5.381750       0.01468
  33     6.613        0.0564        0.0000        5.4353        5.4353       5.378969       0.01487
  32     8.786        0.0564        0.0000        5.4317        5.4317       5.375336       0.01411
  31     11.80        0.0564        0.0000        5.4269        5.4269       5.370556       0.01338
  30     15.07        0.0564        0.0000        5.4224        5.4224       5.366030       0.01169
  29     18.79        0.0564        0.0000        5.4180        5.4180       5.361618       0.01000
  28     23.16        0.0564        0.0000        5.4135        5.4135       5.357132       0.00867
  27     28.12        0.0564        0.0000        5.4088        5.4088       5.352485       0.00790
  26     33.73        0.0564        0.0000        5.4036        5.4036       5.347245       0.00788
  25     40.54        0.0564        0.0000        5.3966        5.3967       5.340304       0.00861
  24     48.69        0.0564        0.0000        5.3872        5.3872       5.330829       0.00981
  23     57.69        0.0564        0.0000        5.3754        5.3754       5.319046       0.01104
  22     68.43        0.0564        0.0000        5.3599        5.3599       5.303560       0.01217
  21     81.20        0.0564        0.0000        5.3401        5.3401       5.283730       0.01310
  20     96.49        0.0564        0.0000        5.3155        5.3155       5.259169       0.01356
  19     114.6        0.0564        0.0000        5.2861        5.2861       5.229771       0.01373
  18     136.5        0.0564        0.0000        5.2520        5.2520       5.195641       0.01312
  17     162.9        0.0564        0.0001        5.2137        5.2138       5.157375       0.01223
  16     196.4        0.0564        0.0001        5.1692        5.1692       5.112818       0.01122
  15     218.7        0.0564        0.0001        5.1430        5.1431       5.086680       0.00992
  14     243.0        0.0565        0.0001        5.1171        5.1172       5.060719       0.00900
  13     269.0        0.0565        0.0001        5.0914        5.0915       5.034979       0.00835
  12     297.5        0.0565        0.0001        5.0657        5.0658       5.009246       0.00763
  11     328.5        0.0566        0.0001        5.0397        5.0398       4.983234       0.00707
  10     361.9        0.0566        0.0001        5.0129        5.0131       4.956427       0.00678
   9     398.1        0.0567        0.0001        4.9843        4.9845       4.927768       0.00668
   8     437.6        0.0568        0.0001        4.9523        4.9525       4.895636       0.00687
   7     480.5        0.0569        0.0002        4.9152        4.9154       4.858421       0.00731
   6     533.0        0.0571        0.0002        4.8639        4.8641       4.806944       0.00828
   5     589.8        0.0574        0.0002        4.8003        4.8005       4.743082       0.00948
   4     651.6        0.0578        0.0002        4.7198        4.7200       4.662195       0.01106
   3     718.7        0.0583        0.0002        4.6179        4.6182       4.559818       0.01287
   2     792.3        0.0591        0.0002        4.4901        4.4904       4.431284       0.01474
   1     891.5        0.0606        0.0003        4.2925        4.2928       4.232195       0.01694
   0    1013.0        0.0634        0.0003        4.0385        4.0388       3.975414       0.01783



 Wavenumbers:  3250. -  4000. cm-1, ATM      1
 LEVEL PRESSURE   UPWARD FLUX   DIFDOWN FLUX  DIRDOWN FLUX  DOWNWARD FLUX   NET FLUX    HEATING RATE
          mb          W/m2          W/m2          W/m2        W/m2          W/m2       degree/day
  51    .06700        0.0380        0.0000        9.1795        9.1795       9.141565       0.00000
  50    .07753        0.0380        0.0000        9.1749        9.1749       9.136897       3.74132
  49    .09103        0.0380        0.0000        9.1717        9.1717       9.133709       1.99270
  48    0.1069        0.0380        0.0000        9.1694        9.1694       9.131392       1.23330
  47    0.1255        0.0380        0.0000        9.1673        9.1673       9.129348       0.92672
  46    0.1487        0.0380        0.0000        9.1651        9.1651       9.127153       0.80009
  45    0.1794        0.0380        0.0000        9.1625        9.1625       9.124574       0.70795
  44    0.2165        0.0380        0.0000        9.1599        9.1599       9.121975       0.59133
  43    0.2613        0.0380        0.0000        9.1573        9.1573       9.119362       0.49238
  42    0.3336        0.0380        0.0000        9.1537        9.1537       9.115776       0.41818
  41    0.4307        0.0380        0.0000        9.1498        9.1498       9.111794       0.34615
  40    0.5894        0.0380        0.0000        9.1440        9.1440       9.106041       0.30598
  39     1.339        0.0380        0.0000        9.1214        9.1214       9.083453       0.25430
  38     1.782        0.0380        0.0000        9.1111        9.1111       9.073143       0.19629
  37     2.292        0.0380        0.0000        9.1011        9.1011       9.063127       0.16589
  36     2.964        0.0380        0.0000        9.0898        9.0898       9.051819       0.14194
  35     3.853        0.0380        0.0000        9.0764        9.0764       9.038462       0.12676
  34     5.035        0.0380        0.0000        9.0597        9.0598       9.021794       0.11907
  33     6.613        0.0380        0.0000        9.0377        9.0377       8.999773       0.11772
  32     8.786        0.0380        0.0000        9.0070        9.0070       8.969016       0.11945
  31     11.80        0.0379        0.0000        8.9608        8.9608       8.922836       0.12929
  30     15.07        0.0379        0.0000        8.9091        8.9091       8.871186       0.13335
  29     18.79        0.0379        0.0000        8.8492        8.8492       8.811248       0.13590
  28     23.16        0.0379        0.0000        8.7790        8.7790       8.741091       0.13566
  27     28.12        0.0379        0.0000        8.7009        8.7010       8.663048       0.13267
  26     33.73        0.0379        0.0000        8.6190        8.6191       8.581167       0.12311
  25     40.54        0.0379        0.0001        8.5293        8.5293       8.491404       0.11136
  24     48.69        0.0379        0.0001        8.4333        8.4334       8.395497       0.09925
  23     57.69        0.0379        0.0001        8.3387        8.3388       8.300880       0.08869
  22     68.43        0.0379        0.0001        8.2335        8.2336       8.195734       0.08266
  21     81.20        0.0379        0.0001        8.1123        8.1124       8.074568       0.08007
  20     96.49        0.0378        0.0001        7.9715        7.9716       7.933802       0.07769
  19     114.6        0.0378        0.0001        7.8115        7.8116       7.773808       0.07471
  18     136.5        0.0378        0.0002        7.6359        7.6361       7.598305       0.06748
  17     162.9        0.0378        0.0002        7.4464        7.4466       7.408876       0.06055
  16     196.4        0.0377        0.0002        7.2263        7.2265       7.188819       0.05539
  15     218.7        0.0377        0.0003        7.0888        7.0890       7.051338       0.05220
  14     243.0        0.0377        0.0003        6.9391        6.9393       6.901671       0.05191
  13     269.0        0.0377        0.0003        6.7710        6.7713       6.733621       0.05451
  12     297.5        0.0376        0.0003        6.5796        6.5799       6.542267       0.05675
  11     328.5        0.0376        0.0003        6.3765        6.3768       6.339176       0.05522
  10     361.9        0.0376        0.0004        6.1640        6.1644       6.126790       0.05374
   9     398.1        0.0376        0.0004        5.9400        5.9404       5.902780       0.05219
   8     437.6        0.0376        0.0004        5.6965        5.6969       5.659300       0.05206
   7     480.5        0.0377        0.0004        5.4181        5.4186       5.380880       0.05468
   6     533.0        0.0378        0.0004        5.0488        5.0493       5.011475       0.05943
   5     589.8        0.0380        0.0004        4.6262        4.6267       4.588695       0.06275
   4     651.6        0.0384        0.0004        4.1451        4.1456       4.107230       0.06584
   3     718.7        0.0390        0.0004        3.6485        3.6490       3.609916       0.06250
   2     792.3        0.0403        0.0004        3.1492        3.1496       3.109272       0.05742
   1     891.5        0.0434        0.0004        2.5578        2.5581       2.514706       0.05059
   0    1013.0        0.0514        0.0003        1.9818        1.9821       1.930773       0.04055



 Wavenumbers:  4000. -  4650. cm-1, ATM      1
 LEVEL PRESSURE   UPWARD FLUX   DIFDOWN FLUX  DIRDOWN FLUX  DOWNWARD FLUX   NET FLUX    HEATING RATE
          mb          W/m2          W/m2          W/m2        W/m2          W/m2       degree/day
  51    .06700        1.6630        0.0000       10.7795       10.7795       9.116525       0.00000
  50    .07753        1.6630        0.0000       10.7795       10.7795       9.116524       0.00086
  49    .09103        1.6630        0.0000       10.7795       10.7795       9.116523       0.00084
  48    0.1069        1.6630        0.0000       10.7795       10.7795       9.116521       0.00082
  47    0.1255        1.6630        0.0000       10.7795       10.7795       9.116519       0.00080
  46    0.1487        1.6630        0.0000       10.7795       10.7795       9.116517       0.00081
  45    0.1794        1.6630        0.0000       10.7795       10.7795       9.116514       0.00084
  44    0.2165        1.6630        0.0000       10.7795       10.7795       9.116510       0.00082
  43    0.2613        1.6630        0.0000       10.7795       10.7795       9.116506       0.00080
  42    0.3336        1.6630        0.0000       10.7795       10.7795       9.116499       0.00083
  41    0.4307        1.6630        0.0000       10.7795       10.7795       9.116490       0.00083
  40    0.5894        1.6630        0.0000       10.7795       10.7795       9.116473       0.00085
  39     1.339        1.6630        0.0000       10.7794       10.7794       9.116377       0.00108
  38     1.782        1.6630        0.0000       10.7793       10.7793       9.116302       0.00143
  37     2.292        1.6630        0.0000       10.7792       10.7792       9.116201       0.00167
  36     2.964        1.6630        0.0000       10.7791       10.7791       9.116051       0.00189
  35     3.853        1.6630        0.0000       10.7788       10.7788       9.115827       0.00212
  34     5.035        1.6630        0.0000       10.7785       10.7785       9.115498       0.00235
  33     6.613        1.6630        0.0000       10.7780       10.7780       9.115012       0.00259
  32     8.786        1.6630        0.0000       10.7773       10.7773       9.114296       0.00278
  31     11.80        1.6630        0.0000       10.7761       10.7762       9.113171       0.00315
  30     15.07        1.6630        0.0001       10.7748       10.7749       9.111850       0.00341
  29     18.79        1.6630        0.0001       10.7732       10.7733       9.110253       0.00362
  28     23.16        1.6630        0.0001       10.7712       10.7713       9.108270       0.00383
  27     28.12        1.6630        0.0001       10.7688       10.7689       9.105870       0.00408
  26     33.73        1.6631        0.0001       10.7658       10.7660       9.102909       0.00445
  25     40.54        1.6631        0.0002       10.7618       10.7620       9.098893       0.00498
  24     48.69        1.6632        0.0002       10.7565       10.7567       9.093543       0.00554
  23     57.69        1.6633        0.0002       10.7502       10.7505       9.087199       0.00595
  22     68.43        1.6634        0.0003       10.7424       10.7426       9.079251       0.00625
  21     81.20        1.6636        0.0003       10.7327       10.7330       9.069465       0.00647
  20     96.49        1.6638        0.0004       10.7210       10.7214       9.057561       0.00657
  19     114.6        1.6642        0.0004       10.7069       10.7074       9.043222       0.00670
  18     136.5        1.6646        0.0005       10.6900       10.6906       9.025953       0.00664
  17     162.9        1.6653        0.0006       10.6697       10.6703       9.005089       0.00667
  16     196.4        1.6662        0.0008       10.6430       10.6438       8.977612       0.00692
  15     218.7        1.6669        0.0008       10.6253       10.6261       8.959239       0.00698
  14     243.0        1.6677        0.0009       10.6056       10.6065       8.938803       0.00709
  13     269.0        1.6687        0.0010       10.5835       10.5846       8.915858       0.00744
  12     297.5        1.6699        0.0011       10.5586       10.5597       8.889818       0.00772
  11     328.5        1.6714        0.0013       10.5306       10.5318       8.860416       0.00799
  10     361.9        1.6732        0.0014       10.4993       10.5007       8.827502       0.00833
   9     398.1        1.6753        0.0015       10.4642       10.4657       8.790411       0.00864
   8     437.6        1.6779        0.0017       10.4246       10.4263       8.748400       0.00898
   7     480.5        1.6809        0.0018       10.3797       10.3815       8.700615       0.00938
   6     533.0        1.6852        0.0020       10.3209       10.3229       8.637742       0.01011
   5     589.8        1.6905        0.0022       10.2519       10.2541       8.563569       0.01101
   4     651.6        1.6975        0.0024       10.1676       10.1700       8.472551       0.01245
   3     718.7        1.7065        0.0026       10.0638       10.0664       8.359905       0.01416
   2     792.3        1.7187        0.0029        9.9335        9.9363       8.217671       0.01631
   1     891.5        1.7403        0.0032        9.7293        9.7325       7.992163       0.01919
   0    1013.0        1.7780        0.0035        9.4598        9.4633       7.685258       0.02131



 Wavenumbers:  4650. -  5150. cm-1, ATM      1
 LEVEL PRESSURE   UPWARD FLUX   DIFDOWN FLUX  DIRDOWN FLUX  DOWNWARD FLUX   NET FLUX    HEATING RATE
          mb          W/m2          W/m2          W/m2        W/m2          W/m2       degree/day
  51    .06700        0.4162        0.0000       10.2033       10.2033       9.787157       0.00000
  50    .07753        0.4162        0.0000       10.2031       10.2031       9.786928       0.18354
  49    .09103        0.4162        0.0000       10.2028       10.2028       9.786642       0.17896
  48    0.1069        0.4162        0.0000       10.2025       10.2025       9.786314       0.17414
  47    0.1255        0.4162        0.0000       10.2021       10.2021       9.785941       0.16925
  46    0.1487        0.4162        0.0000       10.2017       10.2017       9.785474       0.17033
  45    0.1794        0.4162        0.0000       10.2010       10.2010       9.784842       0.17340
  44    0.2165        0.4162        0.0000       10.2003       10.2003       9.784104       0.16785
  43    0.2613        0.4162        0.0000       10.1994       10.1994       9.783244       0.16216
  42    0.3336        0.4162        0.0000       10.1980       10.1980       9.781852       0.16230
  41    0.4307        0.4162        0.0000       10.1962       10.1962       9.780063       0.15552
  40    0.5894        0.4162        0.0000       10.1935       10.1935       9.777270       0.14856
  39     1.339        0.4162        0.0000       10.1822       10.1822       9.765996       0.12692
  38     1.782        0.4162        0.0000       10.1768       10.1768       9.760616       0.10243
  37     2.292        0.4162        0.0000       10.1715       10.1715       9.755304       0.08798
  36     2.964        0.4162        0.0000       10.1657       10.1657       9.749534       0.07243
  35     3.853        0.4162        0.0000       10.1596       10.1596       9.743474       0.05751
  34     5.035        0.4162        0.0000       10.1534       10.1534       9.737286       0.04420
  33     6.613        0.4162        0.0000       10.1471       10.1471       9.730965       0.03379
  32     8.786        0.4161        0.0000       10.1402       10.1402       9.724083       0.02673
  31     11.80        0.4161        0.0001       10.1313       10.1313       9.715187       0.02490
  30     15.07        0.4161        0.0001       10.1215       10.1216       9.705456       0.02512
  29     18.79        0.4161        0.0001       10.1096       10.1097       9.693624       0.02683
  28     23.16        0.4161        0.0001       10.0945       10.0946       9.678543       0.02916
  27     28.12        0.4161        0.0002       10.0757       10.0758       9.659726       0.03199
  26     33.73        0.4161        0.0002       10.0529       10.0531       9.636969       0.03422
  25     40.54        0.4161        0.0002       10.0234       10.0236       9.607501       0.03656
  24     48.69        0.4161        0.0003        9.9857        9.9860       9.569885       0.03893
  23     57.69        0.4161        0.0003        9.9427        9.9431       9.526981       0.04022
  22     68.43        0.4161        0.0004        9.8907        9.8911       9.475018       0.04085
  21     81.20        0.4161        0.0004        9.8292        9.8297       9.413539       0.04062
  20     96.49        0.4162        0.0005        9.7584        9.7590       9.342774       0.03906
  19     114.6        0.4163        0.0006        9.6797        9.6803       9.264062       0.03675
  18     136.5        0.4164        0.0007        9.5947        9.5955       9.179052       0.03269
  17     162.9        0.4166        0.0009        9.5042        9.5051       9.088447       0.02896
  16     196.4        0.4170        0.0010        9.4000        9.4011       8.984090       0.02627
  15     218.7        0.4173        0.0011        9.3366        9.3377       8.920427       0.02417
  14     243.0        0.4176        0.0012        9.2696        9.2709       8.853263       0.02329
  13     269.0        0.4181        0.0014        9.1981        9.1995       8.781391       0.02332
  12     297.5        0.4186        0.0015        9.1202        9.1217       8.703114       0.02322
  11     328.5        0.4193        0.0017        9.0347        9.0364       8.617090       0.02339
  10     361.9        0.4201        0.0018        8.9403        8.9421       8.521953       0.02407
   9     398.1        0.4211        0.0020        8.8358        8.8377       8.416574       0.02455
   8     437.6        0.4224        0.0021        8.7203        8.7225       8.300067       0.02491
   7     480.5        0.4239        0.0023        8.5938        8.5961       8.172180       0.02512
   6     533.0        0.4261        0.0025        8.4346        8.4371       8.010950       0.02594
   5     589.8        0.4289        0.0027        8.2600        8.2627       7.833836       0.02629
   4     651.6        0.4324        0.0029        8.0683        8.0712       7.638761       0.02668
   3     718.7        0.4371        0.0032        7.8587        7.8618       7.424715       0.02690
   2     792.3        0.4434        0.0034        7.6288        7.6322       7.188749       0.02706
   1     891.5        0.4545        0.0037        7.3155        7.3192       6.864654       0.02758
   0    1013.0        0.4728        0.0040        6.9496        6.9536       6.480775       0.02665



 Wavenumbers:  5150. -  6150. cm-1, ATM      1
 LEVEL PRESSURE   UPWARD FLUX   DIFDOWN FLUX  DIRDOWN FLUX  DOWNWARD FLUX   NET FLUX    HEATING RATE
          mb          W/m2          W/m2          W/m2        W/m2          W/m2       degree/day
  51    .06700        3.6792        0.0000       25.5798       25.5798      21.900614       0.00000
  50    .07753        3.6792        0.0000       25.5798       25.5798      21.900612       0.00112
  49    .09103        3.6792        0.0000       25.5798       25.5798      21.900610       0.00113
  48    0.1069        3.6792        0.0000       25.5798       25.5798      21.900608       0.00114
  47    0.1255        3.6792        0.0000       25.5798       25.5798      21.900606       0.00115
  46    0.1487        3.6792        0.0000       25.5798       25.5798      21.900602       0.00121
  45    0.1794        3.6792        0.0000       25.5798       25.5798      21.900598       0.00128
  44    0.2165        3.6792        0.0000       25.5798       25.5798      21.900592       0.00129
  43    0.2613        3.6792        0.0000       25.5798       25.5798      21.900585       0.00131
  42    0.3336        3.6792        0.0000       25.5798       25.5798      21.900573       0.00138
  41    0.4307        3.6792        0.0000       25.5797       25.5798      21.900557       0.00140
  40    0.5894        3.6792        0.0000       25.5797       25.5797      21.900530       0.00144
  39     1.339        3.6792        0.0000       25.5795       25.5796      21.900395       0.00153
  38     1.782        3.6792        0.0000       25.5794       25.5795      21.900310       0.00160
  37     2.292        3.6792        0.0001       25.5793       25.5794      21.900211       0.00165
  36     2.964        3.6792        0.0001       25.5792       25.5792      21.900078       0.00167
  35     3.853        3.6791        0.0001       25.5789       25.5790      21.899900       0.00169
  34     5.035        3.6791        0.0001       25.5787       25.5788      21.899659       0.00172
  33     6.613        3.6791        0.0002       25.5783       25.5784      21.899327       0.00177
  32     8.786        3.6791        0.0002       25.5777       25.5780      21.898869       0.00178
  31     11.80        3.6791        0.0003       25.5769       25.5773      21.898196       0.00188
  30     15.07        3.6790        0.0004       25.5761       25.5765      21.897457       0.00191
  29     18.79        3.6790        0.0005       25.5751       25.5756      21.896610       0.00192
  28     23.16        3.6790        0.0006       25.5740       25.5746      21.895607       0.00194
  27     28.12        3.6790        0.0008       25.5727       25.5734      21.894443       0.00198
  26     33.73        3.6790        0.0009       25.5711       25.5721      21.893098       0.00202
  25     40.54        3.6790        0.0011       25.5693       25.5704      21.891393       0.00211
  24     48.69        3.6790        0.0013       25.5669       25.5682      21.889254       0.00221
  23     57.69        3.6790        0.0016       25.5643       25.5658      21.886814       0.00229
  22     68.43        3.6791        0.0019       25.5611       25.5629      21.883826       0.00235
  21     81.20        3.6792        0.0022       25.5572       25.5594      21.880181       0.00241
  20     96.49        3.6793        0.0026       25.5525       25.5551      21.875735       0.00245
  19     114.6        3.6795        0.0031       25.5467       25.5498      21.870304       0.00254
  18     136.5        3.6798        0.0037       25.5397       25.5434      21.863644       0.00256
  17     162.9        3.6801        0.0044       25.5303       25.5347      21.854628       0.00288
  16     196.4        3.6805        0.0053       25.5137       25.5190      21.838519       0.00405
  15     218.7        3.6808        0.0059       25.4924       25.4983      21.817483       0.00799
  14     243.0        3.6811        0.0066       25.4488       25.4554      21.774218       0.01501
  13     269.0        3.6816        0.0073       25.3677       25.3749      21.693331       0.02624
  12     297.5        3.6821        0.0080       25.2428       25.2508      21.568682       0.03697
  11     328.5        3.6829        0.0088       25.0959       25.1047      21.421835       0.03993
  10     361.9        3.6838        0.0096       24.9265       24.9361      21.252332       0.04289
   9     398.1        3.6850        0.0105       24.7169       24.7274      21.042465       0.04889
   8     437.6        3.6866        0.0114       24.4438       24.4552      20.768624       0.05855
   7     480.5        3.6888        0.0124       24.1053       24.1176      20.428855       0.06673
   6     533.0        3.6924        0.0135       23.6485       23.6620      19.969577       0.07388
   5     589.8        3.6980        0.0146       23.1169       23.1315      19.433552       0.07956
   4     651.6        3.7075        0.0158       22.4503       22.4661      18.758572       0.09231
   3     718.7        3.7237        0.0168       21.6252       21.6420      17.918310       0.10560
   2     792.3        3.7525        0.0178       20.6193       20.6370      16.884555       0.11856
   1     891.5        3.8232        0.0188       19.2288       19.2475      15.424302       0.12426
   0    1013.0        4.0053        0.0198       17.7307       17.7505      13.745181       0.11659



 Wavenumbers:  6150. -  7700. cm-1, ATM      1
 LEVEL PRESSURE   UPWARD FLUX   DIFDOWN FLUX  DIRDOWN FLUX  DOWNWARD FLUX   NET FLUX    HEATING RATE
          mb          W/m2          W/m2          W/m2        W/m2          W/m2       degree/day
  51    .06700        7.4455        0.0000       47.3109       47.3109      39.865337       0.00000
  50    .07753        7.4455        0.0000       47.3108       47.3108      39.865320       0.01397
  49    .09103        7.4455        0.0000       47.3108       47.3108      39.865298       0.01372
  48    0.1069        7.4455        0.0000       47.3108       47.3108      39.865272       0.01347
  47    0.1255        7.4455        0.0000       47.3108       47.3108      39.865243       0.01322
  46    0.1487        7.4455        0.0000       47.3107       47.3107      39.865206       0.01345
  45    0.1794        7.4455        0.0000       47.3107       47.3107      39.865156       0.01388
  44    0.2165        7.4455        0.0000       47.3106       47.3106      39.865096       0.01366
  43    0.2613        7.4455        0.0000       47.3105       47.3105      39.865024       0.01344
  42    0.3336        7.4455        0.0000       47.3104       47.3104      39.864906       0.01379
  41    0.4307        7.4455        0.0000       47.3102       47.3102      39.864749       0.01366
  40    0.5894        7.4455        0.0001       47.3099       47.3100      39.864492       0.01368
  39     1.339        7.4454        0.0001       47.3085       47.3087      39.863274       0.01371
  38     1.782        7.4454        0.0002       47.3077       47.3079      39.862559       0.01361
  37     2.292        7.4453        0.0003       47.3068       47.3070      39.861734       0.01367
  36     2.964        7.4452        0.0003       47.3056       47.3059      39.860654       0.01355
  35     3.853        7.4452        0.0004       47.3040       47.3044      39.859234       0.01348
  34     5.035        7.4451        0.0006       47.3018       47.3024      39.857354       0.01343
  33     6.613        7.4449        0.0008       47.2990       47.2998      39.854853       0.01337
  32     8.786        7.4447        0.0010       47.2952       47.2962      39.851502       0.01302
  31     11.80        7.4444        0.0014       47.2898       47.2912      39.846745       0.01332
  30     15.07        7.4441        0.0017       47.2841       47.2858      39.841688       0.01306
  29     18.79        7.4438        0.0022       47.2776       47.2798      39.836038       0.01281
  28     23.16        7.4434        0.0027       47.2702       47.2729      39.829518       0.01261
  27     28.12        7.4429        0.0033       47.2618       47.2651      39.822160       0.01251
  26     33.73        7.4424        0.0039       47.2525       47.2564      39.814053       0.01219
  25     40.54        7.4418        0.0047       47.2415       47.2462      39.804428       0.01194
  24     48.69        7.4410        0.0056       47.2284       47.2341      39.793066       0.01176
  23     57.69        7.4402        0.0067       47.2143       47.2210      39.780850       0.01145
  22     68.43        7.4392        0.0079       47.1979       47.2058      39.766630       0.01118
  21     81.20        7.4380        0.0094       47.1787       47.1881      39.750101       0.01092
  20     96.49        7.4366        0.0112       47.1563       47.1675      39.730917       0.01059
  19     114.6        7.4349        0.0133       47.1304       47.1436      39.708715       0.01037
  18     136.5        7.4329        0.0157       47.1003       47.1160      39.683138       0.00983
  17     162.9        7.4305        0.0187       47.0646       47.0833      39.652809       0.00969
  16     196.4        7.4275        0.0226       47.0159       47.0385      39.611034       0.01052
  15     218.7        7.4255        0.0251       46.9758       47.0009      39.575374       0.01354
  14     243.0        7.4235        0.0279       46.9151       46.9430      39.519422       0.01941
  13     269.0        7.4215        0.0308       46.8175       46.8483      39.426787       0.03005
  12     297.5        7.4197        0.0340       46.6669       46.7009      39.281215       0.04318
  11     328.5        7.4181        0.0374       46.4705       46.5080      39.089874       0.05203
  10     361.9        7.4168        0.0411       46.2293       46.2704      38.853592       0.05978
   9     398.1        7.4160        0.0449       45.9332       45.9781      38.562153       0.06790
   8     437.6        7.4160        0.0490       45.5582       45.6072      38.191174       0.07932
   7     480.5        7.4173        0.0532       45.0836       45.1369      37.719613       0.09261
   6     533.0        7.4212        0.0583       44.3941       44.4524      37.031130       0.11076
   5     589.8        7.4298        0.0634       43.5160       43.5794      36.149638       0.13084
   4     651.6        7.4478        0.0684       42.3768       42.4452      34.997437       0.15757
   3     718.7        7.4816        0.0733       41.0099       41.0832      33.601577       0.17542
   2     792.3        7.5446        0.0779       39.3595       39.4374      31.892777       0.19598
   1     891.5        7.7004        0.0829       36.9438       37.0266      29.326194       0.21840
   0    1013.0        8.0815        0.0877       34.1559       34.2436      26.162141       0.21970



 Wavenumbers:  7700. -  8050. cm-1, ATM      1
 LEVEL PRESSURE   UPWARD FLUX   DIFDOWN FLUX  DIRDOWN FLUX  DOWNWARD FLUX   NET FLUX    HEATING RATE
          mb          W/m2          W/m2          W/m2        W/m2          W/m2       degree/day
  51    .06700        5.8490        0.0000       11.1810       11.1810       5.331996       0.00000
  50    .07753        5.8490        0.0000       11.1809       11.1809       5.331974       0.01750
  49    .09103        5.8490        0.0000       11.1809       11.1809       5.331946       0.01715
  48    0.1069        5.8490        0.0000       11.1809       11.1809       5.331915       0.01679
  47    0.1255        5.8490        0.0000       11.1809       11.1809       5.331879       0.01643
  46    0.1487        5.8490        0.0000       11.1808       11.1808       5.331833       0.01668
  45    0.1794        5.8490        0.0000       11.1808       11.1808       5.331770       0.01716
  44    0.2165        5.8490        0.0000       11.1807       11.1807       5.331696       0.01683
  43    0.2613        5.8490        0.0000       11.1806       11.1806       5.331609       0.01652
  42    0.3336        5.8491        0.0000       11.1805       11.1805       5.331464       0.01690
  41    0.4307        5.8491        0.0000       11.1803       11.1804       5.331272       0.01672
  40    0.5894        5.8492        0.0000       11.1801       11.1801       5.330958       0.01670
  39     1.339        5.8494        0.0001       11.1788       11.1789       5.329472       0.01672
  38     1.782        5.8496        0.0001       11.1781       11.1782       5.328599       0.01661
  37     2.292        5.8497        0.0001       11.1772       11.1773       5.327589       0.01673
  36     2.964        5.8500        0.0002       11.1761       11.1762       5.326263       0.01665
  35     3.853        5.8503        0.0002       11.1746       11.1748       5.324511       0.01663
  34     5.035        5.8507        0.0003       11.1726       11.1729       5.322184       0.01662
  33     6.613        5.8512        0.0004       11.1699       11.1703       5.319076       0.01662
  32     8.786        5.8520        0.0005       11.1664       11.1668       5.314889       0.01626
  31     11.80        5.8530        0.0006       11.1613       11.1619       5.308903       0.01676
  30     15.07        5.8541        0.0008       11.1558       11.1566       5.302481       0.01658
  29     18.79        5.8554        0.0010       11.1496       11.1507       5.295234       0.01643
  28     23.16        5.8569        0.0013       11.1424       11.1437       5.286780       0.01635
  27     28.12        5.8587        0.0015       11.1342       11.1358       5.277127       0.01641
  26     33.73        5.8606        0.0018       11.1251       11.1269       5.266345       0.01621
  25     40.54        5.8629        0.0022       11.1141       11.1163       5.253349       0.01612
  24     48.69        5.8658        0.0027       11.1009       11.1035       5.237727       0.01617
  23     57.69        5.8689        0.0031       11.0864       11.0896       5.220624       0.01603
  22     68.43        5.8727        0.0037       11.0693       11.0731       5.200335       0.01595
  21     81.20        5.8773        0.0044       11.0491       11.0535       5.176279       0.01590
  20     96.49        5.8827        0.0053       11.0253       11.0305       5.147778       0.01573
  19     114.6        5.8893        0.0062       10.9972       11.0034       5.114167       0.01569
  18     136.5        5.8971        0.0074       10.9644       10.9718       5.074639       0.01520
  17     162.9        5.9066        0.0088       10.9259       10.9346       5.027986       0.01491
  16     196.4        5.9192        0.0106       10.8768       10.8873       4.968125       0.01507
  15     218.7        5.9276        0.0117       10.8450       10.8567       4.929171       0.01479
  14     243.0        5.9368        0.0130       10.8109       10.8239       4.887121       0.01458
  13     269.0        5.9470        0.0144       10.7745       10.7888       4.841872       0.01468
  12     297.5        5.9581        0.0159       10.7356       10.7515       4.793308       0.01440
  11     328.5        5.9704        0.0175       10.6942       10.7116       4.741177       0.01417
  10     361.9        5.9839        0.0192       10.6502       10.6693       4.685393       0.01411
   9     398.1        5.9988        0.0210       10.6034       10.6245       4.625701       0.01391
   8     437.6        6.0151        0.0230       10.5540       10.5770       4.561907       0.01364
   7     480.5        6.0330        0.0252       10.5017       10.5268       4.493799       0.01338
   6     533.0        6.0557        0.0278       10.4382       10.4660       4.410232       0.01344
   5     589.8        6.0811        0.0306       10.3707       10.4013       4.320216       0.01336
   4     651.6        6.1094        0.0337       10.2989       10.3326       4.223220       0.01326
   3     718.7        6.1410        0.0369       10.2226       10.2596       4.118526       0.01316
   2     792.3        6.1765        0.0404       10.1415       10.1819       4.005409       0.01297
   1     891.5        6.2273        0.0451       10.0324       10.0775       3.850200       0.01321
   0    1013.0        6.2930        0.0508        9.9012        9.9520       3.659002       0.01328



 Wavenumbers:  8050. - 12850. cm-1, ATM      1
 LEVEL PRESSURE   UPWARD FLUX   DIFDOWN FLUX  DIRDOWN FLUX  DOWNWARD FLUX   NET FLUX    HEATING RATE
          mb          W/m2          W/m2          W/m2        W/m2          W/m2       degree/day
  51    .06700      127.3557        0.0000      156.5418      156.5418      29.186017       0.00000
  50    .07753      127.3557        0.0000      156.5417      156.5417      29.186017       0.00000
  49    .09103      127.3557        0.0001      156.5417      156.5417      29.186017      -0.00000
  48    0.1069      127.3557        0.0001      156.5416      156.5417      29.186017       0.00000
  47    0.1255      127.3557        0.0002      156.5415      156.5417      29.186017      -0.00000
  46    0.1487      127.3557        0.0003      156.5414      156.5417      29.186017      -0.00000
  45    0.1794      127.3556        0.0004      156.5413      156.5417      29.186017       0.00000
  44    0.2165      127.3556        0.0005      156.5412      156.5416      29.186017      -0.00000
  43    0.2613      127.3556        0.0006      156.5410      156.5416      29.186017       0.00000
  42    0.3336      127.3555        0.0008      156.5407      156.5415      29.186017       0.00000
  41    0.4307      127.3554        0.0011      156.5403      156.5414      29.186017      -0.00000
  40    0.5894      127.3553        0.0016      156.5397      156.5413      29.186017       0.00000
  39     1.339      127.3546        0.0039      156.5367      156.5407      29.186017      -0.00000
  38     1.782      127.3543        0.0053      156.5350      156.5403      29.186017      -0.00000
  37     2.292      127.3538        0.0069      156.5330      156.5398      29.186017       0.00000
  36     2.964      127.3532        0.0089      156.5303      156.5393      29.186017       0.00000
  35     3.853      127.3525        0.0117      156.5268      156.5385      29.186017       0.00000
  34     5.035      127.3515        0.0153      156.5222      156.5375      29.186017       0.00000
  33     6.613      127.3501        0.0201      156.5160      156.5361      29.186017      -0.00000
  32     8.786      127.3483        0.0267      156.5076      156.5343      29.186017       0.00000
  31     11.80      127.3457        0.0360      156.4957      156.5317      29.186017      -0.00000
  30     15.07      127.3429        0.0461      156.4828      156.5289      29.186017      -0.00000
  29     18.79      127.3397        0.0575      156.4682      156.5257      29.186017       0.00000
  28     23.16      127.3360        0.0708      156.4512      156.5220      29.186017      -0.00000
  27     28.12      127.3317        0.0860      156.4317      156.5177      29.186017      -0.00000
  26     33.73      127.3269        0.1031      156.4099      156.5130      29.186017       0.00000
  25     40.54      127.3212        0.1237      156.3834      156.5072      29.186017      -0.00000
  24     48.69      127.3142        0.1487      156.3515      156.5002      29.186017       0.00000
  23     57.69      127.3065        0.1761      156.3164      156.4925      29.186017      -0.00000
  22     68.43      127.2974        0.2088      156.2746      156.4834      29.186017       0.00000
  21     81.20      127.2865        0.2479      156.2246      156.4725      29.186017      -0.00000
  20     96.49      127.2734        0.2945      156.1649      156.4595      29.186017      -0.00000
  19     114.6      127.2579        0.3500      156.0938      156.4438      29.185826       0.00009
  18     136.5      127.2395        0.4159      156.0093      156.4251      29.185586       0.00009
  17     162.9      127.2176        0.4945      155.9083      156.4028      29.185183       0.00013
  16     196.4      127.1890        0.5968      155.7764      156.3732      29.184128       0.00027
  15     218.7      127.1704        0.6641      155.6883      156.3525      29.182083       0.00078
  14     243.0      127.1503        0.7375      155.5897      156.3272      29.176930       0.00179
  13     269.0      127.1290        0.8172      155.4770      156.2943      29.165238       0.00379
  12     297.5      127.1071        0.9036      155.3455      156.2491      29.142040       0.00688
  11     328.5      127.0846        0.9971      155.1928      156.1900      29.105385       0.00997
  10     361.9      127.0622        1.0982      155.0150      156.1131      29.050902       0.01378
   9     398.1      127.0410        1.2073      154.8051      156.0124      28.971428       0.01852
   8     437.6      127.0225        1.3248      154.5544      155.8792      28.856651       0.02454
   7     480.5      127.0090        1.4511      154.2556      155.7067      28.697737       0.03121
   6     533.0      127.0037        1.6071      153.8426      155.4498      28.446037       0.04049
   5     589.8      127.0185        1.7759      153.3295      155.1054      28.086913       0.05331
   4     651.6      127.0762        1.9575      152.6598      154.6173      27.541093       0.07464
   3     718.7      127.2037        2.1523      151.8070      153.9593      26.755592       0.09872
   2     792.3      127.4561        2.3600      150.7067      153.0666      25.610508       0.13133
   1     891.5      128.0714        2.6374      148.8983      151.5358      23.464317       0.18263
   0    1013.0      129.3905        2.9656      146.3344      149.3000      19.909495       0.24683



 Wavenumbers: 12850. - 16000. cm-1, ATM      1
 LEVEL PRESSURE   UPWARD FLUX   DIFDOWN FLUX  DIRDOWN FLUX  DOWNWARD FLUX   NET FLUX    HEATING RATE
          mb          W/m2          W/m2          W/m2        W/m2          W/m2       degree/day
  51    .06700       85.7740        0.0000       98.0872       98.0872      12.313240       0.00000
  50    .07753       85.7740        0.0001       98.0864       98.0864      12.312445       0.63725
  49    .09103       85.7740        0.0002       98.0853       98.0855      12.311446       0.62455
  48    0.1069       85.7740        0.0003       98.0841       98.0843      12.310297       0.61167
  47    0.1255       85.7740        0.0004       98.0826       98.0830      12.308975       0.59913
  46    0.1487       85.7741        0.0005       98.0809       98.0814      12.307306       0.60868
  45    0.1794       85.7742        0.0008       98.0784       98.0792      12.305031       0.62437
  44    0.2165       85.7743        0.0010       98.0756       98.0766      12.302352       0.60949
  43    0.2613       85.7744        0.0013       98.0723       98.0736      12.299196       0.59491
  42    0.3336       85.7748        0.0018       98.0670       98.0688      12.294034       0.60182
  41    0.4307       85.7753        0.0024       98.0602       98.0626      12.287343       0.58178
  40    0.5894       85.7763        0.0035       98.0496       98.0531      12.276762       0.56268
  39     1.339       85.7846        0.0085       98.0043       98.0128      12.228209       0.54662
  38     1.782       85.7920        0.0114       97.9793       97.9907      12.198664       0.56247
  37     2.292       85.8030        0.0148       97.9498       97.9646      12.161597       0.61393
  36     2.964       85.8210        0.0192       97.9088       97.9280      12.107074       0.68443
  35     3.853       85.8499        0.0251       97.8503       97.8754      12.025568       0.77350
  34     5.035       85.8933        0.0329       97.7680       97.8009      11.907593       0.84277
  33     6.613       85.9539        0.0433       97.6562       97.6995      11.745625       0.86588
  32     8.786       86.0328        0.0573       97.5107       97.5680      11.535198       0.81722
  31     11.80       86.1357        0.0773       97.3179       97.3952      11.259464       0.77197
  30     15.07       86.2347        0.0988       97.1283       97.2272      10.992495       0.68926
  29     18.79       86.3360        0.1231       96.9300       97.0531      10.717135       0.62433
  28     23.16       86.4423        0.1514       96.7166       96.8680      10.425704       0.56353
  27     28.12       86.5497        0.1837       96.4935       96.6772      10.127501       0.50693
  26     33.73       86.6499        0.2200       96.2731       96.4931       9.843170       0.42750
  25     40.54       86.7476        0.2637       96.0408       96.3045       9.556919       0.35513
  24     48.69       86.8428        0.3165       95.7946       96.1111       9.268300       0.29867
  23     57.69       86.9255        0.3745       95.5573       95.9318       9.006256       0.24563
  22     68.43       87.0005        0.4436       95.3106       95.7542       8.753750       0.19850
  21     81.20       87.0574        0.5261       95.0644       95.5904       8.533012       0.14586
  20     96.49       87.0954        0.6245       94.8153       95.4398       8.344350       0.10413
  19     114.6       87.1341        0.7422       94.5412       95.2834       8.149273       0.09109
  18     136.5       87.1683        0.8818       94.2324       95.1142       7.945891       0.07821
  17     162.9       87.1985        1.0480       93.8760       94.9240       7.725440       0.07046
  16     196.4       87.2151        1.2636       93.4359       94.6994       7.484328       0.06069
  15     218.7       87.2181        1.4052       93.1535       94.5587       7.340633       0.05456
  14     243.0       87.2180        1.5591       92.8488       94.4079       7.189827       0.05230
  13     269.0       87.2146        1.7259       92.5217       94.2476       7.032921       0.05090
  12     297.5       87.2081        1.9061       92.1715       94.0776       6.869512       0.04847
  11     328.5       87.2003        2.1009       91.7951       93.8961       6.695733       0.04725
  10     361.9       87.1918        2.3107       91.3923       93.7030       6.511233       0.04668
   9     398.1       87.1829        2.5365       90.9623       93.4988       6.315860       0.04552
   8     437.6       87.1748        2.7791       90.5030       93.2821       6.107299       0.04459
   7     480.5       87.1680        3.0393       90.0138       93.0531       5.885048       0.04365
   6     533.0       87.1638        3.3597       89.4140       92.7737       5.609887       0.04426
   5     589.8       87.1661        3.7055       88.7685       92.4739       5.307826       0.04484
   4     651.6       87.1792        4.0774       88.0724       92.1498       4.970562       0.04612
   3     718.7       87.2081        4.4771       87.3206       91.7978       4.589636       0.04787
   2     792.3       87.2619        4.9046       86.5099       91.4145       4.152613       0.05012
   1     891.5       87.3813        5.4809       85.4069       90.8877       3.506492       0.05498
   0    1013.0       87.6153        6.1717       84.0749       90.2465       2.631193       0.06078



 Wavenumbers: 16000. - 22650. cm-1, ATM      1
 LEVEL PRESSURE   UPWARD FLUX   DIFDOWN FLUX  DIRDOWN FLUX  DOWNWARD FLUX   NET FLUX    HEATING RATE
          mb          W/m2          W/m2          W/m2        W/m2          W/m2       degree/day
  51    .06700      141.9979        0.0000      156.3892      156.3892      14.391307       0.00000
  50    .07753      141.9979        0.0004      156.3887      156.3891      14.391158       0.11921
  49    .09103      141.9979        0.0009      156.3879      156.3888      14.390942       0.13521
  48    0.1069      141.9979        0.0015      156.3871      156.3885      14.390652       0.15419
  47    0.1255      141.9979        0.0021      156.3861      156.3882      14.390264       0.17575
  46    0.1487      141.9980        0.0030      156.3847      156.3877      14.389693       0.20827
  45    0.1794      141.9981        0.0041      156.3828      156.3869      14.388800       0.24522
  44    0.2165      141.9983        0.0054      156.3805      156.3859      14.387588       0.27560
  43    0.2613      141.9987        0.0070      156.3776      156.3847      14.385944       0.30984
  42    0.3336      141.9995        0.0097      156.3726      156.3823      14.382819       0.36437
  41    0.4307      142.0008        0.0132      156.3657      156.3789      14.378109       0.40959
  40    0.5894      142.0034        0.0189      156.3537      156.3726      14.369124       0.47776
  39     1.339      142.0266        0.0459      156.2834      156.3293      14.302748       0.74727
  38     1.782      142.0479        0.0618      156.2324      156.2941      14.246204       1.07652
  37     2.292      142.0799        0.0802      156.1641      156.2443      14.164355       1.35564
  36     2.964      142.1330        0.1043      156.0605      156.1648      14.031757       1.66450
  35     3.853      142.2188        0.1361      155.9041      156.0402      13.821354       1.99676
  34     5.035      142.3483        0.1783      155.6774      155.8557      13.507445       2.24244
  33     6.613      142.5291        0.2347      155.3656      155.6003      13.071192       2.33221
  32     8.786      142.7647        0.3106      154.9577      155.2682      12.503510       2.20467
  31     11.80      143.0714        0.4189      154.4153      154.8342      11.762801       2.07375
  30     15.07      143.3653        0.5351      153.8804      154.4155      11.050230       1.83972
  29     18.79      143.6654        0.6661      153.3191      153.9852      10.319875       1.65594
  28     23.16      143.9791        0.8190      152.7126      153.5315       9.552423       1.48400
  27     28.12      144.2949        0.9935      152.0755      153.0690       8.774058       1.32317
  26     33.73      144.5866        1.1886      151.4409      152.6295       8.042901       1.09931
  25     40.54      144.8676        1.4241      150.7637      152.1878       7.320218       0.89657
  24     48.69      145.1369        1.7077      150.0339      151.7416       6.604713       0.74044
  23     57.69      145.3656        2.0189      149.3151      151.3341       5.968524       0.59633
  22     68.43      145.5655        2.3892      148.5476      150.9368       5.371280       0.46951
  21     81.20      145.7045        2.8300      147.7517      150.5817       4.877196       0.32648
  20     96.49      145.7780        3.3548      146.9127      150.2674       4.489447       0.21401
  19     114.6      145.8173        3.9761      145.9763      149.9524       4.135120       0.16545
  18     136.5      145.8320        4.7097      144.9088      149.6185       3.786549       0.13403
  17     162.9      145.8205        5.5793      143.6786      149.2579       3.437390       0.11161
  16     196.4      145.7431        6.7013      142.1652      148.8665       3.123433       0.07903
  15     218.7      145.6693        7.4345      141.2037      148.6382       2.968945       0.05865
  14     243.0      145.5784        8.2281      140.1761      148.4042       2.825838       0.04963
  13     269.0      145.4687        9.0842      139.0814      148.1656       2.696931       0.04182
  12     297.5      145.3394       10.0049      137.9177      147.9225       2.583184       0.03374
  11     328.5      145.1944       10.9944      136.6741      147.6685       2.474120       0.02965
  10     361.9      145.0334       12.0537      135.3501      147.4038       2.370434       0.02623
   9     398.1      144.8554       13.1868      133.9408      147.1276       2.272155       0.02290
   8     437.6      144.6610       14.3957      132.4429      146.8386       2.177570       0.02022
   7     480.5      144.4491       15.6825      130.8545      146.5370       2.087848       0.01762
   6     533.0      144.1851       17.2540      128.9212      146.1752       1.990137       0.01572
   5     589.8      143.8988       18.9330      126.8612      145.7941       1.895362       0.01407
   4     651.6      143.5906       20.7207      124.6720      145.3927       1.802134       0.01275
   3     718.7      143.2604       22.6192      122.3511      144.9702       1.709846       0.01160
   2     792.3      142.9090       24.6268      119.8996      144.5265       1.617476       0.01059
   1     891.5      142.4408       27.2951      116.6439      143.9390       1.498155       0.01015
   0    1013.0      141.8899       30.4364      112.8119      143.2483       1.358345       0.00971



 Wavenumbers: 22650. - 29000. cm-1, ATM      1
 LEVEL PRESSURE   UPWARD FLUX   DIFDOWN FLUX  DIRDOWN FLUX  DOWNWARD FLUX   NET FLUX    HEATING RATE
          mb          W/m2          W/m2          W/m2        W/m2          W/m2       degree/day
  51    .06700       58.6820        0.0000       59.0156       59.0156       0.333634       0.00000
  50    .07753       58.6819        0.0005       59.0151       59.0155       0.333634       0.00000
  49    .09103       58.6818        0.0010       59.0144       59.0154       0.333634       0.00000
  48    0.1069       58.6816        0.0017       59.0136       59.0153       0.333634      -0.00000
  47    0.1255       58.6815        0.0025       59.0127       59.0151       0.333634       0.00000
  46    0.1487       58.6813        0.0035       59.0115       59.0149       0.333634      -0.00000
  45    0.1794       58.6811        0.0048       59.0099       59.0147       0.333634       0.00000
  44    0.2165       58.6808        0.0063       59.0080       59.0144       0.333634       0.00000
  43    0.2613       58.6804        0.0082       59.0058       59.0140       0.333634      -0.00000
  42    0.3336       58.6798        0.0113       59.0022       59.0134       0.333634       0.00000
  41    0.4307       58.6790        0.0154       58.9973       59.0127       0.333634      -0.00000
  40    0.5894       58.6777        0.0220       58.9894       59.0114       0.333634       0.00000
  39     1.339       58.6717        0.0535       58.9518       59.0053       0.333634      -0.00000
  38     1.782       58.6681        0.0720       58.9297       59.0017       0.333634       0.00000
  37     2.292       58.6640        0.0934       58.9042       58.9976       0.333634       0.00000
  36     2.964       58.6586        0.1216       58.8706       58.9922       0.333634       0.00000
  35     3.853       58.6514        0.1587       58.8264       58.9851       0.333634      -0.00000
  34     5.035       58.6419        0.2080       58.7676       58.9756       0.333634       0.00000
  33     6.613       58.6293        0.2738       58.6891       58.9629       0.333634      -0.00000
  32     8.786       58.6122        0.3624       58.5834       58.9458       0.333634       0.00000
  31     11.80       58.5878        0.4890       58.4325       58.9215       0.333634      -0.00000
  30     15.07       58.5617        0.6247       58.2706       58.8953       0.333634       0.00000
  29     18.79       58.5323        0.7776       58.0882       58.8659       0.333634       0.00000
  28     23.16       58.4979        0.9559       57.8757       58.8316       0.333634       0.00000
  27     28.12       58.4588        1.1591       57.6333       58.7924       0.333634       0.00000
  26     33.73       58.4152        1.3857       57.3631       58.7488       0.333634      -0.00000
  25     40.54       58.3626        1.6584       57.0379       58.6963       0.333634       0.00000
  24     48.69       58.2996        1.9854       56.6479       58.6333       0.333634       0.00000
  23     57.69       58.2309        2.3424       56.2221       58.5645       0.333634       0.00000
  22     68.43       58.1495        2.7646       55.7186       58.4832       0.333634      -0.00000
  21     81.20       58.0534        3.2632       55.1239       58.3871       0.333634       0.00000
  20     96.49       57.9402        3.8510       54.4228       58.2738       0.333634      -0.00000
  19     114.6       57.8073        4.5400       53.6010       58.1410       0.333634       0.00000
  18     136.5       57.6522        5.3441       52.6418       57.9859       0.333634       0.00000
  17     162.9       57.4709        6.2842       51.5204       57.8045       0.333634      -0.00000
  16     196.4       57.2410        7.4752       50.0995       57.5747       0.333634       0.00000
  15     218.7       57.0933        8.2406       49.1863       57.4269       0.333634       0.00000
  14     243.0       56.9354        9.0577       48.2114       57.2691       0.333634       0.00000
  13     269.0       56.7676        9.9261       47.1752       57.1013       0.333634      -0.00000
  12     297.5       56.5900       10.8449       46.0788       56.9237       0.333634       0.00000
  11     328.5       56.4023       11.8155       44.9204       56.7359       0.333634      -0.00000
  10     361.9       56.2050       12.8353       43.7033       56.5386       0.333634      -0.00000
   9     398.1       55.9980       13.9043       42.4273       56.3316       0.333634       0.00000
   8     437.6       55.7817       15.0203       41.0950       56.1154       0.333634       0.00000
   7     480.5       55.5567       16.1808       39.7095       55.8903       0.333634      -0.00000
   6     533.0       55.2890       17.5601       38.0626       55.6226       0.333634       0.00000
   5     589.8       55.0115       18.9885       36.3566       55.3451       0.333634       0.00000
   4     651.6       54.7253       20.4596       34.5993       55.0589       0.333634       0.00000
   3     718.7       54.4317       21.9667       32.7986       54.7653       0.333634       0.00000
   2     792.3       54.1321       23.5018       30.9639       54.4658       0.333634      -0.00000
   1     891.5       53.7519       25.4464       28.6392       54.0855       0.333634       0.00000
   0    1013.0       53.3288       27.6039       26.0585       53.6624       0.333634       0.00000



 Wavenumbers: 29000. - 38000. cm-1, ATM      1
 LEVEL PRESSURE   UPWARD FLUX   DIFDOWN FLUX  DIRDOWN FLUX  DOWNWARD FLUX   NET FLUX    HEATING RATE
          mb          W/m2          W/m2          W/m2        W/m2          W/m2       degree/day
  51    .06700        8.7676        0.0000       20.8114       20.8114      12.043770       0.00000
  50    .07753        8.7674        0.0003       20.8070       20.8074      12.039963       3.05155
  49    .09103        8.7672        0.0007       20.8009       20.8016      12.034425       3.46085
  48    0.1069        8.7669        0.0012       20.7928       20.7939      12.027016       3.94429
  47    0.1255        8.7666        0.0017       20.7820       20.7837      12.017111       4.49034
  46    0.1487        8.7663        0.0024       20.7665       20.7688      12.002548       5.30844
  45    0.1794        8.7658        0.0033       20.7424       20.7457      11.979883       6.22204
  44    0.2165        8.7653        0.0044       20.7103       20.7147      11.949360       6.94340
  43    0.2613        8.7647        0.0056       20.6675       20.6731      11.908365       7.72732
  42    0.3336        8.7638        0.0077       20.5880       20.5957      11.831804       8.92625
  41    0.4307        8.7628        0.0104       20.4722       20.4826      11.719852       9.73402
  40    0.5894        8.7612        0.0147       20.2637       20.2784      11.517168      10.77846
  39     1.339        8.7578        0.0331       19.0984       19.1315      10.373691      12.87347
  38     1.782        8.7583        0.0427       18.4394       18.4821       9.723767      12.37351
  37     2.292        8.7610        0.0530       17.7714       17.8244       9.063422      10.93703
  36     2.964        8.7675        0.0657       17.0421       17.1078       8.340298       9.07739
  35     3.853        8.7804        0.0816       16.2679       16.3495       7.569120       7.31863
  34     5.035        8.8015        0.1018       15.4803       15.5821       6.780626       5.63267
  33     6.613        8.8322        0.1276       14.7157       14.8433       6.011045       4.11418
  32     8.786        8.8728        0.1614       13.9936       14.1549       5.282099       2.83096
  31     11.80        8.9258        0.2084       13.2835       13.4920       4.566141       2.00446
  30     15.07        8.9769        0.2573       12.7394       12.9966       4.019672       1.41088
  29     18.79        9.0297        0.3114       12.2666       12.5780       3.548229       1.06890
  28     23.16        9.0858        0.3729       11.8300       12.2029       3.117094       0.83368
  27     28.12        9.1433        0.4418       11.4279       11.8697       2.726404       0.66415
  26     33.73        9.1963        0.5178       11.0695       11.5872       2.390900       0.50444
  25     40.54        9.2467        0.6085       10.7209       11.3294       2.082734       0.38232
  24     48.69        9.2942        0.7162       10.3742       11.0904       1.796177       0.29654
  23     57.69        9.3332        0.8328       10.0549       10.8877       1.554416       0.22661
  22     68.43        9.3648        0.9695        9.7327       10.7022       1.337376       0.17062
  21     81.20        9.3800        1.1309        9.4134       10.5443       1.164306       0.11436
  20     96.49        9.3769        1.3207        9.0887       10.4094       1.032559       0.07271
  19     114.6        9.3635        1.5400        8.7388       10.2788       0.915286       0.05476
  18     136.5        9.3428        1.7907        8.3549       10.1456       0.802758       0.04327
  17     162.9        9.3151        2.0765        7.9311       10.0076       0.692580       0.03522
  16     196.4        9.2682        2.4305        7.4333        9.8638       0.595600       0.02441
  15     218.7        9.2345        2.6532        7.1296        9.7828       0.548299       0.01796
  14     243.0        9.1975        2.8860        6.8161        9.7021       0.504622       0.01515
  13     269.0        9.1570        3.1280        6.4944        9.6224       0.465402       0.01272
  12     297.5        9.1132        3.3782        6.1659        9.5441       0.430828       0.01025
  11     328.5        9.0675        3.6356        5.8297        9.4652       0.397725       0.00900
  10     361.9        9.0204        3.8977        5.4889        9.3866       0.366241       0.00797
   9     398.1        8.9719        4.1639        5.1444        9.3083       0.336403       0.00695
   8     437.6        8.9226        4.4328        4.7974        9.2302       0.307642       0.00615
   7     480.5        8.8728        4.7023        4.4508        9.1531       0.280336       0.00536
   6     533.0        8.8158        5.0092        4.0571        9.0664       0.250574       0.00479
   5     589.8        8.7598        5.3112        3.6704        8.9815       0.221756       0.00428
   4     651.6        8.7055        5.6058        3.2932        8.8990       0.193558       0.00386
   3     718.7        8.6537        5.8898        2.9298        8.8196       0.165937       0.00347
   2     792.3        8.6049        6.1610        2.5828        8.7438       0.138898       0.00310
   1     891.5        8.5492        6.4792        2.1756        8.6547       0.105508       0.00284
   0    1013.0        8.4963        6.7986        1.7663        8.5649       0.068616       0.00256



 Wavenumbers: 38000. - 50000. cm-1, ATM      1
 LEVEL PRESSURE   UPWARD FLUX   DIFDOWN FLUX  DIRDOWN FLUX  DOWNWARD FLUX   NET FLUX    HEATING RATE
          mb          W/m2          W/m2          W/m2        W/m2          W/m2       degree/day
  51    .06700        0.0061        0.0000        1.2836        1.2836       1.277518       0.00000
  50    .07753        0.0061        0.0001        1.2812        1.2812       1.275183       1.87150
  49    .09103        0.0060        0.0002        1.2777        1.2778       1.271851       2.08247
  48    0.1069        0.0059        0.0002        1.2731        1.2734       1.267473       2.33059
  47    0.1255        0.0058        0.0004        1.2672        1.2675       1.261717       2.60908
  46    0.1487        0.0057        0.0005        1.2586        1.2591       1.253391       3.03499
  45    0.1794        0.0055        0.0007        1.2455        1.2462       1.240623       3.50520
  44    0.2165        0.0054        0.0009        1.2282        1.2291       1.223697       3.85037
  43    0.2613        0.0052        0.0011        1.2054        1.2065       1.201348       4.21261
  42    0.3336        0.0049        0.0015        1.1639        1.1654       1.160524       4.75970
  41    0.4307        0.0045        0.0020        1.1051        1.1070       1.102565       5.03943
  40    0.5894        0.0039        0.0026        1.0039        1.0064       1.002524       5.32007
  39     1.339        0.0022        0.0035        0.5438        0.5473       0.545105       5.14971
  38     1.782        0.0016        0.0032        0.3635        0.3666       0.365006       3.42879
  37     2.292        0.0012        0.0027        0.2356        0.2383       0.237058       2.11916
  36     2.964        0.0009        0.0022        0.1455        0.1477       0.146786       1.13318
  35     3.853        0.0006        0.0017        0.0858        0.0875       0.086906       0.56828
  34     5.035        0.0004        0.0013        0.0488        0.0501       0.049701       0.26578
  33     6.613        0.0003        0.0010        0.0273        0.0282       0.027974       0.11615
  32     8.786        0.0002        0.0007        0.0144        0.0151       0.014928       0.05067
  31     11.80        0.0001        0.0004        0.0065        0.0070       0.006903       0.02247
  30     15.07        0.0000        0.0003        0.0031        0.0034       0.003329       0.00923
  29     18.79        0.0000        0.0002        0.0014        0.0016       0.001583       0.00396
  28     23.16        0.0000        0.0001        0.0006        0.0007       0.000720       0.00167
  27     28.12        0.0000        0.0001        0.0003        0.0003       0.000317       0.00069
  26     33.73        0.0000        0.0000        0.0001        0.0001       0.000140       0.00027
  25     40.54        0.0000        0.0000        0.0000        0.0001       0.000057       0.00010
  24     48.69        0.0000        0.0000        0.0000        0.0000       0.000021       0.00004
  23     57.69        0.0000        0.0000        0.0000        0.0000       0.000008       0.00001
  22     68.43        0.0000        0.0000        0.0000        0.0000       0.000003       0.00000
  21     81.20        0.0000        0.0000        0.0000        0.0000       0.000001       0.00000
  20     96.49        0.0000        0.0000        0.0000        0.0000       0.000000       0.00000
  19     114.6        0.0000        0.0000        0.0000        0.0000       0.000000       0.00000
  18     136.5        0.0000        0.0000        0.0000        0.0000       0.000000       0.00000
  17     162.9        0.0000        0.0000        0.0000        0.0000       0.000000       0.00000
  16     196.4        0.0000        0.0000        0.0000        0.0000       0.000000       0.00000
  15     218.7        0.0000        0.0000        0.0000        0.0000       0.000000       0.00000
  14     243.0        0.0000        0.0000        0.0000        0.0000       0.000000       0.00000
  13     269.0        0.0000        0.0000        0.0000        0.0000       0.000000       0.00000
  12     297.5        0.0000        0.0000        0.0000        0.0000       0.000000       0.00000
  11     328.5        0.0000        0.0000        0.0000        0.0000       0.000000       0.00000
  10     361.9        0.0000        0.0000        0.0000        0.0000       0.000000       0.00000
   9     398.1        0.0000        0.0000        0.0000        0.0000       0.000000       0.00000
   8     437.6        0.0000        0.0000        0.0000        0.0000       0.000000       0.00000
   7     480.5        0.0000        0.0000        0.0000        0.0000       0.000000       0.00000
   6     533.0        0.0000        0.0000        0.0000        0.0000       0.000000       0.00000
   5     589.8        0.0000        0.0000        0.0000        0.0000       0.000000       0.00000
   4     651.6        0.0000        0.0000        0.0000        0.0000       0.000000       0.00000
   3     718.7        0.0000        0.0000        0.0000        0.0000       0.000000       0.00000
   2     792.3        0.0000        0.0000        0.0000        0.0000       0.000000       0.00000
   1     891.5        0.0000        0.0000        0.0000        0.0000       0.000000       0.00000
   0    1013.0        0.0000        0.0000        0.0000        0.0000       0.000000       0.00000



 Wavenumbers:   820. -  2600. cm-1, ATM      1
 LEVEL PRESSURE   UPWARD FLUX   DIFDOWN FLUX  DIRDOWN FLUX  DOWNWARD FLUX   NET FLUX    HEATING RATE
          mb          W/m2          W/m2          W/m2        W/m2          W/m2       degree/day
  51    .06700        0.0351        0.0000        6.0047        6.0047       5.969524       0.00000
  50    .07753        0.0351        0.0000        6.0009        6.0009       5.965742       3.03109
  49    .09103        0.0351        0.0000        6.0001        6.0001       5.964949       0.49553
  48    0.1069        0.0351        0.0000        5.9992        5.9992       5.964071       0.46750
  47    0.1255        0.0351        0.0000        5.9982        5.9982       5.963086       0.44651
  46    0.1487        0.0351        0.0000        5.9970        5.9970       5.961903       0.43131
  45    0.1794        0.0351        0.0000        5.9956        5.9956       5.960429       0.40462
  44    0.2165        0.0351        0.0000        5.9940        5.9940       5.958887       0.35066
  43    0.2613        0.0351        0.0000        5.9924        5.9924       5.957297       0.29980
  42    0.3336        0.0351        0.0000        5.9902        5.9902       5.955049       0.26213
  41    0.4307        0.0351        0.0000        5.9876        5.9876       5.952435       0.22728
  40    0.5894        0.0351        0.0000        5.9835        5.9835       5.948359       0.21672
  39     1.339        0.0351        0.0000        5.9648        5.9648       5.929643       0.21072
  38     1.782        0.0351        0.0000        5.9544        5.9544       5.919308       0.19675
  37     2.292        0.0351        0.0000        5.9428        5.9429       5.907724       0.19187
  36     2.964        0.0351        0.0000        5.9281        5.9281       5.892965       0.18527
  35     3.853        0.0351        0.0000        5.9093        5.9093       5.874170       0.17837
  34     5.035        0.0351        0.0000        5.8854        5.8854       5.850259       0.17081
  33     6.613        0.0351        0.0000        5.8543        5.8543       5.819191       0.16609
  32     8.786        0.0351        0.0000        5.8128        5.8128       5.777665       0.16127
  31     11.80        0.0351        0.0000        5.7575        5.7575       5.722338       0.15490
  30     15.07        0.0351        0.0000        5.7084        5.7084       5.673234       0.12678
  29     18.79        0.0351        0.0000        5.6675        5.6675       5.632392       0.09260
  28     23.16        0.0351        0.0000        5.6362        5.6362       5.601077       0.06055
  27     28.12        0.0351        0.0000        5.6137        5.6137       5.578568       0.03826
  26     33.73        0.0351        0.0000        5.5961        5.5961       5.560966       0.02647
  25     40.54        0.0351        0.0000        5.5781        5.5781       5.542932       0.02237
  24     48.69        0.0351        0.0000        5.5568        5.5568       5.521722       0.02195
  23     57.69        0.0351        0.0000        5.5331        5.5331       5.497951       0.02228
  22     68.43        0.0351        0.0000        5.5042        5.5042       5.469053       0.02272
  21     81.20        0.0351        0.0000        5.4700        5.4700       5.434901       0.02257
  20     96.49        0.0351        0.0000        5.4298        5.4299       5.394717       0.02218
  19     114.6        0.0351        0.0000        5.3840        5.3840       5.348854       0.02142
  18     136.5        0.0351        0.0000        5.3327        5.3327       5.297590       0.01971
  17     162.9        0.0351        0.0000        5.2759        5.2759       5.240801       0.01815
  16     196.4        0.0352        0.0000        5.2078        5.2078       5.172677       0.01715
  15     218.7        0.0352        0.0000        5.1650        5.1650       5.129865       0.01625
  14     243.0        0.0352        0.0000        5.1183        5.1183       5.083136       0.01621
  13     269.0        0.0352        0.0000        5.0660        5.0661       5.030879       0.01695
  12     297.5        0.0352        0.0000        5.0054        5.0054       4.970242       0.01798
  11     328.5        0.0352        0.0000        4.9388        4.9388       4.903616       0.01812
  10     361.9        0.0352        0.0000        4.8666        4.8667       4.831447       0.01826
   9     398.1        0.0352        0.0000        4.7893        4.7894       4.754160       0.01801
   8     437.6        0.0353        0.0000        4.7069        4.7069       4.671689       0.01763
   7     480.5        0.0353        0.0000        4.6211        4.6212       4.585886       0.01685
   6     533.0        0.0353        0.0001        4.5165        4.5166       4.481271       0.01683
   5     589.8        0.0354        0.0001        4.3929        4.3930       4.357587       0.01836
   4     651.6        0.0355        0.0001        4.2241        4.2242       4.188734       0.02309
   3     718.7        0.0356        0.0001        4.0056        4.0057       3.970078       0.02748
   2     792.3        0.0358        0.0001        3.7499        3.7500       3.714202       0.02935
   1     891.5        0.0362        0.0001        3.4612        3.4612       3.424989       0.02461
   0    1013.0        0.0372        0.0001        3.2635        3.2635       3.226340       0.01379

  Modules and versions used in this calculation:

       rrtmg_sw.1col.f90:  $Revision$                    rrtmg_sw_init.f90:  $Revision$        
     rrtmgsw_cldprop.f90:  $Revision$                  rrtmgsw_cldprmc.f90:  NOT USED          
     rrtmg_sw_reftra.f90:  $Revision$                  rrtmg_sw_spcvrt.f90:  NOT USED          
     rrtmg_sw_spcvmc.f90:  NOT USED                    rrtmgsw_setcoef.f90:  NOT USED          
     rrtmg_sw_taumol.f90:  $Revision$                  rrtmg_sw_vrtqdr.f90:  NOT USED          
                rrtatm.f:  NOT USED                             util_xxx.f:  NOT USED          
                 extra.f:  NOT USED                       rrtmg_sw_k_g.f90:  $Revision$        

