

 Wavenumbers:   820. - 50000. cm-1, ATM      1
 LEVEL PRESSURE   UPWARD FLUX   DIFDOWN FLUX  DIRDOWN FLUX  DOWNWARD FLUX   NET FLUX    HEATING RATE
          mb          W/m2          W/m2          W/m2        W/m2          W/m2       degree/day
  51    .06700      436.0109        0.0000      617.8126      617.8126     181.801652       0.00000
  50    .07753      436.0106        0.0014      617.7950      617.7964     181.785830      12.68168
  49    .09103      436.0101        0.0031      617.7785      617.7815     181.771403       9.01681
  48    0.1069      436.0097        0.0050      617.7592      617.7642     181.754569       8.96102
  47    0.1255      436.0092        0.0073      617.7356      617.7429     181.733700       9.46086
  46    0.1487      436.0086        0.0101      617.7031      617.7132     181.704602      10.60653
  45    0.1794      436.0079        0.0140      617.6551      617.6691     181.661149      11.92886
  44    0.2165      436.0073        0.0185      617.5935      617.6120     181.604734      12.83360
  43    0.2613      436.0066        0.0239      617.5140      617.5379     181.531294      13.84306
  42    0.3336      436.0059        0.0328      617.3711      617.4039     181.398006      15.54003
  41    0.4307      436.0054        0.0445      617.1687      617.2131     181.207797      16.53829
  40    0.5894      436.0055        0.0633      616.8142      616.8776     180.872037      17.85526
  39     1.339      436.0252        0.1487      614.9760      615.1247     179.099507      19.95547
  38     1.782      436.0499        0.1967      614.0081      614.2048     178.154864      17.98448
  37     2.292      436.0905        0.2513      613.0570      613.3083     177.217797      15.52027
  36     2.964      436.1617        0.3223      612.0209      612.3433     176.181528      13.00831
  35     3.853      436.2809        0.4155      610.8806      611.2961     175.015130      11.06933
  34     5.035      436.4640        0.5384      609.6294      610.1678     173.703813       9.36750
  33     6.613      436.7217        0.7015      608.2656      608.9672     172.245542       7.79592
  32     8.786      437.0573        0.9205      606.7707      607.6912     170.633845       6.25925
  31     11.80      437.4924        1.2321      605.0259      606.2580     168.765637       5.23039
  30     15.07      437.9069        1.5647      603.4497      605.0144     167.107552       4.28085
  29     18.79      438.3280        1.9390      601.8855      603.8244     165.496416       3.65294
  28     23.16      438.7658        2.3738      600.2586      602.6324     163.866609       3.15152
  27     28.12      439.2030        2.8689      598.5883      601.4572     162.254229       2.74094
  26     33.73      439.5995        3.4207      596.9309      600.3516     160.752119       2.25846
  25     40.54      439.9705        4.0852      595.1472      599.2323     159.261856       1.84884
  24     48.69      440.3132        4.8825      593.2025      598.0850     157.771814       1.54196
  23     57.69      440.5882        5.7542      591.2538      597.0080     156.419822       1.26729
  22     68.43      440.8056        6.7869      589.1237      595.9107     155.105027       1.03361
  21     81.20      440.9119        8.0114      586.8255      594.8369     153.925014       0.77973
  20     96.49      440.8968        9.4613      584.3100      593.7713     152.874481       0.57982
  19     114.6      440.8172       11.1670      581.4647      592.6317     151.814524       0.49493
  18     136.5      440.6770       13.1645      578.2230      591.3874     150.710478       0.42453
  17     162.9      440.4709       15.5089      574.5029      590.0119     149.540985       0.37382
  16     196.4      440.1133       18.4993      569.8996      588.3989     148.285619       0.31599
  15     218.7      439.8482       20.4331      566.9312      587.3643     147.516145       0.29214
  14     243.0      439.5492       22.5077      563.6785      586.1862     146.636992       0.30492
  13     269.0      439.2149       24.7249      560.0763      584.8011     145.586257       0.34085
  12     297.5      438.8456       27.0854      556.0875      583.1730     144.327350       0.37338
  11     328.5      438.4490       29.5959      551.7733      581.3692     142.920165       0.38261
  10     361.9      438.0272       32.2527      547.1145      579.3672     141.339959       0.39981
   9     398.1      437.5818       35.0609      542.0221      577.0830     139.501241       0.42838
   8     437.6      437.1184       38.0198      536.4174      574.4372     137.318809       0.46662
   7     480.5      436.6414       41.1281      530.3079      571.4360     134.794639       0.49574
   6     533.0      436.0893       44.8679      522.6977      567.5656     131.476321       0.53381
   5     589.8      435.5524       48.7969      514.3201      563.1169     127.564568       0.58063
   4     651.6      435.0780       52.9086      504.8161      557.7247     122.646708       0.67253
   3     718.7      434.7230       57.1950      494.2447      551.4397     116.716716       0.74524
   2     792.3      434.6023       61.6438      482.5757      544.2195     109.617232       0.81423
   1     891.5      435.0517       67.4232      466.8274      534.2505      99.198820       0.88656
   0    1013.0      436.9705       74.0468      448.6910      522.7378      85.767328       0.93262



 Wavenumbers:  2600. -  3250. cm-1, ATM      1
 LEVEL PRESSURE   UPWARD FLUX   DIFDOWN FLUX  DIRDOWN FLUX  DOWNWARD FLUX   NET FLUX    HEATING RATE
          mb          W/m2          W/m2          W/m2        W/m2          W/m2       degree/day
  51    .06700        0.0519        0.0000        5.4450        5.4450       5.393101       0.00000
  50    .07753        0.0519        0.0000        5.4450        5.4450       5.393093       0.00640
  49    .09103        0.0519        0.0000        5.4450        5.4450       5.393083       0.00627
  48    0.1069        0.0519        0.0000        5.4450        5.4450       5.393071       0.00613
  47    0.1255        0.0519        0.0000        5.4450        5.4450       5.393058       0.00599
  46    0.1487        0.0519        0.0000        5.4450        5.4450       5.393042       0.00608
  45    0.1794        0.0519        0.0000        5.4450        5.4450       5.393019       0.00625
  44    0.2165        0.0519        0.0000        5.4449        5.4449       5.392992       0.00612
  43    0.2613        0.0519        0.0000        5.4449        5.4449       5.392960       0.00600
  42    0.3336        0.0519        0.0000        5.4448        5.4448       5.392907       0.00617
  41    0.4307        0.0519        0.0000        5.4448        5.4448       5.392836       0.00620
  40    0.5894        0.0519        0.0000        5.4446        5.4446       5.392716       0.00637
  39     1.339        0.0519        0.0000        5.4439        5.4439       5.392009       0.00797
  38     1.782        0.0519        0.0000        5.4434        5.4434       5.391466       0.01034
  37     2.292        0.0519        0.0000        5.4427        5.4427       5.390750       0.01186
  36     2.964        0.0519        0.0000        5.4416        5.4416       5.389711       0.01304
  35     3.853        0.0519        0.0000        5.4402        5.4402       5.388234       0.01402
  34     5.035        0.0519        0.0000        5.4381        5.4381       5.386178       0.01468
  33     6.613        0.0519        0.0000        5.4353        5.4353       5.383397       0.01487
  32     8.786        0.0519        0.0000        5.4317        5.4317       5.379765       0.01411
  31     11.80        0.0519        0.0000        5.4269        5.4269       5.374985       0.01338
  30     15.07        0.0519        0.0000        5.4224        5.4224       5.370459       0.01169
  29     18.79        0.0519        0.0000        5.4180        5.4180       5.366047       0.01000
  28     23.16        0.0519        0.0000        5.4135        5.4135       5.361562       0.00867
  27     28.12        0.0519        0.0000        5.4088        5.4088       5.356915       0.00790
  26     33.73        0.0519        0.0000        5.4036        5.4036       5.351675       0.00788
  25     40.54        0.0519        0.0000        5.3966        5.3967       5.344735       0.00861
  24     48.69        0.0519        0.0000        5.3872        5.3872       5.335260       0.00980
  23     57.69        0.0519        0.0000        5.3754        5.3754       5.323479       0.01104
  22     68.43        0.0519        0.0000        5.3599        5.3599       5.307995       0.01217
  21     81.20        0.0519        0.0000        5.3401        5.3401       5.288167       0.01310
  20     96.49        0.0519        0.0000        5.3155        5.3155       5.263608       0.01355
  19     114.6        0.0519        0.0000        5.2861        5.2861       5.234207       0.01373
  18     136.5        0.0519        0.0000        5.2520        5.2520       5.200073       0.01313
  17     162.9        0.0519        0.0001        5.2136        5.2137       5.161744       0.01225
  16     196.4        0.0520        0.0001        5.1690        5.1691       5.117123       0.01123
  15     218.7        0.0520        0.0001        5.1427        5.1428       5.090845       0.00998
  14     243.0        0.0520        0.0001        5.1164        5.1165       5.064530       0.00913
  13     269.0        0.0520        0.0001        5.0899        5.0900       5.038028       0.00860
  12     297.5        0.0520        0.0001        5.0627        5.0628       5.010810       0.00807
  11     328.5        0.0521        0.0001        5.0344        5.0346       4.982482       0.00770
  10     361.9        0.0521        0.0001        5.0042        5.0043       4.952208       0.00766
   9     398.1        0.0522        0.0001        4.9704        4.9705       4.918341       0.00789
   8     437.6        0.0523        0.0001        4.9305        4.9306       4.878353       0.00855
   7     480.5        0.0524        0.0002        4.8838        4.8840       4.831555       0.00919
   6     533.0        0.0526        0.0002        4.8195        4.8197       4.767086       0.01037
   5     589.8        0.0529        0.0002        4.7386        4.7388       4.685946       0.01204
   4     651.6        0.0533        0.0002        4.6333        4.6335       4.580284       0.01445
   3     718.7        0.0538        0.0002        4.4994        4.4996       4.445825       0.01690
   2     792.3        0.0546        0.0002        4.3319        4.3321       4.277533       0.01930
   1     891.5        0.0562        0.0003        4.0816        4.0818       4.025626       0.02144
   0    1013.0        0.0593        0.0003        3.7798        3.7801       3.720735       0.02117



 Wavenumbers:  3250. -  4000. cm-1, ATM      1
 LEVEL PRESSURE   UPWARD FLUX   DIFDOWN FLUX  DIRDOWN FLUX  DOWNWARD FLUX   NET FLUX    HEATING RATE
          mb          W/m2          W/m2          W/m2        W/m2          W/m2       degree/day
  51    .06700        0.0245        0.0000        9.1795        9.1795       9.154981       0.00000
  50    .07753        0.0245        0.0000        9.1749        9.1749       9.150310       3.74429
  49    .09103        0.0245        0.0000        9.1717        9.1717       9.147115       1.99669
  48    0.1069        0.0245        0.0000        9.1693        9.1693       9.144792       1.23682
  47    0.1255        0.0245        0.0000        9.1673        9.1673       9.142741       0.92969
  46    0.1487        0.0245        0.0000        9.1651        9.1651       9.140539       0.80262
  45    0.1794        0.0245        0.0000        9.1625        9.1625       9.137950       0.71074
  44    0.2165        0.0245        0.0000        9.1599        9.1599       9.135341       0.59362
  43    0.2613        0.0245        0.0000        9.1573        9.1573       9.132717       0.49445
  42    0.3336        0.0245        0.0000        9.1537        9.1537       9.129112       0.42032
  41    0.4307        0.0245        0.0000        9.1497        9.1497       9.125113       0.34776
  40    0.5894        0.0245        0.0000        9.1439        9.1439       9.119324       0.30786
  39     1.339        0.0245        0.0000        9.1211        9.1211       9.096590       0.25594
  38     1.782        0.0245        0.0000        9.1108        9.1108       9.086231       0.19723
  37     2.292        0.0245        0.0000        9.1007        9.1007       9.076183       0.16642
  36     2.964        0.0245        0.0000        9.0894        9.0894       9.064843       0.14235
  35     3.853        0.0245        0.0000        9.0760        9.0760       9.051443       0.12717
  34     5.035        0.0245        0.0000        9.0592        9.0593       9.034711       0.11953
  33     6.613        0.0245        0.0000        9.0371        9.0371       9.012600       0.11821
  32     8.786        0.0245        0.0000        9.0062        9.0063       8.981720       0.11992
  31     11.80        0.0245        0.0000        8.9598        8.9598       8.935309       0.12994
  30     15.07        0.0245        0.0000        8.9080        8.9080       8.883472       0.13383
  29     18.79        0.0245        0.0000        8.8479        8.8479       8.823394       0.13621
  28     23.16        0.0245        0.0000        8.7776        8.7777       8.753147       0.13584
  27     28.12        0.0245        0.0000        8.6995        8.6995       8.674997       0.13285
  26     33.73        0.0245        0.0000        8.6175        8.6176       8.593077       0.12317
  25     40.54        0.0245        0.0001        8.5277        8.5277       8.503223       0.11147
  24     48.69        0.0245        0.0001        8.4317        8.4318       8.407273       0.09929
  23     57.69        0.0245        0.0001        8.3370        8.3370       8.312576       0.08876
  22     68.43        0.0245        0.0001        8.2317        8.2318       8.207308       0.08275
  21     81.20        0.0244        0.0001        8.1103        8.1104       8.085960       0.08018
  20     96.49        0.0244        0.0001        7.9692        7.9693       7.944875       0.07787
  19     114.6        0.0244        0.0001        7.8086        7.8087       7.784304       0.07498
  18     136.5        0.0244        0.0002        7.6321        7.6323       7.607915       0.06783
  17     162.9        0.0243        0.0002        7.4414        7.4416       7.417292       0.06093
  16     196.4        0.0243        0.0002        7.2180        7.2182       7.193904       0.05623
  15     218.7        0.0243        0.0003        7.0729        7.0732       7.048892       0.05506
  14     243.0        0.0243        0.0003        6.9050        6.9053       6.881039       0.05822
  13     269.0        0.0242        0.0003        6.7012        6.7015       6.677275       0.06610
  12     297.5        0.0242        0.0003        6.4525        6.4528       6.428566       0.07376
  11     328.5        0.0242        0.0003        6.1914        6.1918       6.167554       0.07097
  10     361.9        0.0242        0.0003        5.9305        5.9309       5.906672       0.06601
   9     398.1        0.0242        0.0004        5.6507        5.6511       5.626889       0.06518
   8     437.6        0.0242        0.0004        5.3335        5.3339       5.309713       0.06781
   7     480.5        0.0242        0.0004        4.9749        4.9753       4.951101       0.07043
   6     533.0        0.0243        0.0004        4.5274        4.5278       4.503448       0.07201
   5     589.8        0.0245        0.0004        4.0529        4.0533       4.028836       0.07045
   4     651.6        0.0248        0.0004        3.5447        3.5451       3.520314       0.06954
   3     718.7        0.0254        0.0004        3.0426        3.0430       3.017567       0.06318
   2     792.3        0.0265        0.0003        2.5500        2.5503       2.523763       0.05663
   1     891.5        0.0294        0.0003        1.9745        1.9748       1.945373       0.04922
   0    1013.0        0.0369        0.0002        1.4233        1.4235       1.386665       0.03879



 Wavenumbers:  4000. -  4650. cm-1, ATM      1
 LEVEL PRESSURE   UPWARD FLUX   DIFDOWN FLUX  DIRDOWN FLUX  DOWNWARD FLUX   NET FLUX    HEATING RATE
          mb          W/m2          W/m2          W/m2        W/m2          W/m2       degree/day
  51    .06700        1.6060        0.0000       10.7795       10.7795       9.173500       0.00000
  50    .07753        1.6060        0.0000       10.7795       10.7795       9.173499       0.00084
  49    .09103        1.6060        0.0000       10.7795       10.7795       9.173498       0.00082
  48    0.1069        1.6060        0.0000       10.7795       10.7795       9.173496       0.00080
  47    0.1255        1.6060        0.0000       10.7795       10.7795       9.173495       0.00079
  46    0.1487        1.6060        0.0000       10.7795       10.7795       9.173493       0.00080
  45    0.1794        1.6060        0.0000       10.7795       10.7795       9.173490       0.00082
  44    0.2165        1.6060        0.0000       10.7795       10.7795       9.173486       0.00080
  43    0.2613        1.6060        0.0000       10.7795       10.7795       9.173482       0.00079
  42    0.3336        1.6060        0.0000       10.7795       10.7795       9.173475       0.00081
  41    0.4307        1.6060        0.0000       10.7795       10.7795       9.173465       0.00082
  40    0.5894        1.6060        0.0000       10.7795       10.7795       9.173450       0.00084
  39     1.339        1.6060        0.0000       10.7794       10.7794       9.173356       0.00106
  38     1.782        1.6060        0.0000       10.7793       10.7793       9.173282       0.00140
  37     2.292        1.6060        0.0000       10.7792       10.7792       9.173183       0.00164
  36     2.964        1.6060        0.0000       10.7791       10.7791       9.173035       0.00186
  35     3.853        1.6060        0.0000       10.7788       10.7788       9.172816       0.00208
  34     5.035        1.6060        0.0000       10.7785       10.7785       9.172493       0.00231
  33     6.613        1.6060        0.0000       10.7780       10.7780       9.172018       0.00254
  32     8.786        1.6060        0.0000       10.7773       10.7773       9.171316       0.00273
  31     11.80        1.6060        0.0000       10.7762       10.7762       9.170213       0.00309
  30     15.07        1.6060        0.0001       10.7749       10.7749       9.168919       0.00334
  29     18.79        1.6060        0.0001       10.7733       10.7734       9.167354       0.00355
  28     23.16        1.6060        0.0001       10.7713       10.7714       9.165410       0.00376
  27     28.12        1.6060        0.0001       10.7690       10.7691       9.163057       0.00400
  26     33.73        1.6060        0.0001       10.7661       10.7662       9.160154       0.00436
  25     40.54        1.6061        0.0002       10.7621       10.7623       9.156215       0.00489
  24     48.69        1.6061        0.0002       10.7569       10.7571       9.150966       0.00543
  23     57.69        1.6062        0.0002       10.7507       10.7509       9.144741       0.00584
  22     68.43        1.6062        0.0003       10.7429       10.7432       9.136937       0.00614
  21     81.20        1.6064        0.0003       10.7334       10.7337       9.127325       0.00635
  20     96.49        1.6066        0.0004       10.7218       10.7222       9.115628       0.00646
  19     114.6        1.6068        0.0004       10.7079       10.7083       9.101512       0.00659
  18     136.5        1.6072        0.0005       10.6911       10.6917       9.084516       0.00654
  17     162.9        1.6076        0.0006       10.6710       10.6716       9.063961       0.00657
  16     196.4        1.6084        0.0008       10.6445       10.6452       9.036858       0.00682
  15     218.7        1.6089        0.0008       10.6267       10.6275       9.018621       0.00692
  14     243.0        1.6096        0.0009       10.6067       10.6077       8.998089       0.00712
  13     269.0        1.6104        0.0010       10.5839       10.5850       8.974522       0.00764
  12     297.5        1.6115        0.0011       10.5577       10.5588       8.947293       0.00808
  11     328.5        1.6128        0.0012       10.5276       10.5288       8.915998       0.00851
  10     361.9        1.6144        0.0014       10.4934       10.4948       8.880383       0.00901
   9     398.1        1.6164        0.0015       10.4545       10.4560       8.839578       0.00951
   8     437.6        1.6188        0.0016       10.4096       10.4113       8.792475       0.01007
   7     480.5        1.6217        0.0018       10.3580       10.3598       8.738024       0.01069
   6     533.0        1.6260        0.0020       10.2887       10.2907       8.664755       0.01179
   5     589.8        1.6314        0.0022       10.2047       10.2069       8.575487       0.01325
   4     651.6        1.6387        0.0024       10.0967       10.0991       8.460415       0.01574
   3     718.7        1.6484        0.0026        9.9595        9.9621       8.313714       0.01844
   2     792.3        1.6620        0.0028        9.7867        9.7895       8.127501       0.02136
   1     891.5        1.6865        0.0031        9.5279        9.5310       7.844492       0.02408
   0    1013.0        1.7304        0.0034        9.2062        9.2096       7.479240       0.02536



 Wavenumbers:  4650. -  5150. cm-1, ATM      1
 LEVEL PRESSURE   UPWARD FLUX   DIFDOWN FLUX  DIRDOWN FLUX  DOWNWARD FLUX   NET FLUX    HEATING RATE
          mb          W/m2          W/m2          W/m2        W/m2          W/m2       degree/day
  51    .06700        0.4031        0.0000       10.2033       10.2033       9.800232       0.00000
  50    .07753        0.4031        0.0000       10.2031       10.2031       9.800003       0.18354
  49    .09103        0.4031        0.0000       10.2028       10.2028       9.799717       0.17896
  48    0.1069        0.4031        0.0000       10.2025       10.2025       9.799390       0.17415
  47    0.1255        0.4031        0.0000       10.2021       10.2021       9.799016       0.16926
  46    0.1487        0.4031        0.0000       10.2017       10.2017       9.798549       0.17034
  45    0.1794        0.4031        0.0000       10.2010       10.2010       9.797917       0.17341
  44    0.2165        0.4031        0.0000       10.2003       10.2003       9.797179       0.16786
  43    0.2613        0.4031        0.0000       10.1994       10.1994       9.796319       0.16217
  42    0.3336        0.4031        0.0000       10.1980       10.1980       9.794927       0.16231
  41    0.4307        0.4031        0.0000       10.1962       10.1962       9.793138       0.15554
  40    0.5894        0.4031        0.0000       10.1934       10.1935       9.790344       0.14858
  39     1.339        0.4031        0.0000       10.1822       10.1822       9.779068       0.12695
  38     1.782        0.4031        0.0000       10.1768       10.1768       9.773687       0.10246
  37     2.292        0.4031        0.0000       10.1715       10.1715       9.768373       0.08801
  36     2.964        0.4031        0.0000       10.1657       10.1657       9.762600       0.07246
  35     3.853        0.4031        0.0000       10.1596       10.1596       9.756537       0.05754
  34     5.035        0.4031        0.0000       10.1534       10.1534       9.750345       0.04424
  33     6.613        0.4031        0.0000       10.1471       10.1471       9.744017       0.03383
  32     8.786        0.4031        0.0000       10.1401       10.1402       9.737125       0.02677
  31     11.80        0.4031        0.0001       10.1312       10.1313       9.728215       0.02495
  30     15.07        0.4030        0.0001       10.1214       10.1215       9.718466       0.02517
  29     18.79        0.4030        0.0001       10.1095       10.1096       9.706613       0.02688
  28     23.16        0.4030        0.0001       10.0944       10.0945       9.691504       0.02922
  27     28.12        0.4030        0.0002       10.0755       10.0757       9.672653       0.03204
  26     33.73        0.4030        0.0002       10.0527       10.0529       9.649853       0.03428
  25     40.54        0.4030        0.0002       10.0231       10.0233       9.620332       0.03662
  24     48.69        0.4030        0.0003        9.9854        9.9856       9.582649       0.03900
  23     57.69        0.4030        0.0003        9.9423        9.9426       9.539668       0.04029
  22     68.43        0.4030        0.0004        9.8902        9.8906       9.487613       0.04092
  21     81.20        0.4030        0.0004        9.8286        9.8290       9.426027       0.04070
  20     96.49        0.4030        0.0005        9.7577        9.7582       9.355140       0.03912
  19     114.6        0.4031        0.0006        9.6788        9.6794       9.276294       0.03682
  18     136.5        0.4032        0.0007        9.5936        9.5943       9.191086       0.03276
  17     162.9        0.4034        0.0009        9.5029        9.5038       9.100359       0.02900
  16     196.4        0.4037        0.0010        9.3985        9.3996       8.995858       0.02630
  15     218.7        0.4039        0.0011        9.3349        9.3360       8.932086       0.02421
  14     243.0        0.4042        0.0012        9.2677        9.2690       8.864749       0.02335
  13     269.0        0.4046        0.0014        9.1958        9.1972       8.792555       0.02342
  12     297.5        0.4051        0.0015        9.1173        9.1188       8.713688       0.02339
  11     328.5        0.4057        0.0016        9.0308        9.0324       8.626745       0.02364
  10     361.9        0.4064        0.0018        8.9349        8.9367       8.530226       0.02442
   9     398.1        0.4073        0.0020        8.8281        8.8301       8.422749       0.02504
   8     437.6        0.4085        0.0021        8.7097        8.7119       8.303380       0.02552
   7     480.5        0.4099        0.0023        8.5787        8.5810       8.171086       0.02598
   6     533.0        0.4119        0.0025        8.4121        8.4146       8.002696       0.02709
   5     589.8        0.4146        0.0027        8.2269        8.2296       7.815004       0.02786
   4     651.6        0.4181        0.0029        8.0181        8.0210       7.602832       0.02902
   3     718.7        0.4230        0.0031        7.7851        7.7883       7.365293       0.02985
   2     792.3        0.4295        0.0033        7.5304        7.5338       7.104303       0.02993
   1     891.5        0.4411        0.0036        7.1814        7.1850       6.743900       0.03067
   0    1013.0        0.4610        0.0039        6.7757        6.7795       6.318572       0.02953



 Wavenumbers:  5150. -  6150. cm-1, ATM      1
 LEVEL PRESSURE   UPWARD FLUX   DIFDOWN FLUX  DIRDOWN FLUX  DOWNWARD FLUX   NET FLUX    HEATING RATE
          mb          W/m2          W/m2          W/m2        W/m2          W/m2       degree/day
  51    .06700        3.4056        0.0000       25.5798       25.5798      22.174249       0.00000
  50    .07753        3.4056        0.0000       25.5798       25.5798      22.174246       0.00204
  49    .09103        3.4056        0.0000       25.5798       25.5798      22.174243       0.00206
  48    0.1069        3.4056        0.0000       25.5798       25.5798      22.174239       0.00209
  47    0.1255        3.4056        0.0000       25.5798       25.5798      22.174234       0.00211
  46    0.1487        3.4056        0.0000       25.5798       25.5798      22.174228       0.00222
  45    0.1794        3.4056        0.0000       25.5798       25.5798      22.174220       0.00236
  44    0.2165        3.4056        0.0000       25.5798       25.5798      22.174209       0.00239
  43    0.2613        3.4056        0.0000       25.5798       25.5798      22.174196       0.00242
  42    0.3336        3.4056        0.0000       25.5797       25.5797      22.174174       0.00256
  41    0.4307        3.4056        0.0000       25.5797       25.5797      22.174145       0.00259
  40    0.5894        3.4056        0.0000       25.5796       25.5797      22.174095       0.00266
  39     1.339        3.4055        0.0000       25.5794       25.5794      22.173847       0.00278
  38     1.782        3.4055        0.0000       25.5792       25.5792      22.173698       0.00285
  37     2.292        3.4055        0.0001       25.5790       25.5791      22.173523       0.00289
  36     2.964        3.4055        0.0001       25.5787       25.5788      22.173295       0.00287
  35     3.853        3.4055        0.0001       25.5784       25.5785      22.172995       0.00285
  34     5.035        3.4055        0.0001       25.5780       25.5781      22.172593       0.00287
  33     6.613        3.4055        0.0002       25.5773       25.5775      22.172050       0.00290
  32     8.786        3.4055        0.0002       25.5765       25.5768      22.171310       0.00287
  31     11.80        3.4054        0.0003       25.5753       25.5757      22.170245       0.00298
  30     15.07        3.4054        0.0004       25.5741       25.5745      22.169095       0.00297
  29     18.79        3.4054        0.0005       25.5727       25.5732      22.167802       0.00293
  28     23.16        3.4053        0.0006       25.5710       25.5716      22.166296       0.00291
  27     28.12        3.4053        0.0008       25.5691       25.5699      22.164578       0.00292
  26     33.73        3.4053        0.0009       25.5670       25.5679      22.162643       0.00291
  25     40.54        3.4053        0.0011       25.5645       25.5655      22.160268       0.00295
  24     48.69        3.4053        0.0013       25.5614       25.5627      22.157381       0.00299
  23     57.69        3.4053        0.0016       25.5579       25.5595      22.154166       0.00301
  22     68.43        3.4054        0.0018       25.5538       25.5557      22.150302       0.00304
  21     81.20        3.4054        0.0022       25.5489       25.5511      22.145649       0.00307
  20     96.49        3.4055        0.0026       25.5430       25.5456      22.140009       0.00311
  19     114.6        3.4057        0.0031       25.5357       25.5388      22.133134       0.00321
  18     136.5        3.4059        0.0037       25.5269       25.5306      22.124692       0.00325
  17     162.9        3.4061        0.0044       25.5145       25.5188      22.112719       0.00383
  16     196.4        3.4065        0.0053       25.4903       25.4956      22.089114       0.00594
  15     218.7        3.4067        0.0059       25.4555       25.4614      22.054690       0.01307
  14     243.0        3.4070        0.0065       25.3840       25.3905      21.983502       0.02469
  13     269.0        3.4074        0.0072       25.2601       25.2673      21.859898       0.04010
  12     297.5        3.4078        0.0079       25.0891       25.0970      21.689170       0.05064
  11     328.5        3.4084        0.0087       24.8914       24.9001      21.491654       0.05370
  10     361.9        3.4092        0.0095       24.6438       24.6533      21.244063       0.06264
   9     398.1        3.4102        0.0103       24.3247       24.3350      20.924820       0.07438
   8     437.6        3.4115        0.0111       23.9313       23.9425      20.530971       0.08421
   7     480.5        3.4133        0.0120       23.4875       23.4995      20.086213       0.08735
   6     533.0        3.4162        0.0130       22.9252       22.9382      19.522026       0.09076
   5     589.8        3.4207        0.0141       22.2580       22.2720      18.851355       0.09955
   4     651.6        3.4282        0.0150       21.3803       21.3953      17.967067       0.12093
   3     718.7        3.4410        0.0158       20.3367       20.3525      16.911503       0.13266
   2     792.3        3.4640        0.0165       19.1720       19.1886      15.724611       0.13612
   1     891.5        3.5212        0.0173       17.6922       17.7095      14.188295       0.13073
   0    1013.0        3.6762        0.0182       16.2736       16.2918      12.615637       0.10920



 Wavenumbers:  6150. -  7700. cm-1, ATM      1
 LEVEL PRESSURE   UPWARD FLUX   DIFDOWN FLUX  DIRDOWN FLUX  DOWNWARD FLUX   NET FLUX    HEATING RATE
          mb          W/m2          W/m2          W/m2        W/m2          W/m2       degree/day
  51    .06700        6.6968        0.0000       47.3108       47.3108      40.614030       0.00000
  50    .07753        6.6968        0.0000       47.3108       47.3108      40.614011       0.01493
  49    .09103        6.6968        0.0000       47.3108       47.3108      40.613988       0.01470
  48    0.1069        6.6968        0.0000       47.3108       47.3108      40.613960       0.01446
  47    0.1255        6.6968        0.0000       47.3107       47.3107      40.613929       0.01423
  46    0.1487        6.6968        0.0000       47.3107       47.3107      40.613889       0.01452
  45    0.1794        6.6968        0.0000       47.3106       47.3106      40.613835       0.01501
  44    0.2165        6.6968        0.0000       47.3106       47.3106      40.613769       0.01481
  43    0.2613        6.6968        0.0000       47.3105       47.3105      40.613692       0.01461
  42    0.3336        6.6968        0.0000       47.3103       47.3104      40.613563       0.01503
  41    0.4307        6.6968        0.0000       47.3101       47.3102      40.613391       0.01492
  40    0.5894        6.6968        0.0001       47.3098       47.3099      40.613110       0.01497
  39     1.339        6.6967        0.0001       47.3083       47.3085      40.611774       0.01504
  38     1.782        6.6967        0.0002       47.3074       47.3076      40.610990       0.01492
  37     2.292        6.6966        0.0003       47.3064       47.3067      40.610086       0.01497
  36     2.964        6.6965        0.0003       47.3051       47.3054      40.608906       0.01481
  35     3.853        6.6965        0.0004       47.3034       47.3038      40.607358       0.01469
  34     5.035        6.6963        0.0006       47.3011       47.3017      40.605312       0.01462
  33     6.613        6.6962        0.0008       47.2980       47.2988      40.602592       0.01454
  32     8.786        6.6960        0.0010       47.2939       47.2949      40.598952       0.01414
  31     11.80        6.6957        0.0014       47.2882       47.2895      40.593796       0.01444
  30     15.07        6.6954        0.0017       47.2820       47.2837      40.588327       0.01412
  29     18.79        6.6950        0.0022       47.2751       47.2773      40.582234       0.01381
  28     23.16        6.6946        0.0027       47.2672       47.2699      40.575222       0.01356
  27     28.12        6.6942        0.0032       47.2583       47.2615      40.567329       0.01342
  26     33.73        6.6936        0.0039       47.2484       47.2523      40.558662       0.01303
  25     40.54        6.6930        0.0046       47.2368       47.2414      40.548413       0.01272
  24     48.69        6.6922        0.0056       47.2230       47.2286      40.536369       0.01246
  23     57.69        6.6914        0.0066       47.2083       47.2149      40.523462       0.01210
  22     68.43        6.6904        0.0078       47.1910       47.1989      40.508478       0.01178
  21     81.20        6.6892        0.0093       47.1710       47.1803      40.491091       0.01149
  20     96.49        6.6878        0.0110       47.1476       47.1587      40.470909       0.01114
  19     114.6        6.6861        0.0131       47.1204       47.1335      40.447460       0.01095
  18     136.5        6.6840        0.0156       47.0888       47.1044      40.420330       0.01043
  17     162.9        6.6816        0.0185       47.0504       47.0690      40.387319       0.01055
  16     196.4        6.6785        0.0224       46.9950       47.0174      40.338802       0.01221
  15     218.7        6.6766        0.0249       46.9425       46.9674      40.290832       0.01821
  14     243.0        6.6745        0.0276       46.8539       46.8815      40.207013       0.02907
  13     269.0        6.6725        0.0305       46.7035       46.7340      40.061529       0.04719
  12     297.5        6.6705        0.0336       46.4746       46.5081      39.837610       0.06641
  11     328.5        6.6687        0.0369       46.1909       46.2278      39.559112       0.07572
  10     361.9        6.6671        0.0404       45.8455       45.8859      39.218794       0.08610
   9     398.1        6.6659        0.0440       45.4064       45.4504      38.784537       0.10117
   8     437.6        6.6655        0.0478       44.8348       44.8826      38.217109       0.12132
   7     480.5        6.6664        0.0517       44.1268       44.1785      37.512181       0.13845
   6     533.0        6.6697        0.0563       43.1608       43.2171      36.547415       0.15520
   5     589.8        6.6775        0.0608       42.0143       42.0751      35.397671       0.17066
   4     651.6        6.6945        0.0652       40.5698       40.6350      33.940494       0.19927
   3     718.7        6.7270        0.0691       38.8235       38.8926      32.165621       0.22305
   2     792.3        6.7885        0.0725       36.7595       36.8321      30.043535       0.24338
   1     891.5        6.9426        0.0761       33.9669       34.0430      27.100429       0.25044
   0    1013.0        7.3302        0.0796       30.9807       31.0603      23.730082       0.23402



 Wavenumbers:  7700. -  8050. cm-1, ATM      1
 LEVEL PRESSURE   UPWARD FLUX   DIFDOWN FLUX  DIRDOWN FLUX  DOWNWARD FLUX   NET FLUX    HEATING RATE
          mb          W/m2          W/m2          W/m2        W/m2          W/m2       degree/day
  51    .06700        5.8360        0.0000       11.1810       11.1810       5.345011       0.00000
  50    .07753        5.8360        0.0000       11.1809       11.1809       5.344989       0.01749
  49    .09103        5.8360        0.0000       11.1809       11.1809       5.344961       0.01714
  48    0.1069        5.8360        0.0000       11.1809       11.1809       5.344930       0.01678
  47    0.1255        5.8360        0.0000       11.1809       11.1809       5.344894       0.01643
  46    0.1487        5.8360        0.0000       11.1808       11.1808       5.344848       0.01667
  45    0.1794        5.8360        0.0000       11.1808       11.1808       5.344785       0.01715
  44    0.2165        5.8360        0.0000       11.1807       11.1807       5.344711       0.01682
  43    0.2613        5.8360        0.0000       11.1806       11.1806       5.344624       0.01651
  42    0.3336        5.8360        0.0000       11.1805       11.1805       5.344479       0.01689
  41    0.4307        5.8361        0.0000       11.1803       11.1804       5.344287       0.01671
  40    0.5894        5.8361        0.0000       11.1801       11.1801       5.343973       0.01669
  39     1.339        5.8364        0.0001       11.1788       11.1789       5.342488       0.01672
  38     1.782        5.8365        0.0001       11.1781       11.1782       5.341616       0.01660
  37     2.292        5.8367        0.0001       11.1772       11.1773       5.340607       0.01672
  36     2.964        5.8369        0.0002       11.1761       11.1762       5.339281       0.01664
  35     3.853        5.8373        0.0002       11.1746       11.1748       5.337530       0.01662
  34     5.035        5.8377        0.0003       11.1726       11.1729       5.335204       0.01662
  33     6.613        5.8382        0.0004       11.1699       11.1703       5.332098       0.01661
  32     8.786        5.8389        0.0005       11.1664       11.1668       5.327913       0.01625
  31     11.80        5.8400        0.0006       11.1613       11.1619       5.321930       0.01675
  30     15.07        5.8411        0.0008       11.1558       11.1566       5.315512       0.01657
  29     18.79        5.8424        0.0010       11.1496       11.1507       5.308268       0.01642
  28     23.16        5.8439        0.0013       11.1424       11.1437       5.299819       0.01634
  27     28.12        5.8456        0.0015       11.1342       11.1358       5.290171       0.01640
  26     33.73        5.8475        0.0018       11.1251       11.1269       5.279396       0.01620
  25     40.54        5.8499        0.0022       11.1141       11.1163       5.266407       0.01611
  24     48.69        5.8527        0.0027       11.1009       11.1035       5.250793       0.01616
  23     57.69        5.8559        0.0031       11.0864       11.0896       5.233700       0.01602
  22     68.43        5.8596        0.0037       11.0693       11.0731       5.213423       0.01594
  21     81.20        5.8642        0.0044       11.0491       11.0535       5.189381       0.01589
  20     96.49        5.8696        0.0052       11.0253       11.0305       5.160896       0.01572
  19     114.6        5.8761        0.0062       10.9972       11.0034       5.127305       0.01568
  18     136.5        5.8840        0.0074       10.9644       10.9718       5.087801       0.01519
  17     162.9        5.8934        0.0088       10.9259       10.9346       5.041177       0.01490
  16     196.4        5.9059        0.0105       10.8768       10.8873       4.981355       0.01506
  15     218.7        5.9143        0.0117       10.8450       10.8567       4.942425       0.01478
  14     243.0        5.9235        0.0130       10.8109       10.8239       4.900401       0.01458
  13     269.0        5.9337        0.0144       10.7745       10.7888       4.855178       0.01467
  12     297.5        5.9448        0.0158       10.7356       10.7514       4.806634       0.01440
  11     328.5        5.9571        0.0174       10.6941       10.7116       4.754516       0.01417
  10     361.9        5.9705        0.0192       10.6501       10.6693       4.698734       0.01411
   9     398.1        5.9853        0.0210       10.6033       10.6244       4.639026       0.01391
   8     437.6        6.0016        0.0230       10.5538       10.5768       4.575183       0.01365
   7     480.5        6.0196        0.0251       10.5014       10.5265       4.506979       0.01339
   6     533.0        6.0423        0.0278       10.4376       10.4654       4.423130       0.01349
   5     589.8        6.0677        0.0306       10.3698       10.4004       4.332665       0.01343
   4     651.6        6.0962        0.0336       10.2975       10.3311       4.234926       0.01337
   3     718.7        6.1282        0.0369       10.2203       10.2572       4.129039       0.01331
   2     792.3        6.1643        0.0404       10.1378       10.1782       4.013870       0.01321
   1     891.5        6.2167        0.0451       10.0258       10.0708       3.854173       0.01359
   0    1013.0        6.2854        0.0507        9.8892        9.9399       3.654560       0.01386



 Wavenumbers:  8050. - 12850. cm-1, ATM      1
 LEVEL PRESSURE   UPWARD FLUX   DIFDOWN FLUX  DIRDOWN FLUX  DOWNWARD FLUX   NET FLUX    HEATING RATE
          mb          W/m2          W/m2          W/m2        W/m2          W/m2       degree/day
  51    .06700      123.0688        0.0000      156.5418      156.5418      33.472918       0.00000
  50    .07753      123.0688        0.0000      156.5417      156.5417      33.472918      -0.00000
  49    .09103      123.0688        0.0001      156.5417      156.5417      33.472918       0.00000
  48    0.1069      123.0688        0.0001      156.5416      156.5417      33.472918      -0.00000
  47    0.1255      123.0688        0.0002      156.5415      156.5417      33.472918      -0.00000
  46    0.1487      123.0688        0.0003      156.5414      156.5417      33.472918       0.00000
  45    0.1794      123.0687        0.0003      156.5413      156.5416      33.472918       0.00000
  44    0.2165      123.0687        0.0005      156.5412      156.5416      33.472918       0.00000
  43    0.2613      123.0687        0.0006      156.5410      156.5416      33.472918       0.00000
  42    0.3336      123.0686        0.0008      156.5407      156.5415      33.472918      -0.00000
  41    0.4307      123.0685        0.0011      156.5403      156.5414      33.472918       0.00000
  40    0.5894      123.0684        0.0016      156.5397      156.5413      33.472918      -0.00000
  39     1.339      123.0677        0.0039      156.5367      156.5406      33.472918      -0.00000
  38     1.782      123.0673        0.0052      156.5350      156.5402      33.472918       0.00000
  37     2.292      123.0669        0.0068      156.5330      156.5398      33.472918       0.00000
  36     2.964      123.0663        0.0088      156.5303      156.5392      33.472918       0.00000
  35     3.853      123.0655        0.0115      156.5268      156.5384      33.472918      -0.00000
  34     5.035      123.0644        0.0151      156.5222      156.5373      33.472918       0.00000
  33     6.613      123.0630        0.0199      156.5160      156.5359      33.472918      -0.00000
  32     8.786      123.0611        0.0264      156.5076      156.5341      33.472918       0.00000
  31     11.80      123.0584        0.0357      156.4957      156.5313      33.472918      -0.00000
  30     15.07      123.0555        0.0457      156.4828      156.5284      33.472918       0.00000
  29     18.79      123.0522        0.0569      156.4682      156.5252      33.472918       0.00000
  28     23.16      123.0484        0.0701      156.4512      156.5213      33.472918       0.00000
  27     28.12      123.0440        0.0852      156.4317      156.5169      33.472918       0.00000
  26     33.73      123.0391        0.1021      156.4099      156.5120      33.472918      -0.00000
  25     40.54      123.0331        0.1226      156.3834      156.5060      33.472918       0.00000
  24     48.69      123.0259        0.1473      156.3515      156.4988      33.472918       0.00000
  23     57.69      123.0180        0.1745      156.3164      156.4909      33.472918      -0.00000
  22     68.43      123.0085        0.2069      156.2746      156.4814      33.472918       0.00000
  21     81.20      122.9972        0.2456      156.2246      156.4702      33.472918      -0.00000
  20     96.49      122.9838        0.2918      156.1649      156.4567      33.472918      -0.00000
  19     114.6      122.9678        0.3467      156.0936      156.4403      33.472541       0.00018
  18     136.5      122.9488        0.4119      156.0089      156.4208      33.472071       0.00018
  17     162.9      122.9261        0.4899      155.9075      156.3973      33.471284       0.00025
  16     196.4      122.8966        0.5912      155.7747      156.3658      33.469234       0.00052
  15     218.7      122.8773        0.6579      155.6847      156.3426      33.465274       0.00150
  14     243.0      122.8567        0.7306      155.5814      156.3120      33.455325       0.00345
  13     269.0      122.8350        0.8095      155.4584      156.2678      33.432880       0.00728
  12     297.5      122.8128        0.8950      155.3066      156.2016      33.388778       0.01308
  11     328.5      122.7906        0.9876      155.1231      156.1107      33.320109       0.01867
  10     361.9      122.7691        1.0875      154.9015      155.9890      33.219992       0.02533
   9     398.1      122.7496        1.1953      154.6320      155.8273      33.077756       0.03314
   8     437.6      122.7346        1.3114      154.3017      155.6131      32.878443       0.04261
   7     480.5      122.7269        1.4360      153.9032      155.3392      32.612291       0.05227
   6     533.0      122.7329        1.5898      153.3504      154.9401      32.207233       0.06516
   5     589.8      122.7671        1.7557      152.6622      154.4179      31.650800       0.08259
   4     651.6      122.8609        1.9337      151.7518      153.6855      30.824553       0.11299
   3     718.7      123.0524        2.1237      150.5694      152.6931      29.640699       0.14878
   2     792.3      123.4203        2.3247      149.0026      151.3273      27.907017       0.19883
   1     891.5      124.3127        2.5904      146.4075      148.9979      24.685240       0.27416
   0    1013.0      126.2620        2.9004      142.7898      145.6902      19.428206       0.36502



 Wavenumbers: 12850. - 16000. cm-1, ATM      1
 LEVEL PRESSURE   UPWARD FLUX   DIFDOWN FLUX  DIRDOWN FLUX  DOWNWARD FLUX   NET FLUX    HEATING RATE
          mb          W/m2          W/m2          W/m2        W/m2          W/m2       degree/day
  51    .06700       85.4878        0.0000       98.0872       98.0872      12.599411       0.00000
  50    .07753       85.4878        0.0001       98.0864       98.0864      12.598617       0.63712
  49    .09103       85.4878        0.0002       98.0853       98.0855      12.597618       0.62440
  48    0.1069       85.4879        0.0003       98.0841       98.0843      12.596469       0.61150
  47    0.1255       85.4879        0.0004       98.0826       98.0830      12.595148       0.59894
  46    0.1487       85.4879        0.0005       98.0809       98.0814      12.593478       0.60845
  45    0.1794       85.4880        0.0008       98.0784       98.0792      12.591205       0.62411
  44    0.2165       85.4881        0.0010       98.0756       98.0766      12.588527       0.60919
  43    0.2613       85.4883        0.0013       98.0723       98.0736      12.585373       0.59457
  42    0.3336       85.4886        0.0018       98.0670       98.0688      12.580214       0.60142
  41    0.4307       85.4891        0.0024       98.0602       98.0626      12.573528       0.58133
  40    0.5894       85.4901        0.0035       98.0496       98.0531      12.562957       0.56216
  39     1.339       85.4983        0.0084       98.0043       98.0128      12.514477       0.54581
  38     1.782       85.5057        0.0114       97.9793       97.9907      12.484994       0.56130
  37     2.292       85.5165        0.0148       97.9498       97.9645      12.448017       0.61245
  36     2.964       85.5344        0.0192       97.9088       97.9280      12.393639       0.68260
  35     3.853       85.5630        0.0251       97.8503       97.8754      12.312364       0.77131
  34     5.035       85.6061        0.0328       97.7680       97.8008      12.194734       0.84030
  33     6.613       85.6662        0.0432       97.6562       97.6994      12.033246       0.86331
  32     8.786       85.7444        0.0572       97.5107       97.5679      11.823446       0.81479
  31     11.80       85.8465        0.0772       97.3179       97.3951      11.548534       0.76967
  30     15.07       85.9446        0.0987       97.1283       97.2270      11.282359       0.68721
  29     18.79       86.0451        0.1229       96.9300       97.0529      11.007817       0.62247
  28     23.16       86.1505        0.1511       96.7166       96.8677      10.717250       0.56186
  27     28.12       86.2570        0.1834       96.4935       96.6769      10.419928       0.50543
  26     33.73       86.3563        0.2196       96.2731       96.4927      10.136430       0.42625
  25     40.54       86.4531        0.2633       96.0408       96.3041       9.851009       0.35410
  24     48.69       86.5474        0.3160       95.7946       96.1106       9.563223       0.29781
  23     57.69       86.6292        0.3739       95.5573       95.9312       9.301938       0.24492
  22     68.43       86.7033        0.4429       95.3106       95.7535       9.050171       0.19792
  21     81.20       86.7595        0.5252       95.0644       95.5896       8.830087       0.14543
  20     96.49       86.7967        0.6235       94.8153       95.4388       8.642003       0.10381
  19     114.6       86.8349        0.7410       94.5412       95.2822       8.447249       0.09094
  18     136.5       86.8685        0.8804       94.2324       95.1128       8.244268       0.07805
  17     162.9       86.8980        1.0463       93.8760       94.9223       8.024332       0.07030
  16     196.4       86.9135        1.2616       93.4359       94.6974       7.783925       0.06051
  15     218.7       86.9157        1.4030       93.1535       94.5565       7.640712       0.05437
  14     243.0       86.9149        1.5566       92.8487       94.4053       7.490417       0.05213
  13     269.0       86.9106        1.7232       92.5214       94.2446       7.334016       0.05074
  12     297.5       86.9030        1.9032       92.1708       94.0739       7.170919       0.04837
  11     328.5       86.8942        2.0977       91.7940       93.8916       6.997441       0.04717
  10     361.9       86.8845        2.3071       91.3904       93.6975       6.812969       0.04667
   9     398.1       86.8744        2.5326       90.9591       93.4916       6.617242       0.04560
   8     437.6       86.8651        2.7747       90.4981       93.2728       6.407764       0.04479
   7     480.5       86.8572        3.0345       90.0065       93.0409       6.183724       0.04400
   6     533.0       86.8520        3.3543       89.4026       92.7570       5.904954       0.04485
   5     589.8       86.8540        3.6994       88.7510       92.4504       5.596402       0.04580
   4     651.6       86.8688        4.0707       88.0445       92.1152       5.246361       0.04787
   3     718.7       86.9029        4.4692       87.2777       91.7469       4.843913       0.05058
   2     792.3       86.9680        4.8951       86.4434       91.3386       4.370583       0.05429
   1     891.5       87.1173        5.4687       85.2930       90.7617       3.644410       0.06179
   0    1013.0       87.4148        6.1544       83.8855       90.0399       2.625152       0.07077



 Wavenumbers: 16000. - 22650. cm-1, ATM      1
 LEVEL PRESSURE   UPWARD FLUX   DIFDOWN FLUX  DIRDOWN FLUX  DOWNWARD FLUX   NET FLUX    HEATING RATE
          mb          W/m2          W/m2          W/m2        W/m2          W/m2       degree/day
  51    .06700      141.9422        0.0000      156.3892      156.3892      14.447080       0.00000
  50    .07753      141.9421        0.0004      156.3887      156.3891      14.446931       0.11917
  49    .09103      141.9421        0.0009      156.3879      156.3888      14.446715       0.13516
  48    0.1069      141.9421        0.0015      156.3871      156.3885      14.446425       0.15413
  47    0.1255      141.9421        0.0021      156.3861      156.3882      14.446038       0.17569
  46    0.1487      141.9422        0.0030      156.3847      156.3877      14.445467       0.20819
  45    0.1794      141.9423        0.0041      156.3828      156.3869      14.444574       0.24513
  44    0.2165      141.9426        0.0054      156.3805      156.3859      14.443363       0.27549
  43    0.2613      141.9429        0.0070      156.3776      156.3847      14.441719       0.30972
  42    0.3336      141.9437        0.0097      156.3726      156.3823      14.438595       0.36423
  41    0.4307      141.9450        0.0132      156.3657      156.3789      14.433886       0.40943
  40    0.5894      141.9477        0.0189      156.3537      156.3726      14.424906       0.47758
  39     1.339      141.9708        0.0459      156.2834      156.3293      14.358555       0.74699
  38     1.782      141.9921        0.0618      156.2324      156.2941      14.302032       1.07611
  37     2.292      142.0240        0.0801      156.1641      156.2442      14.220213       1.35513
  36     2.964      142.0771        0.1043      156.0605      156.1647      14.087666       1.66387
  35     3.853      142.1628        0.1361      155.9041      156.0402      13.877343       1.99600
  34     5.035      142.2921        0.1783      155.6774      155.8557      13.563553       2.24159
  33     6.613      142.4728        0.2347      155.3656      155.6003      13.127466       2.33132
  32     8.786      142.7082        0.3105      154.9577      155.2682      12.560001       2.20383
  31     11.80      143.0146        0.4189      154.4153      154.8341      11.819576       2.07296
  30     15.07      143.3081        0.5350      153.8804      154.4154      11.107280       1.83901
  29     18.79      143.6080        0.6661      153.3191      153.9852      10.377210       1.65529
  28     23.16      143.9214        0.8189      152.7126      153.5314       9.610058       1.48342
  27     28.12      144.2369        0.9934      152.0755      153.0689       8.832000       1.32265
  26     33.73      144.5283        1.1885      151.4409      152.6294       8.101133       1.09888
  25     40.54      144.8089        1.4240      150.7637      152.1876       7.378739       0.89621
  24     48.69      145.0779        1.7076      150.0339      151.7414       6.663521       0.74014
  23     57.69      145.3063        2.0187      149.3151      151.3339       6.027590       0.59609
  22     68.43      145.5060        2.3889      148.5476      150.9365       5.430589       0.46932
  21     81.20      145.6447        2.8297      147.7517      150.5814       4.936707       0.32635
  20     96.49      145.7180        3.3544      146.9127      150.2671       4.549118       0.21392
  19     114.6      145.7571        3.9757      145.9763      149.9520       4.194910       0.16539
  18     136.5      145.7716        4.7092      144.9088      149.6180       3.846457       0.13399
  17     162.9      145.7599        5.5787      143.6786      149.2573       3.497416       0.11157
  16     196.4      145.6822        6.7006      142.1652      148.8658       3.183563       0.07900
  15     218.7      145.6083        7.4337      141.2037      148.6374       3.029119       0.05864
  14     243.0      145.5172        8.2272      140.1761      148.4033       2.886042       0.04962
  13     269.0      145.4074        9.0832      139.0813      148.1646       2.757132       0.04182
  12     297.5      145.2780       10.0038      137.9176      147.9213       2.643331       0.03375
  11     328.5      145.1330       10.9932      136.6739      147.6671       2.534156       0.02968
  10     361.9      144.9719       12.0524      135.3498      147.4022       2.430284       0.02628
   9     398.1      144.7939       13.1854      133.9402      147.1256       2.331710       0.02297
   8     437.6      144.5995       14.3941      132.4421      146.8362       2.236672       0.02032
   7     480.5      144.3878       15.6808      130.8533      146.5341       2.146288       0.01775
   6     533.0      144.1240       17.2521      128.9194      146.1715       2.047461       0.01590
   5     589.8      143.8383       18.9309      126.8583      145.7892       1.950978       0.01432
   4     651.6      143.5311       20.7185      124.6676      145.3860       1.854926       0.01314
   3     718.7      143.2027       22.6167      122.3442      144.9609       1.758204       0.01216
   2     792.3      142.8545       24.6242      119.8889      144.5131       1.658597       0.01142
   1     891.5      142.3931       27.2919      116.6252      143.9172       1.524036       0.01145
   0    1013.0      141.8544       30.4323      112.7800      143.2124       1.358011       0.01153



 Wavenumbers: 22650. - 29000. cm-1, ATM      1
 LEVEL PRESSURE   UPWARD FLUX   DIFDOWN FLUX  DIRDOWN FLUX  DOWNWARD FLUX   NET FLUX    HEATING RATE
          mb          W/m2          W/m2          W/m2        W/m2          W/m2       degree/day
  51    .06700       58.6820        0.0000       59.0156       59.0156       0.333634       0.00000
  50    .07753       58.6819        0.0005       59.0151       59.0155       0.333634      -0.00000
  49    .09103       58.6818        0.0010       59.0144       59.0154       0.333634       0.00000
  48    0.1069       58.6816        0.0017       59.0136       59.0153       0.333634      -0.00000
  47    0.1255       58.6815        0.0025       59.0127       59.0151       0.333634       0.00000
  46    0.1487       58.6813        0.0035       59.0115       59.0149       0.333634       0.00000
  45    0.1794       58.6811        0.0048       59.0099       59.0147       0.333634       0.00000
  44    0.2165       58.6808        0.0063       59.0080       59.0144       0.333634       0.00000
  43    0.2613       58.6804        0.0082       59.0058       59.0140       0.333634       0.00000
  42    0.3336       58.6798        0.0113       59.0022       59.0134       0.333634      -0.00000
  41    0.4307       58.6790        0.0154       58.9973       59.0127       0.333634       0.00000
  40    0.5894       58.6777        0.0220       58.9894       59.0114       0.333634      -0.00000
  39     1.339       58.6717        0.0535       58.9518       59.0053       0.333634       0.00000
  38     1.782       58.6681        0.0720       58.9297       59.0017       0.333634      -0.00000
  37     2.292       58.6640        0.0934       58.9042       58.9976       0.333634       0.00000
  36     2.964       58.6586        0.1216       58.8706       58.9922       0.333634      -0.00000
  35     3.853       58.6514        0.1587       58.8264       58.9851       0.333634       0.00000
  34     5.035       58.6419        0.2080       58.7676       58.9756       0.333634       0.00000
  33     6.613       58.6293        0.2738       58.6891       58.9629       0.333634       0.00000
  32     8.786       58.6122        0.3624       58.5834       58.9458       0.333634       0.00000
  31     11.80       58.5878        0.4890       58.4325       58.9215       0.333634       0.00000
  30     15.07       58.5617        0.6247       58.2706       58.8953       0.333634      -0.00000
  29     18.79       58.5323        0.7776       58.0882       58.8659       0.333634      -0.00000
  28     23.16       58.4979        0.9559       57.8757       58.8316       0.333634       0.00000
  27     28.12       58.4588        1.1591       57.6333       58.7924       0.333634       0.00000
  26     33.73       58.4152        1.3857       57.3631       58.7488       0.333634       0.00000
  25     40.54       58.3626        1.6584       57.0379       58.6963       0.333634      -0.00000
  24     48.69       58.2996        1.9854       56.6479       58.6333       0.333634      -0.00000
  23     57.69       58.2309        2.3424       56.2221       58.5645       0.333634       0.00000
  22     68.43       58.1495        2.7646       55.7186       58.4832       0.333634      -0.00000
  21     81.20       58.0534        3.2632       55.1239       58.3871       0.333634      -0.00000
  20     96.49       57.9402        3.8510       54.4228       58.2738       0.333634       0.00000
  19     114.6       57.8073        4.5400       53.6010       58.1410       0.333634       0.00000
  18     136.5       57.6522        5.3441       52.6418       57.9859       0.333634       0.00000
  17     162.9       57.4709        6.2842       51.5204       57.8045       0.333634       0.00000
  16     196.4       57.2410        7.4752       50.0995       57.5747       0.333634      -0.00000
  15     218.7       57.0933        8.2406       49.1863       57.4269       0.333634       0.00000
  14     243.0       56.9354        9.0577       48.2114       57.2691       0.333634      -0.00000
  13     269.0       56.7676        9.9261       47.1752       57.1013       0.333634       0.00000
  12     297.5       56.5900       10.8449       46.0788       56.9237       0.333634       0.00000
  11     328.5       56.4023       11.8155       44.9204       56.7359       0.333634       0.00000
  10     361.9       56.2050       12.8353       43.7033       56.5386       0.333634       0.00000
   9     398.1       55.9980       13.9044       42.4272       56.3316       0.333634       0.00000
   8     437.6       55.7817       15.0204       41.0949       56.1153       0.333634       0.00000
   7     480.5       55.5567       16.1810       39.7093       55.8903       0.333634      -0.00000
   6     533.0       55.2890       17.5603       38.0623       55.6226       0.333634       0.00000
   5     589.8       55.0114       18.9887       36.3564       55.3451       0.333634       0.00000
   4     651.6       54.7252       20.4599       34.5989       55.0588       0.333634      -0.00000
   3     718.7       54.4316       21.9672       32.7980       54.7652       0.333634       0.00000
   2     792.3       54.1320       23.5024       30.9633       54.4657       0.333634      -0.00000
   1     891.5       53.7518       25.4470       28.6384       54.0854       0.333634       0.00000
   0    1013.0       53.3287       27.6045       26.0578       53.6623       0.333634       0.00000



 Wavenumbers: 29000. - 38000. cm-1, ATM      1
 LEVEL PRESSURE   UPWARD FLUX   DIFDOWN FLUX  DIRDOWN FLUX  DOWNWARD FLUX   NET FLUX    HEATING RATE
          mb          W/m2          W/m2          W/m2        W/m2          W/m2       degree/day
  51    .06700        8.7676        0.0000       20.8114       20.8114      12.043769       0.00000
  50    .07753        8.7674        0.0003       20.8070       20.8074      12.039962       3.05155
  49    .09103        8.7672        0.0007       20.8009       20.8016      12.034425       3.46085
  48    0.1069        8.7669        0.0012       20.7928       20.7939      12.027015       3.94429
  47    0.1255        8.7666        0.0017       20.7820       20.7837      12.017110       4.49034
  46    0.1487        8.7663        0.0024       20.7665       20.7688      12.002547       5.30844
  45    0.1794        8.7658        0.0033       20.7424       20.7457      11.979882       6.22204
  44    0.2165        8.7653        0.0044       20.7103       20.7147      11.949360       6.94340
  43    0.2613        8.7647        0.0056       20.6675       20.6731      11.908365       7.72732
  42    0.3336        8.7638        0.0077       20.5880       20.5957      11.831804       8.92625
  41    0.4307        8.7628        0.0104       20.4722       20.4826      11.719851       9.73402
  40    0.5894        8.7612        0.0147       20.2637       20.2784      11.517168      10.77846
  39     1.339        8.7578        0.0331       19.0984       19.1315      10.373691      12.87347
  38     1.782        8.7583        0.0427       18.4394       18.4821       9.723766      12.37351
  37     2.292        8.7610        0.0530       17.7714       17.8244       9.063422      10.93703
  36     2.964        8.7675        0.0657       17.0421       17.1078       8.340298       9.07739
  35     3.853        8.7804        0.0816       16.2679       16.3495       7.569119       7.31863
  34     5.035        8.8015        0.1018       15.4803       15.5821       6.780626       5.63267
  33     6.613        8.8322        0.1276       14.7157       14.8433       6.011045       4.11418
  32     8.786        8.8728        0.1614       13.9936       14.1549       5.282099       2.83096
  31     11.80        8.9258        0.2084       13.2835       13.4920       4.566140       2.00446
  30     15.07        8.9769        0.2573       12.7394       12.9966       4.019671       1.41088
  29     18.79        9.0297        0.3114       12.2666       12.5780       3.548229       1.06890
  28     23.16        9.0858        0.3729       11.8300       12.2029       3.117094       0.83368
  27     28.12        9.1433        0.4418       11.4279       11.8697       2.726403       0.66415
  26     33.73        9.1963        0.5178       11.0695       11.5872       2.390899       0.50444
  25     40.54        9.2467        0.6085       10.7209       11.3294       2.082733       0.38232
  24     48.69        9.2942        0.7162       10.3742       11.0904       1.796176       0.29654
  23     57.69        9.3332        0.8328       10.0549       10.8877       1.554415       0.22662
  22     68.43        9.3648        0.9695        9.7327       10.7022       1.337375       0.17062
  21     81.20        9.3800        1.1309        9.4134       10.5443       1.164305       0.11436
  20     96.49        9.3769        1.3207        9.0887       10.4094       1.032558       0.07272
  19     114.6        9.3635        1.5400        8.7388       10.2788       0.915285       0.05476
  18     136.5        9.3428        1.7907        8.3549       10.1456       0.802757       0.04327
  17     162.9        9.3151        2.0765        7.9311       10.0076       0.692578       0.03522
  16     196.4        9.2682        2.4305        7.4333        9.8638       0.595598       0.02441
  15     218.7        9.2345        2.6532        7.1296        9.7828       0.548298       0.01796
  14     243.0        9.1975        2.8860        6.8161        9.7021       0.504620       0.01515
  13     269.0        9.1570        3.1280        6.4944        9.6224       0.465400       0.01272
  12     297.5        9.1132        3.3782        6.1659        9.5441       0.430826       0.01025
  11     328.5        9.0675        3.6356        5.8296        9.4652       0.397723       0.00900
  10     361.9        9.0204        3.8977        5.4889        9.3866       0.366239       0.00797
   9     398.1        8.9719        4.1639        5.1444        9.3083       0.336402       0.00695
   8     437.6        8.9226        4.4328        4.7974        9.2302       0.307640       0.00615
   7     480.5        8.8728        4.7023        4.4508        9.1531       0.280334       0.00536
   6     533.0        8.8158        5.0092        4.0571        9.0664       0.250573       0.00479
   5     589.8        8.7598        5.3112        3.6704        8.9815       0.221755       0.00428
   4     651.6        8.7054        5.6061        3.2929        8.8990       0.193554       0.00386
   3     718.7        8.6536        5.8900        2.9295        8.8195       0.165934       0.00347
   2     792.3        8.6048        6.1612        2.5825        8.7437       0.138894       0.00310
   1     891.5        8.5492        6.4794        2.1753        8.6547       0.105505       0.00284
   0    1013.0        8.4962        6.7988        1.7660        8.5648       0.068616       0.00256



 Wavenumbers: 38000. - 50000. cm-1, ATM      1
 LEVEL PRESSURE   UPWARD FLUX   DIFDOWN FLUX  DIRDOWN FLUX  DOWNWARD FLUX   NET FLUX    HEATING RATE
          mb          W/m2          W/m2          W/m2        W/m2          W/m2       degree/day
  51    .06700        0.0061        0.0000        1.2836        1.2836       1.277518       0.00000
  50    .07753        0.0061        0.0001        1.2812        1.2812       1.275183       1.87150
  49    .09103        0.0060        0.0002        1.2777        1.2778       1.271851       2.08247
  48    0.1069        0.0059        0.0002        1.2731        1.2734       1.267473       2.33059
  47    0.1255        0.0058        0.0004        1.2672        1.2675       1.261717       2.60908
  46    0.1487        0.0057        0.0005        1.2586        1.2591       1.253391       3.03499
  45    0.1794        0.0055        0.0007        1.2455        1.2462       1.240623       3.50520
  44    0.2165        0.0054        0.0009        1.2282        1.2291       1.223697       3.85037
  43    0.2613        0.0052        0.0011        1.2054        1.2065       1.201348       4.21261
  42    0.3336        0.0049        0.0015        1.1639        1.1654       1.160524       4.75970
  41    0.4307        0.0045        0.0020        1.1051        1.1070       1.102565       5.03943
  40    0.5894        0.0039        0.0026        1.0039        1.0064       1.002524       5.32007
  39     1.339        0.0022        0.0035        0.5438        0.5473       0.545105       5.14971
  38     1.782        0.0016        0.0032        0.3635        0.3666       0.365006       3.42879
  37     2.292        0.0012        0.0027        0.2356        0.2383       0.237058       2.11916
  36     2.964        0.0009        0.0022        0.1455        0.1477       0.146786       1.13318
  35     3.853        0.0006        0.0017        0.0858        0.0875       0.086906       0.56828
  34     5.035        0.0004        0.0013        0.0488        0.0501       0.049701       0.26578
  33     6.613        0.0003        0.0010        0.0273        0.0282       0.027974       0.11615
  32     8.786        0.0002        0.0007        0.0144        0.0151       0.014928       0.05067
  31     11.80        0.0001        0.0004        0.0065        0.0070       0.006903       0.02247
  30     15.07        0.0000        0.0003        0.0031        0.0034       0.003329       0.00923
  29     18.79        0.0000        0.0002        0.0014        0.0016       0.001583       0.00396
  28     23.16        0.0000        0.0001        0.0006        0.0007       0.000720       0.00167
  27     28.12        0.0000        0.0001        0.0003        0.0003       0.000317       0.00069
  26     33.73        0.0000        0.0000        0.0001        0.0001       0.000140       0.00027
  25     40.54        0.0000        0.0000        0.0000        0.0001       0.000057       0.00010
  24     48.69        0.0000        0.0000        0.0000        0.0000       0.000021       0.00004
  23     57.69        0.0000        0.0000        0.0000        0.0000       0.000008       0.00001
  22     68.43        0.0000        0.0000        0.0000        0.0000       0.000003       0.00000
  21     81.20        0.0000        0.0000        0.0000        0.0000       0.000001       0.00000
  20     96.49        0.0000        0.0000        0.0000        0.0000       0.000000       0.00000
  19     114.6        0.0000        0.0000        0.0000        0.0000       0.000000       0.00000
  18     136.5        0.0000        0.0000        0.0000        0.0000       0.000000       0.00000
  17     162.9        0.0000        0.0000        0.0000        0.0000       0.000000       0.00000
  16     196.4        0.0000        0.0000        0.0000        0.0000       0.000000       0.00000
  15     218.7        0.0000        0.0000        0.0000        0.0000       0.000000       0.00000
  14     243.0        0.0000        0.0000        0.0000        0.0000       0.000000       0.00000
  13     269.0        0.0000        0.0000        0.0000        0.0000       0.000000       0.00000
  12     297.5        0.0000        0.0000        0.0000        0.0000       0.000000       0.00000
  11     328.5        0.0000        0.0000        0.0000        0.0000       0.000000       0.00000
  10     361.9        0.0000        0.0000        0.0000        0.0000       0.000000       0.00000
   9     398.1        0.0000        0.0000        0.0000        0.0000       0.000000       0.00000
   8     437.6        0.0000        0.0000        0.0000        0.0000       0.000000       0.00000
   7     480.5        0.0000        0.0000        0.0000        0.0000       0.000000       0.00000
   6     533.0        0.0000        0.0000        0.0000        0.0000       0.000000       0.00000
   5     589.8        0.0000        0.0000        0.0000        0.0000       0.000000       0.00000
   4     651.6        0.0000        0.0000        0.0000        0.0000       0.000000       0.00000
   3     718.7        0.0000        0.0000        0.0000        0.0000       0.000000       0.00000
   2     792.3        0.0000        0.0000        0.0000        0.0000       0.000000       0.00000
   1     891.5        0.0000        0.0000        0.0000        0.0000       0.000000       0.00000
   0    1013.0        0.0000        0.0000        0.0000        0.0000       0.000000       0.00000



 Wavenumbers:   820. -  2600. cm-1, ATM      1
 LEVEL PRESSURE   UPWARD FLUX   DIFDOWN FLUX  DIRDOWN FLUX  DOWNWARD FLUX   NET FLUX    HEATING RATE
          mb          W/m2          W/m2          W/m2        W/m2          W/m2       degree/day
  51    .06700        0.0324        0.0000        6.0047        6.0047       5.972217       0.00000
  50    .07753        0.0324        0.0000        6.0009        6.0009       5.968434       3.03281
  49    .09103        0.0324        0.0000        6.0001        6.0001       5.967638       0.49727
  48    0.1069        0.0324        0.0000        5.9992        5.9992       5.966756       0.46927
  47    0.1255        0.0324        0.0000        5.9982        5.9982       5.965767       0.44831
  46    0.1487        0.0324        0.0000        5.9970        5.9970       5.964579       0.43322
  45    0.1794        0.0324        0.0000        5.9955        5.9955       5.963098       0.40665
  44    0.2165        0.0324        0.0000        5.9940        5.9940       5.961547       0.35272
  43    0.2613        0.0324        0.0000        5.9924        5.9924       5.959945       0.30190
  42    0.3336        0.0324        0.0000        5.9901        5.9901       5.957678       0.26435
  41    0.4307        0.0324        0.0000        5.9875        5.9875       5.955038       0.22953
  40    0.5894        0.0324        0.0000        5.9834        5.9834       5.950920       0.21903
  39     1.339        0.0324        0.0000        5.9644        5.9644       5.931997       0.21304
  38     1.782        0.0324        0.0000        5.9540        5.9540       5.921545       0.19898
  37     2.292        0.0324        0.0000        5.9423        5.9423       5.909831       0.19401
  36     2.964        0.0324        0.0000        5.9273        5.9273       5.894915       0.18725
  35     3.853        0.0324        0.0000        5.9084        5.9084       5.875933       0.18014
  34     5.035        0.0324        0.0000        5.8842        5.8842       5.851812       0.17231
  33     6.613        0.0324        0.0000        5.8529        5.8529       5.820488       0.16746
  32     8.786        0.0324        0.0000        5.8111        5.8111       5.778717       0.16222
  31     11.80        0.0324        0.0000        5.7557        5.7557       5.723239       0.15532
  30     15.07        0.0324        0.0000        5.7065        5.7065       5.674110       0.12684
  29     18.79        0.0324        0.0000        5.6657        5.6657       5.633312       0.09250
  28     23.16        0.0324        0.0000        5.6344        5.6344       5.601975       0.06060
  27     28.12        0.0324        0.0000        5.6118        5.6118       5.579330       0.03850
  26     33.73        0.0324        0.0000        5.5939        5.5939       5.561505       0.02680
  25     40.54        0.0324        0.0000        5.5756        5.5756       5.543173       0.02274
  24     48.69        0.0324        0.0000        5.5541        5.5541       5.521628       0.02230
  23     57.69        0.0324        0.0000        5.5300        5.5300       5.497527       0.02259
  22     68.43        0.0324        0.0000        5.5007        5.5007       5.468282       0.02299
  21     81.20        0.0324        0.0000        5.4662        5.4662       5.433763       0.02281
  20     96.49        0.0324        0.0000        5.4256        5.4256       5.393184       0.02240
  19     114.6        0.0324        0.0000        5.3791        5.3791       5.346690       0.02171
  18     136.5        0.0324        0.0000        5.3273        5.3273       5.294879       0.01992
  17     162.9        0.0324        0.0000        5.2696        5.2696       5.237171       0.01845
  16     196.4        0.0325        0.0000        5.1991        5.1991       5.166652       0.01775
  15     218.7        0.0325        0.0000        5.1532        5.1532       5.120718       0.01744
  14     243.0        0.0325        0.0000        5.1001        5.1001       5.067630       0.01841
  13     269.0        0.0325        0.0000        5.0366        5.0367       5.004208       0.02057
  12     297.5        0.0325        0.0000        4.9585        4.9586       4.926091       0.02317
  11     328.5        0.0325        0.0000        4.8715        4.8715       4.839040       0.02367
  10     361.9        0.0325        0.0000        4.7782        4.7783       4.745762       0.02360
   9     398.1        0.0325        0.0000        4.6810        4.6811       4.648556       0.02265
   8     437.6        0.0326        0.0000        4.5800        4.5800       4.547471       0.02161
   7     480.5        0.0326        0.0000        4.4738        4.4738       4.441228       0.02087
   6     533.0        0.0326        0.0001        4.3345        4.3346       4.301909       0.02241
   5     589.8        0.0327        0.0001        4.1567        4.1568       4.124034       0.02640
   4     651.6        0.0328        0.0001        3.9201        3.9202       3.887348       0.03237
   3     718.7        0.0330        0.0001        3.6587        3.6588       3.625768       0.03287
   2     792.3        0.0333        0.0001        3.4266        3.4267       3.393390       0.02665
   1     891.5        0.0339        0.0001        3.2376        3.2376       3.203708       0.01614
   0    1013.0        0.0352        0.0001        3.0833        3.0834       3.048218       0.01080

  Modules and versions used in this calculation:

       rrtmg_sw.1col.f90:  $Revision$                    rrtmg_sw_init.f90:  $Revision$        
     rrtmgsw_cldprop.f90:  $Revision$                  rrtmgsw_cldprmc.f90:  NOT USED          
     rrtmg_sw_reftra.f90:  $Revision$                  rrtmg_sw_spcvrt.f90:  NOT USED          
     rrtmg_sw_spcvmc.f90:  NOT USED                    rrtmgsw_setcoef.f90:  NOT USED          
     rrtmg_sw_taumol.f90:  $Revision$                  rrtmg_sw_vrtqdr.f90:  NOT USED          
                rrtatm.f:  NOT USED                             util_xxx.f:  NOT USED          
                 extra.f:  NOT USED                       rrtmg_sw_k_g.f90:  $Revision$        

