

 Wavenumbers:   820. - 50000. cm-1, ATM      1
 LEVEL PRESSURE   UPWARD FLUX   DIFDOWN FLUX  DIRDOWN FLUX  DOWNWARD FLUX   NET FLUX    HEATING RATE
          mb          W/m2          W/m2          W/m2        W/m2          W/m2       degree/day
  51    .06700      449.3987        0.0000      617.8126      617.8126     168.413864       0.00000
  50    .07753      449.3984        0.0014      617.7951      617.7964     168.398052      12.67405
  49    .09103      449.3979        0.0030      617.7785      617.7815     168.383640       9.00785
  48    0.1069      449.3974        0.0050      617.7593      617.7643     168.366822       8.95221
  47    0.1255      449.3969        0.0072      617.7357      617.7429     168.345972       9.45222
  46    0.1487      449.3964        0.0101      617.7032      617.7132     168.316899      10.59769
  45    0.1794      449.3957        0.0139      617.6552      617.6691     168.273482      11.91900
  44    0.2165      449.3949        0.0185      617.5936      617.6120     168.217109      12.82374
  43    0.2613      449.3943        0.0238      617.5142      617.5380     168.143724      13.83287
  42    0.3336      449.3934        0.0327      617.3713      617.4040     168.010532      15.52878
  41    0.4307      449.3928        0.0443      617.1690      617.2133     167.820454      16.52686
  40    0.5894      449.3928        0.0631      616.8146      616.8777     167.484935      17.84251
  39     1.339      449.4112        0.1480      614.9771      615.1251     165.713852      19.93917
  38     1.782      449.4350        0.1958      614.0094      614.2053     164.770259      17.96449
  37     2.292      449.4742        0.2502      613.0586      613.3088     163.834597      15.49700
  36     2.964      449.5434        0.3210      612.0229      612.3439     162.800489      12.98118
  35     3.853      449.6593        0.4137      610.8831      611.2967     161.637401      11.03792
  34     5.035      449.8376        0.5360      609.6325      610.1685     160.330915       9.33299
  33     6.613      450.0886        0.6984      608.2695      608.9679     158.879310       7.76029
  32     8.786      450.4156        0.9163      606.7755      607.6918     157.276210       6.22586
  31     11.80      450.8392        1.2265      605.0319      606.2584     155.419158       5.19916
  30     15.07      451.2425        1.5575      603.4567      605.0142     153.771681       4.25346
  29     18.79      451.6521        1.9300      601.8935      603.8235     152.171315       3.62852
  28     23.16      452.0776        2.3628      600.2677      602.6304     150.552847       3.12959
  27     28.12      452.5021        2.8554      598.5988      601.4542     148.952100       2.72116
  26     33.73      452.8864        3.4046      596.9427      600.3473     147.460910       2.24204
  25     40.54      453.2451        4.0658      595.1607      599.2265     145.981448       1.83544
  24     48.69      453.5752        4.8592      593.2178      598.0770     144.501847       1.53116
  23     57.69      453.8387        5.7266      591.2710      596.9976     143.158895       1.25882
  22     68.43      454.0450        6.7541      589.1431      595.8972     141.852204       1.02723
  21     81.20      454.1415        7.9724      586.8473      594.8198     140.678289       0.77571
  20     96.49      454.1180        9.4149      584.3348      593.7497     139.631729       0.57763
  19     114.6      454.0290       11.1118      581.4936      592.6054     138.576363       0.49278
  18     136.5      453.8796       13.0987      578.2570      591.3556     137.476047       0.42310
  17     162.9      453.6646       15.4305      574.5452      589.9757     136.311097       0.37237
  16     196.4      453.2993       18.4044      569.9630      588.3674     135.068149       0.31286
  15     218.7      453.0309       20.3273      567.0333      587.3606     134.329650       0.28038
  14     243.0      452.7299       22.3902      563.8665      586.2566     133.526730       0.27848
  13     269.0      452.3950       24.5945      560.4193      585.0138     132.618743       0.29455
  12     297.5      452.0274       26.9412      556.6541      583.5953     131.567877       0.31168
  11     328.5      451.6349       29.4367      552.5930      582.0297     130.394837       0.31895
  10     361.9      451.2198       32.0773      548.2387      580.3161     129.096252       0.32855
   9     398.1      450.7844       34.8682      543.5470      578.4152     127.630761       0.34143
   8     437.6      450.3355       37.8085      538.4493      576.2578     125.922339       0.36527
   7     480.5      449.8783       40.8971      532.9028      573.7998     123.921487       0.39296
   6     533.0      449.3582       44.6125      525.9631      570.5756     121.217441       0.43499
   5     589.8      448.8669       48.5155      518.3211      566.8367     117.969756       0.48206
   4     651.6      448.4604       52.5994      509.7477      562.3471     113.886743       0.55836
   3     718.7      448.2071       56.8576      500.2593      557.1170     108.909848       0.62546
   2     792.3      448.2457       61.2778      489.7348      551.0125     102.766875       0.70453
   1     891.5      449.0434       67.0214      475.3250      542.3464      93.303041       0.80533
   0    1013.0      451.8130       73.6072      458.5269      532.1342      80.321122       0.90140



 Wavenumbers:  2600. -  3250. cm-1, ATM      1
 LEVEL PRESSURE   UPWARD FLUX   DIFDOWN FLUX  DIRDOWN FLUX  DOWNWARD FLUX   NET FLUX    HEATING RATE
          mb          W/m2          W/m2          W/m2        W/m2          W/m2       degree/day
  51    .06700        2.5639        0.0000        5.4450        5.4450       2.881138       0.00000
  50    .07753        2.5639        0.0000        5.4450        5.4450       2.881130       0.00640
  49    .09103        2.5639        0.0000        5.4450        5.4450       2.881120       0.00627
  48    0.1069        2.5639        0.0000        5.4450        5.4450       2.881109       0.00613
  47    0.1255        2.5639        0.0000        5.4450        5.4450       2.881096       0.00600
  46    0.1487        2.5639        0.0000        5.4450        5.4450       2.881079       0.00608
  45    0.1794        2.5639        0.0000        5.4450        5.4450       2.881056       0.00625
  44    0.2165        2.5639        0.0000        5.4449        5.4449       2.881029       0.00612
  43    0.2613        2.5639        0.0000        5.4449        5.4449       2.880998       0.00600
  42    0.3336        2.5639        0.0000        5.4448        5.4448       2.880945       0.00617
  41    0.4307        2.5639        0.0000        5.4448        5.4448       2.880873       0.00620
  40    0.5894        2.5639        0.0000        5.4446        5.4446       2.880754       0.00637
  39     1.339        2.5639        0.0000        5.4439        5.4439       2.880046       0.00797
  38     1.782        2.5639        0.0000        5.4434        5.4434       2.879502       0.01034
  37     2.292        2.5639        0.0000        5.4427        5.4427       2.878786       0.01187
  36     2.964        2.5639        0.0000        5.4416        5.4416       2.877747       0.01305
  35     3.853        2.5639        0.0000        5.4402        5.4402       2.876268       0.01403
  34     5.035        2.5639        0.0000        5.4381        5.4381       2.874211       0.01470
  33     6.613        2.5639        0.0000        5.4353        5.4353       2.871426       0.01488
  32     8.786        2.5639        0.0000        5.4317        5.4317       2.867789       0.01413
  31     11.80        2.5639        0.0000        5.4269        5.4269       2.862998       0.01341
  30     15.07        2.5639        0.0000        5.4224        5.4224       2.858458       0.01172
  29     18.79        2.5640        0.0000        5.4180        5.4180       2.854026       0.01005
  28     23.16        2.5640        0.0000        5.4135        5.4135       2.849512       0.00873
  27     28.12        2.5640        0.0000        5.4088        5.4088       2.844826       0.00797
  26     33.73        2.5641        0.0000        5.4036        5.4036       2.839532       0.00796
  25     40.54        2.5642        0.0000        5.3966        5.3967       2.832509       0.00871
  24     48.69        2.5643        0.0000        5.3872        5.3872       2.822912       0.00993
  23     57.69        2.5644        0.0000        5.3754        5.3754       2.810967       0.01120
  22     68.43        2.5647        0.0000        5.3599        5.3599       2.795254       0.01235
  21     81.20        2.5650        0.0000        5.3401        5.3401       2.775111       0.01331
  20     96.49        2.5654        0.0000        5.3155        5.3155       2.750121       0.01379
  19     114.6        2.5660        0.0001        5.2861        5.2862       2.720174       0.01398
  18     136.5        2.5667        0.0001        5.2520        5.2520       2.685291       0.01341
  17     162.9        2.5678        0.0001        5.2137        5.2138       2.645988       0.01256
  16     196.4        2.5694        0.0001        5.1692        5.1693       2.599879       0.01161
  15     218.7        2.5706        0.0001        5.1430        5.1431       2.572584       0.01036
  14     243.0        2.5720        0.0001        5.1171        5.1172       2.545220       0.00949
  13     269.0        2.5737        0.0001        5.0914        5.0915       2.517763       0.00891
  12     297.5        2.5759        0.0001        5.0657        5.0658       2.489896       0.00827
  11     328.5        2.5786        0.0002        5.0397        5.0398       2.461249       0.00779
  10     361.9        2.5819        0.0002        5.0129        5.0131       2.431191       0.00760
   9     398.1        2.5860        0.0002        4.9843        4.9845       2.398494       0.00762
   8     437.6        2.5912        0.0002        4.9523        4.9525       2.361252       0.00796
   7     480.5        2.5979        0.0002        4.9152        4.9154       2.317537       0.00859
   6     533.0        2.6079        0.0002        4.8639        4.8642       2.256290       0.00985
   5     589.8        2.6212        0.0003        4.8003        4.8006       2.179349       0.01142
   4     651.6        2.6395        0.0003        4.7198        4.7201       2.080613       0.01350
   3     718.7        2.6648        0.0003        4.6179        4.6182       1.953456       0.01598
   2     792.3        2.7009        0.0003        4.4901        4.4905       1.789584       0.01879
   1     891.5        2.7702        0.0004        4.2925        4.2929       1.522650       0.02271
   0    1013.0        2.9004        0.0004        4.0385        4.0389       1.138546       0.02667



 Wavenumbers:  3250. -  4000. cm-1, ATM      1
 LEVEL PRESSURE   UPWARD FLUX   DIFDOWN FLUX  DIRDOWN FLUX  DOWNWARD FLUX   NET FLUX    HEATING RATE
          mb          W/m2          W/m2          W/m2        W/m2          W/m2       degree/day
  51    .06700        1.0320        0.0000        9.1795        9.1795       8.147523       0.00000
  50    .07753        1.0320        0.0000        9.1749        9.1749       8.142855       3.74132
  49    .09103        1.0320        0.0000        9.1717        9.1717       8.139667       1.99270
  48    0.1069        1.0320        0.0000        9.1694        9.1694       8.137350       1.23330
  47    0.1255        1.0320        0.0000        9.1673        9.1673       8.135306       0.92672
  46    0.1487        1.0320        0.0000        9.1651        9.1651       8.133111       0.80009
  45    0.1794        1.0320        0.0000        9.1625        9.1625       8.130532       0.70795
  44    0.2165        1.0320        0.0000        9.1599        9.1599       8.127933       0.59133
  43    0.2613        1.0320        0.0000        9.1573        9.1573       8.125321       0.49238
  42    0.3336        1.0320        0.0000        9.1537        9.1537       8.121734       0.41818
  41    0.4307        1.0320        0.0000        9.1498        9.1498       8.117753       0.34615
  40    0.5894        1.0320        0.0000        9.1440        9.1440       8.111999       0.30598
  39     1.339        1.0320        0.0000        9.1214        9.1214       8.089411       0.25430
  38     1.782        1.0320        0.0000        9.1111        9.1111       8.079101       0.19629
  37     2.292        1.0320        0.0000        9.1011        9.1011       8.069085       0.16589
  36     2.964        1.0320        0.0000        9.0898        9.0898       8.057778       0.14194
  35     3.853        1.0320        0.0000        9.0764        9.0764       8.044421       0.12676
  34     5.035        1.0320        0.0000        9.0597        9.0598       8.027752       0.11907
  33     6.613        1.0320        0.0000        9.0377        9.0377       8.005731       0.11772
  32     8.786        1.0320        0.0000        9.0070        9.0070       7.974975       0.11945
  31     11.80        1.0320        0.0000        8.9608        8.9608       7.928795       0.12929
  30     15.07        1.0320        0.0000        8.9091        8.9091       7.877144       0.13335
  29     18.79        1.0320        0.0000        8.8492        8.8492       7.817207       0.13590
  28     23.16        1.0320        0.0000        8.7790        8.7790       7.747049       0.13566
  27     28.12        1.0320        0.0000        8.7009        8.7010       7.669006       0.13267
  26     33.73        1.0320        0.0001        8.6190        8.6191       7.587125       0.12311
  25     40.54        1.0320        0.0001        8.5293        8.5293       7.497362       0.11136
  24     48.69        1.0319        0.0001        8.4333        8.4334       7.401454       0.09925
  23     57.69        1.0319        0.0001        8.3387        8.3388       7.306837       0.08869
  22     68.43        1.0319        0.0001        8.2335        8.2336       7.201691       0.08266
  21     81.20        1.0319        0.0001        8.1123        8.1124       7.080524       0.08007
  20     96.49        1.0319        0.0001        7.9715        7.9717       6.939757       0.07769
  19     114.6        1.0319        0.0002        7.8115        7.8116       6.779761       0.07471
  18     136.5        1.0319        0.0002        7.6359        7.6361       6.604257       0.06749
  17     162.9        1.0318        0.0002        7.4464        7.4467       6.414825       0.06055
  16     196.4        1.0318        0.0003        7.2263        7.2266       6.194760       0.05539
  15     218.7        1.0318        0.0003        7.0888        7.0891       6.057265       0.05220
  14     243.0        1.0318        0.0003        6.9391        6.9394       5.907562       0.05192
  13     269.0        1.0319        0.0003        6.7710        6.7713       5.739423       0.05454
  12     297.5        1.0321        0.0004        6.5796        6.5799       5.547877       0.05681
  11     328.5        1.0324        0.0004        6.3765        6.3768       5.344448       0.05531
  10     361.9        1.0329        0.0004        6.1640        6.1644       5.131500       0.05388
   9     398.1        1.0338        0.0004        5.9400        5.9404       4.906588       0.05240
   8     437.6        1.0353        0.0005        5.6965        5.6970       4.661709       0.05236
   7     480.5        1.0374        0.0005        5.4181        5.4186       4.381161       0.05510
   6     533.0        1.0414        0.0005        5.0488        5.0493       4.007947       0.06004
   5     589.8        1.0478        0.0005        4.6262        4.6267       3.578909       0.06368
   4     651.6        1.0594        0.0005        4.1451        4.1457       3.086277       0.06737
   3     718.7        1.0795        0.0005        3.6485        3.6490       2.569569       0.06494
   2     792.3        1.1154        0.0005        3.1492        3.1497       2.034271       0.06139
   1     891.5        1.2027        0.0005        2.5578        2.5582       1.355501       0.05776
   0    1013.0        1.4235        0.0004        1.9818        1.9822       0.558755       0.05532



 Wavenumbers:  4000. -  4650. cm-1, ATM      1
 LEVEL PRESSURE   UPWARD FLUX   DIFDOWN FLUX  DIRDOWN FLUX  DOWNWARD FLUX   NET FLUX    HEATING RATE
          mb          W/m2          W/m2          W/m2        W/m2          W/m2       degree/day
  51    .06700        6.3478        0.0000       10.7795       10.7795       4.431722       0.00000
  50    .07753        6.3478        0.0000       10.7795       10.7795       4.431721       0.00087
  49    .09103        6.3478        0.0000       10.7795       10.7795       4.431720       0.00085
  48    0.1069        6.3478        0.0000       10.7795       10.7795       4.431718       0.00083
  47    0.1255        6.3478        0.0000       10.7795       10.7795       4.431716       0.00081
  46    0.1487        6.3478        0.0000       10.7795       10.7795       4.431714       0.00083
  45    0.1794        6.3478        0.0000       10.7795       10.7795       4.431711       0.00085
  44    0.2165        6.3478        0.0000       10.7795       10.7795       4.431707       0.00083
  43    0.2613        6.3478        0.0000       10.7795       10.7795       4.431703       0.00082
  42    0.3336        6.3478        0.0000       10.7795       10.7795       4.431696       0.00084
  41    0.4307        6.3478        0.0000       10.7795       10.7795       4.431686       0.00085
  40    0.5894        6.3478        0.0000       10.7795       10.7795       4.431670       0.00087
  39     1.339        6.3478        0.0000       10.7794       10.7794       4.431572       0.00110
  38     1.782        6.3478        0.0000       10.7793       10.7793       4.431495       0.00146
  37     2.292        6.3478        0.0000       10.7792       10.7792       4.431392       0.00171
  36     2.964        6.3478        0.0000       10.7791       10.7791       4.431238       0.00193
  35     3.853        6.3478        0.0000       10.7788       10.7788       4.431010       0.00216
  34     5.035        6.3478        0.0000       10.7785       10.7785       4.430674       0.00240
  33     6.613        6.3478        0.0000       10.7780       10.7780       4.430179       0.00265
  32     8.786        6.3479        0.0000       10.7773       10.7773       4.429447       0.00284
  31     11.80        6.3479        0.0001       10.7761       10.7762       4.428294       0.00323
  30     15.07        6.3479        0.0001       10.7748       10.7749       4.426939       0.00350
  29     18.79        6.3480        0.0001       10.7732       10.7733       4.425295       0.00373
  28     23.16        6.3481        0.0001       10.7712       10.7713       4.423249       0.00396
  27     28.12        6.3482        0.0001       10.7688       10.7689       4.420764       0.00422
  26     33.73        6.3483        0.0002       10.7658       10.7660       4.417690       0.00462
  25     40.54        6.3485        0.0002       10.7618       10.7620       4.413504       0.00519
  24     48.69        6.3489        0.0002       10.7565       10.7568       4.407902       0.00580
  23     57.69        6.3493        0.0003       10.7502       10.7505       4.401229       0.00625
  22     68.43        6.3499        0.0003       10.7424       10.7427       4.392822       0.00661
  21     81.20        6.3507        0.0004       10.7327       10.7331       4.382408       0.00688
  20     96.49        6.3518        0.0005       10.7210       10.7215       4.369652       0.00704
  19     114.6        6.3533        0.0006       10.7069       10.7075       4.354199       0.00722
  18     136.5        6.3553        0.0007       10.6900       10.6907       4.335441       0.00721
  17     162.9        6.3579        0.0008       10.6697       10.6705       4.312580       0.00731
  16     196.4        6.3618        0.0010       10.6430       10.6440       4.282185       0.00765
  15     218.7        6.3647        0.0011       10.6253       10.6263       4.261684       0.00778
  14     243.0        6.3680        0.0012       10.6056       10.6068       4.238717       0.00797
  13     269.0        6.3721        0.0013       10.5835       10.5848       4.212727       0.00843
  12     297.5        6.3771        0.0014       10.5586       10.5601       4.182972       0.00882
  11     328.5        6.3831        0.0016       10.5306       10.5322       4.149105       0.00921
  10     361.9        6.3902        0.0018       10.4993       10.5011       4.110911       0.00966
   9     398.1        6.3986        0.0019       10.4642       10.4661       4.067533       0.01011
   8     437.6        6.4087        0.0021       10.4246       10.4267       4.018031       0.01058
   7     480.5        6.4207        0.0023       10.3797       10.3820       3.961274       0.01115
   6     533.0        6.4375        0.0025       10.3209       10.3235       3.885935       0.01212
   5     589.8        6.4585        0.0028       10.2519       10.2547       3.796200       0.01332
   4     651.6        6.4856        0.0031       10.1676       10.1707       3.685072       0.01520
   3     718.7        6.5208        0.0034       10.0638       10.0672       3.546349       0.01743
   2     792.3        6.5679        0.0037        9.9335        9.9372       3.369264       0.02031
   1     891.5        6.6515        0.0041        9.7293        9.7334       3.081910       0.02445
   0    1013.0        6.7967        0.0045        9.4598        9.4643       2.667643       0.02876



 Wavenumbers:  4650. -  5150. cm-1, ATM      1
 LEVEL PRESSURE   UPWARD FLUX   DIFDOWN FLUX  DIRDOWN FLUX  DOWNWARD FLUX   NET FLUX    HEATING RATE
          mb          W/m2          W/m2          W/m2        W/m2          W/m2       degree/day
  51    .06700        4.3557        0.0000       10.2033       10.2033       5.847618       0.00000
  50    .07753        4.3557        0.0000       10.2031       10.2031       5.847389       0.18354
  49    .09103        4.3557        0.0000       10.2028       10.2028       5.847103       0.17896
  48    0.1069        4.3557        0.0000       10.2025       10.2025       5.846776       0.17415
  47    0.1255        4.3557        0.0000       10.2021       10.2021       5.846403       0.16925
  46    0.1487        4.3557        0.0000       10.2017       10.2017       5.845935       0.17034
  45    0.1794        4.3557        0.0000       10.2010       10.2010       5.845304       0.17341
  44    0.2165        4.3557        0.0000       10.2003       10.2003       5.844566       0.16785
  43    0.2613        4.3557        0.0000       10.1994       10.1994       5.843705       0.16217
  42    0.3336        4.3557        0.0000       10.1980       10.1980       5.842313       0.16230
  41    0.4307        4.3557        0.0000       10.1962       10.1962       5.840525       0.15553
  40    0.5894        4.3557        0.0000       10.1935       10.1935       5.837731       0.14857
  39     1.339        4.3557        0.0000       10.1822       10.1822       5.826456       0.12694
  38     1.782        4.3557        0.0000       10.1768       10.1768       5.821074       0.10245
  37     2.292        4.3557        0.0000       10.1715       10.1715       5.815761       0.08801
  36     2.964        4.3557        0.0000       10.1657       10.1657       5.809988       0.07247
  35     3.853        4.3557        0.0000       10.1596       10.1596       5.803923       0.05755
  34     5.035        4.3557        0.0000       10.1534       10.1535       5.797728       0.04426
  33     6.613        4.3557        0.0000       10.1471       10.1471       5.791394       0.03386
  32     8.786        4.3558        0.0001       10.1402       10.1402       5.784490       0.02681
  31     11.80        4.3558        0.0001       10.1313       10.1313       5.775555       0.02502
  30     15.07        4.3558        0.0001       10.1215       10.1216       5.765770       0.02526
  29     18.79        4.3559        0.0001       10.1096       10.1098       5.753864       0.02699
  28     23.16        4.3560        0.0002       10.0945       10.0947       5.738679       0.02936
  27     28.12        4.3561        0.0002       10.0757       10.0759       5.719721       0.03223
  26     33.73        4.3563        0.0002       10.0529       10.0531       5.696776       0.03450
  25     40.54        4.3566        0.0003       10.0234       10.0236       5.667044       0.03689
  24     48.69        4.3570        0.0003        9.9857        9.9860       5.629056       0.03931
  23     57.69        4.3575        0.0004        9.9427        9.9431       5.585676       0.04066
  22     68.43        4.3582        0.0005        9.8907        9.8912       5.533060       0.04136
  21     81.20        4.3591        0.0006        9.8292        9.8298       5.470680       0.04122
  20     96.49        4.3604        0.0007        9.7584        9.7591       5.398677       0.03974
  19     114.6        4.3622        0.0008        9.6797        9.6805       5.318277       0.03754
  18     136.5        4.3647        0.0009        9.5947        9.5957       5.230953       0.03358
  17     162.9        4.3682        0.0011        9.5042        9.5053       5.137155       0.02998
  16     196.4        4.3734        0.0013        9.4000        9.4014       5.027959       0.02749
  15     218.7        4.3774        0.0014        9.3366        9.3380       4.960631       0.02556
  14     243.0        4.3822        0.0016        9.2696        9.2712       4.889019       0.02484
  13     269.0        4.3881        0.0018        9.1981        9.1998       4.811783       0.02506
  12     297.5        4.3951        0.0019        9.1202        9.1222       4.727034       0.02514
  11     328.5        4.4036        0.0021        9.0347        9.0369       4.633233       0.02550
  10     361.9        4.4139        0.0023        8.9403        8.9426       4.528748       0.02644
   9     398.1        4.4261        0.0025        8.8358        8.8383       4.412145       0.02717
   8     437.6        4.4410        0.0028        8.7203        8.7231       4.282115       0.02780
   7     480.5        4.4589        0.0030        8.5938        8.5968       4.137937       0.02832
   6     533.0        4.4840        0.0033        8.4346        8.4378       3.953852       0.02961
   5     589.8        4.5153        0.0036        8.2600        8.2635       3.748199       0.03053
   4     651.6        4.5554        0.0039        8.0683        8.0721       3.516688       0.03166
   3     718.7        4.6074        0.0042        7.8587        7.8628       3.255462       0.03283
   2     792.3        4.6767        0.0045        7.6288        7.6333       2.956629       0.03427
   1     891.5        4.7976        0.0049        7.3155        7.3204       2.522814       0.03692
   0    1013.0        4.9948        0.0054        6.9496        6.9550       1.960198       0.03907



 Wavenumbers:  5150. -  6150. cm-1, ATM      1
 LEVEL PRESSURE   UPWARD FLUX   DIFDOWN FLUX  DIRDOWN FLUX  DOWNWARD FLUX   NET FLUX    HEATING RATE
          mb          W/m2          W/m2          W/m2        W/m2          W/m2       degree/day
  51    .06700       11.6666        0.0000       25.5798       25.5798      13.913207       0.00000
  50    .07753       11.6666        0.0000       25.5798       25.5798      13.913206       0.00119
  49    .09103       11.6666        0.0000       25.5798       25.5798      13.913204       0.00120
  48    0.1069       11.6666        0.0000       25.5798       25.5798      13.913202       0.00121
  47    0.1255       11.6666        0.0000       25.5798       25.5798      13.913199       0.00122
  46    0.1487       11.6666        0.0000       25.5798       25.5798      13.913196       0.00127
  45    0.1794       11.6666        0.0000       25.5798       25.5798      13.913191       0.00135
  44    0.2165       11.6666        0.0000       25.5798       25.5798      13.913185       0.00136
  43    0.2613       11.6666        0.0000       25.5798       25.5798      13.913177       0.00137
  42    0.3336       11.6666        0.0000       25.5798       25.5798      13.913165       0.00144
  41    0.4307       11.6666        0.0000       25.5797       25.5798      13.913148       0.00146
  40    0.5894       11.6666        0.0000       25.5797       25.5797      13.913120       0.00150
  39     1.339       11.6666        0.0000       25.5795       25.5796      13.912977       0.00161
  38     1.782       11.6666        0.0001       25.5794       25.5795      13.912886       0.00172
  37     2.292       11.6666        0.0001       25.5793       25.5794      13.912779       0.00178
  36     2.964       11.6666        0.0001       25.5792       25.5793      13.912634       0.00182
  35     3.853       11.6666        0.0001       25.5789       25.5791      13.912438       0.00186
  34     5.035       11.6666        0.0002       25.5787       25.5788      13.912170       0.00191
  33     6.613       11.6667        0.0002       25.5783       25.5785      13.911800       0.00198
  32     8.786       11.6667        0.0003       25.5777       25.5780      13.911285       0.00200
  31     11.80       11.6668        0.0004       25.5769       25.5773      13.910522       0.00214
  30     15.07       11.6669        0.0005       25.5761       25.5766      13.909676       0.00218
  29     18.79       11.6670        0.0006       25.5751       25.5757      13.908701       0.00221
  28     23.16       11.6672        0.0008       25.5740       25.5747      13.907537       0.00225
  27     28.12       11.6674        0.0009       25.5727       25.5736      13.906177       0.00231
  26     33.73       11.6676        0.0011       25.5711       25.5722      13.904589       0.00239
  25     40.54       11.6680        0.0013       25.5693       25.5706      13.902553       0.00253
  24     48.69       11.6685        0.0016       25.5669       25.5685      13.899967       0.00268
  23     57.69       11.6692        0.0019       25.5643       25.5661      13.896991       0.00279
  22     68.43       11.6700        0.0022       25.5611       25.5633      13.893324       0.00288
  21     81.20       11.6710        0.0026       25.5572       25.5598      13.888831       0.00297
  20     96.49       11.6723        0.0031       25.5525       25.5556      13.883340       0.00303
  19     114.6       11.6738        0.0037       25.5467       25.5504      13.876630       0.00313
  18     136.5       11.6757        0.0044       25.5397       25.5441      13.868409       0.00316
  17     162.9       11.6781        0.0053       25.5303       25.5355      13.857484       0.00349
  16     196.4       11.6812        0.0064       25.5137       25.5200      13.838826       0.00470
  15     218.7       11.6834        0.0071       25.4924       25.4994      13.816063       0.00864
  14     243.0       11.6858        0.0078       25.4488       25.4566      13.770857       0.01568
  13     269.0       11.6886        0.0087       25.3677       25.3763      13.687757       0.02696
  12     297.5       11.6919        0.0096       25.2428       25.2524      13.560536       0.03773
  11     328.5       11.6957        0.0105       25.0959       25.1064      13.410687       0.04074
  10     361.9       11.7003        0.0115       24.9265       24.9380      13.237653       0.04378
   9     398.1       11.7060        0.0126       24.7169       24.7295      13.023544       0.04988
   8     437.6       11.7131        0.0137       24.4438       24.4575      12.744434       0.05968
   7     480.5       11.7222        0.0149       24.1053       24.1201      12.397990       0.06804
   6     533.0       11.7362        0.0163       23.6485       23.6648      11.928537       0.07552
   5     589.8       11.7567        0.0177       23.1169       23.1346      11.377938       0.08173
   4     651.6       11.7898        0.0192       22.4503       22.4695      10.679671       0.09549
   3     718.7       11.8443        0.0206       21.6252       21.6458       9.801501       0.11036
   2     792.3       11.9389        0.0219       20.6193       20.6411       8.702259       0.12607
   1     891.5       12.1680        0.0234       19.2288       19.2521       7.084089       0.13770
   0    1013.0       12.7522        0.0250       17.7307       17.7557       5.003427       0.14447



 Wavenumbers:  6150. -  7700. cm-1, ATM      1
 LEVEL PRESSURE   UPWARD FLUX   DIFDOWN FLUX  DIRDOWN FLUX  DOWNWARD FLUX   NET FLUX    HEATING RATE
          mb          W/m2          W/m2          W/m2        W/m2          W/m2       degree/day
  51    .06700       22.4875        0.0000       47.3109       47.3109      24.823405       0.00000
  50    .07753       22.4875        0.0000       47.3108       47.3108      24.823388       0.01397
  49    .09103       22.4875        0.0000       47.3108       47.3108      24.823366       0.01372
  48    0.1069       22.4874        0.0000       47.3108       47.3108      24.823340       0.01347
  47    0.1255       22.4874        0.0000       47.3108       47.3108      24.823311       0.01322
  46    0.1487       22.4874        0.0000       47.3107       47.3107      24.823274       0.01345
  45    0.1794       22.4874        0.0000       47.3107       47.3107      24.823224       0.01388
  44    0.2165       22.4874        0.0000       47.3106       47.3106      24.823164       0.01366
  43    0.2613       22.4874        0.0000       47.3105       47.3105      24.823093       0.01344
  42    0.3336       22.4874        0.0000       47.3104       47.3104      24.822974       0.01379
  41    0.4307       22.4874        0.0001       47.3102       47.3102      24.822817       0.01366
  40    0.5894       22.4874        0.0001       47.3099       47.3100      24.822560       0.01368
  39     1.339       22.4874        0.0002       47.3085       47.3087      24.821342       0.01371
  38     1.782       22.4873        0.0002       47.3077       47.3080      24.820627       0.01361
  37     2.292       22.4873        0.0003       47.3068       47.3071      24.819802       0.01367
  36     2.964       22.4872        0.0004       47.3056       47.3060      24.818722       0.01355
  35     3.853       22.4872        0.0005       47.3040       47.3045      24.817302       0.01348
  34     5.035       22.4871        0.0007       47.3018       47.3025      24.815422       0.01343
  33     6.613       22.4870        0.0009       47.2990       47.2999      24.812921       0.01337
  32     8.786       22.4868        0.0012       47.2952       47.2964      24.809569       0.01302
  31     11.80       22.4866        0.0016       47.2898       47.2914      24.804812       0.01332
  30     15.07       22.4864        0.0021       47.2841       47.2861      24.799755       0.01306
  29     18.79       22.4861        0.0026       47.2776       47.2802      24.794104       0.01281
  28     23.16       22.4858        0.0032       47.2702       47.2734      24.787583       0.01261
  27     28.12       22.4855        0.0039       47.2618       47.2657      24.780223       0.01251
  26     33.73       22.4851        0.0047       47.2525       47.2572      24.772114       0.01219
  25     40.54       22.4846        0.0056       47.2415       47.2471      24.762487       0.01194
  24     48.69       22.4841        0.0067       47.2284       47.2352      24.751122       0.01176
  23     57.69       22.4834        0.0080       47.2143       47.2223      24.738902       0.01145
  22     68.43       22.4827        0.0095       47.1979       47.2074      24.724675       0.01118
  21     81.20       22.4818        0.0112       47.1787       47.1899      24.708140       0.01093
  20     96.49       22.4807        0.0133       47.1563       47.1697      24.688944       0.01059
  19     114.6       22.4795        0.0159       47.1304       47.1462      24.666723       0.01038
  18     136.5       22.4780        0.0188       47.1003       47.1191      24.641118       0.00985
  17     162.9       22.4763        0.0224       47.0646       47.0870      24.610736       0.00971
  16     196.4       22.4741        0.0270       47.0159       47.0430      24.568823       0.01055
  15     218.7       22.4729        0.0301       46.9758       47.0059      24.532957       0.01362
  14     243.0       22.4719        0.0334       46.9151       46.9484      24.476574       0.01956
  13     269.0       22.4713        0.0369       46.8175       46.8544      24.383093       0.03032
  12     297.5       22.4717        0.0408       46.6669       46.7077      24.235994       0.04363
  11     328.5       22.4732        0.0449       46.4705       46.5154      24.042247       0.05268
  10     361.9       22.4760        0.0493       46.2293       46.2786      23.802557       0.06064
   9     398.1       22.4808        0.0539       45.9332       45.9871      23.506300       0.06902
   8     437.6       22.4887        0.0589       45.5582       45.6170      23.128349       0.08081
   7     480.5       22.5010        0.0641       45.0836       45.1477      22.646768       0.09458
   6     533.0       22.5232        0.0703       44.3941       44.4644      21.941200       0.11350
   5     589.8       22.5600        0.0767       43.5160       43.5927      21.032703       0.13485
   4     651.6       22.6262        0.0831       42.3768       42.4599      19.833712       0.16397
   3     718.7       22.7410        0.0894       41.0099       41.0993      18.358294       0.18542
   2     792.3       22.9451        0.0955       39.3595       39.4550      16.509920       0.21199
   1     891.5       23.4356        0.1025       36.9438       37.0463      13.610661       0.24671
   0    1013.0       24.6144        0.1097       34.1559       34.2655       9.651133       0.27493



 Wavenumbers:  7700. -  8050. cm-1, ATM      1
 LEVEL PRESSURE   UPWARD FLUX   DIFDOWN FLUX  DIRDOWN FLUX  DOWNWARD FLUX   NET FLUX    HEATING RATE
          mb          W/m2          W/m2          W/m2        W/m2          W/m2       degree/day
  51    .06700        6.6423        0.0000       11.1810       11.1810       4.538643       0.00000
  50    .07753        6.6423        0.0000       11.1809       11.1809       4.538621       0.01795
  49    .09103        6.6423        0.0000       11.1809       11.1809       4.538592       0.01759
  48    0.1069        6.6423        0.0000       11.1809       11.1809       4.538560       0.01722
  47    0.1255        6.6423        0.0000       11.1809       11.1809       4.538523       0.01685
  46    0.1487        6.6424        0.0000       11.1808       11.1808       4.538476       0.01710
  45    0.1794        6.6424        0.0000       11.1808       11.1808       4.538412       0.01759
  44    0.2165        6.6424        0.0000       11.1807       11.1807       4.538336       0.01726
  43    0.2613        6.6424        0.0000       11.1806       11.1806       4.538246       0.01693
  42    0.3336        6.6424        0.0000       11.1805       11.1805       4.538098       0.01733
  41    0.4307        6.6425        0.0000       11.1803       11.1804       4.537901       0.01714
  40    0.5894        6.6425        0.0000       11.1801       11.1801       4.537579       0.01712
  39     1.339        6.6428        0.0001       11.1788       11.1789       4.536055       0.01715
  38     1.782        6.6430        0.0001       11.1781       11.1782       4.535161       0.01703
  37     2.292        6.6432        0.0001       11.1772       11.1773       4.534125       0.01715
  36     2.964        6.6435        0.0002       11.1761       11.1762       4.532765       0.01707
  35     3.853        6.6438        0.0002       11.1746       11.1748       4.530969       0.01705
  34     5.035        6.6443        0.0003       11.1726       11.1729       4.528583       0.01705
  33     6.613        6.6449        0.0004       11.1699       11.1703       4.525395       0.01704
  32     8.786        6.6458        0.0005       11.1664       11.1669       4.521101       0.01668
  31     11.80        6.6470        0.0007       11.1613       11.1619       4.514962       0.01719
  30     15.07        6.6483        0.0009       11.1558       11.1567       4.508375       0.01701
  29     18.79        6.6498        0.0011       11.1496       11.1507       4.500942       0.01685
  28     23.16        6.6515        0.0013       11.1424       11.1438       4.492269       0.01677
  27     28.12        6.6535        0.0016       11.1342       11.1358       4.482365       0.01684
  26     33.73        6.6557        0.0019       11.1251       11.1270       4.471301       0.01663
  25     40.54        6.6584        0.0023       11.1141       11.1164       4.457963       0.01655
  24     48.69        6.6617        0.0028       11.1009       11.1036       4.441925       0.01660
  23     57.69        6.6653        0.0033       11.0864       11.0897       4.424365       0.01646
  22     68.43        6.6697        0.0039       11.0693       11.0732       4.403527       0.01638
  21     81.20        6.6749        0.0046       11.0491       11.0537       4.378812       0.01633
  20     96.49        6.6812        0.0054       11.0253       11.0307       4.349518       0.01617
  19     114.6        6.6887        0.0065       10.9972       11.0037       4.314957       0.01614
  18     136.5        6.6978        0.0077       10.9644       10.9720       4.274289       0.01564
  17     162.9        6.7087        0.0091       10.9259       10.9349       4.226260       0.01535
  16     196.4        6.7231        0.0109       10.8768       10.8877       4.164583       0.01552
  15     218.7        6.7327        0.0121       10.8450       10.8572       4.124417       0.01525
  14     243.0        6.7434        0.0135       10.8109       10.8244       4.081032       0.01505
  13     269.0        6.7551        0.0149       10.7745       10.7894       4.034316       0.01515
  12     297.5        6.7679        0.0164       10.7356       10.7520       3.984140       0.01488
  11     328.5        6.7820        0.0181       10.6942       10.7123       3.930237       0.01466
  10     361.9        6.7975        0.0199       10.6502       10.6700       3.872508       0.01461
   9     398.1        6.8146        0.0218       10.6034       10.6253       3.810682       0.01440
   8     437.6        6.8333        0.0239       10.5540       10.5779       3.744543       0.01414
   7     480.5        6.8539        0.0261       10.5017       10.5278       3.673863       0.01388
   6     533.0        6.8800        0.0288       10.4382       10.4670       3.587038       0.01397
   5     589.8        6.9090        0.0318       10.3707       10.4024       3.493396       0.01390
   4     651.6        6.9415        0.0349       10.2989       10.3339       3.392356       0.01382
   3     718.7        6.9778        0.0383       10.2226       10.2610       3.283143       0.01373
   2     792.3        7.0185        0.0420       10.1415       10.1835       3.164970       0.01355
   1     891.5        7.0767        0.0469       10.0324       10.0792       3.002539       0.01382
   0    1013.0        7.1520        0.0527        9.9012        9.9540       2.802023       0.01392



 Wavenumbers:  8050. - 12850. cm-1, ATM      1
 LEVEL PRESSURE   UPWARD FLUX   DIFDOWN FLUX  DIRDOWN FLUX  DOWNWARD FLUX   NET FLUX    HEATING RATE
          mb          W/m2          W/m2          W/m2        W/m2          W/m2       degree/day
  51    .06700      105.9319        0.0000      156.5418      156.5418      50.609892       0.00000
  50    .07753      105.9318        0.0000      156.5417      156.5417      50.609892      -0.00000
  49    .09103      105.9318        0.0001      156.5417      156.5417      50.609892       0.00000
  48    0.1069      105.9318        0.0001      156.5416      156.5417      50.609892       0.00000
  47    0.1255      105.9318        0.0002      156.5415      156.5417      50.609892      -0.00000
  46    0.1487      105.9318        0.0002      156.5414      156.5417      50.609892       0.00000
  45    0.1794      105.9317        0.0003      156.5413      156.5416      50.609892      -0.00000
  44    0.2165      105.9317        0.0004      156.5412      156.5416      50.609892       0.00000
  43    0.2613      105.9317        0.0006      156.5410      156.5415      50.609892       0.00000
  42    0.3336      105.9316        0.0008      156.5407      156.5415      50.609892      -0.00000
  41    0.4307      105.9315        0.0011      156.5403      156.5414      50.609892       0.00000
  40    0.5894      105.9313        0.0015      156.5397      156.5412      50.609892      -0.00000
  39     1.339      105.9305        0.0037      156.5367      156.5404      50.609892       0.00000
  38     1.782      105.9301        0.0050      156.5350      156.5400      50.609892      -0.00000
  37     2.292      105.9295        0.0064      156.5330      156.5394      50.609892       0.00000
  36     2.964      105.9288        0.0084      156.5303      156.5387      50.609892       0.00000
  35     3.853      105.9279        0.0109      156.5268      156.5378      50.609892      -0.00000
  34     5.035      105.9267        0.0144      156.5222      156.5366      50.609892       0.00000
  33     6.613      105.9250        0.0189      156.5160      156.5349      50.609892      -0.00000
  32     8.786      105.9228        0.0250      156.5076      156.5327      50.609892       0.00000
  31     11.80      105.9196        0.0338      156.4957      156.5295      50.609892      -0.00000
  30     15.07      105.9162        0.0433      156.4828      156.5261      50.609892       0.00000
  29     18.79      105.9123        0.0540      156.4682      156.5222      50.609892      -0.00000
  28     23.16      105.9078        0.0665      156.4512      156.5177      50.609892       0.00000
  27     28.12      105.9026        0.0808      156.4317      156.5125      50.609892      -0.00000
  26     33.73      105.8968        0.0968      156.4099      156.5067      50.609892       0.00000
  25     40.54      105.8898        0.1162      156.3834      156.4997      50.609892      -0.00000
  24     48.69      105.8813        0.1397      156.3515      156.4912      50.609892       0.00000
  23     57.69      105.8720        0.1654      156.3164      156.4819      50.609892      -0.00000
  22     68.43      105.8608        0.1962      156.2746      156.4707      50.609892      -0.00000
  21     81.20      105.8476        0.2329      156.2246      156.4574      50.609892      -0.00000
  20     96.49      105.8317        0.2766      156.1649      156.4416      50.609892       0.00000
  19     114.6      105.8128        0.3287      156.0938      156.4225      50.609703       0.00009
  18     136.5      105.7904        0.3906      156.0093      156.3999      50.609466       0.00009
  17     162.9      105.7637        0.4645      155.9083      156.3727      50.609069       0.00013
  16     196.4      105.7289        0.5605      155.7764      156.3369      50.608028       0.00026
  15     218.7      105.7061        0.6238      155.6883      156.3121      50.606011       0.00077
  14     243.0      105.6814        0.6927      155.5897      156.2824      50.600932       0.00176
  13     269.0      105.6551        0.7675      155.4770      156.2445      50.589418       0.00374
  12     297.5      105.6275        0.8486      155.3455      156.1941      50.566593       0.00677
  11     328.5      105.5987        0.9364      155.1928      156.1293      50.530566       0.00980
  10     361.9      105.5692        1.0313      155.0150      156.0462      50.477084       0.01353
   9     398.1      105.5396        1.1337      154.8051      155.9388      50.399177       0.01815
   8     437.6      105.5115        1.2439      154.5544      155.7984      50.286856       0.02402
   7     480.5      105.4865        1.3625      154.2556      155.6181      50.131655       0.03048
   6     533.0      105.4650        1.5089      153.8426      155.3515      49.886497       0.03944
   5     589.8      105.4587        1.6671      153.3295      154.9967      49.537946       0.05174
   4     651.6      105.4865        1.8374      152.6598      154.4972      49.010670       0.07211
   3     718.7      105.5707        2.0200      151.8070      153.8270      48.256336       0.09480
   2     792.3      105.7567        2.2145      150.7067      152.9212      47.164462       0.12523
   1     891.5      106.2354        2.4742      148.8983      151.3726      45.137164       0.17251
   0    1013.0      107.2909        2.7810      146.3344      149.1154      41.824564       0.23001



 Wavenumbers: 12850. - 16000. cm-1, ATM      1
 LEVEL PRESSURE   UPWARD FLUX   DIFDOWN FLUX  DIRDOWN FLUX  DOWNWARD FLUX   NET FLUX    HEATING RATE
          mb          W/m2          W/m2          W/m2        W/m2          W/m2       degree/day
  51    .06700       77.2884        0.0000       98.0872       98.0872      20.798880       0.00000
  50    .07753       77.2884        0.0001       98.0864       98.0864      20.798087       0.63557
  49    .09103       77.2884        0.0002       98.0853       98.0855      20.797091       0.62264
  48    0.1069       77.2884        0.0003       98.0841       98.0843      20.795946       0.60948
  47    0.1255       77.2884        0.0004       98.0826       98.0830      20.794630       0.59665
  46    0.1487       77.2884        0.0005       98.0809       98.0814      20.792968       0.60573
  45    0.1794       77.2885        0.0007       98.0784       98.0792      20.790706       0.62091
  44    0.2165       77.2885        0.0010       98.0756       98.0766      20.788044       0.60559
  43    0.2613       77.2887        0.0012       98.0723       98.0736      20.784911       0.59052
  42    0.3336       77.2889        0.0017       98.0670       98.0687      20.779794       0.59666
  41    0.4307       77.2894        0.0023       98.0602       98.0625      20.773169       0.57598
  40    0.5894       77.2902        0.0034       98.0496       98.0529      20.762716       0.55591
  39     1.339       77.2974        0.0082       98.0043       98.0125      20.715103       0.53603
  38     1.782       77.3039        0.0110       97.9793       97.9903      20.686360       0.54721
  37     2.292       77.3136        0.0142       97.9498       97.9640      20.650454       0.59471
  36     2.964       77.3295        0.0185       97.9088       97.9273      20.597811       0.66082
  35     3.853       77.3552        0.0242       97.8503       97.8745      20.519292       0.74516
  34     5.035       77.3939        0.0317       97.7680       97.7997      20.405778       0.81090
  33     6.613       77.4479        0.0417       97.6562       97.6979      20.250023       0.83267
  32     8.786       77.5182        0.0552       97.5107       97.5659      20.047703       0.78574
  31     11.80       77.6098        0.0745       97.3179       97.3924      19.782587       0.74224
  30     15.07       77.6976        0.0952       97.1283       97.2235      19.525877       0.66277
  29     18.79       77.7875        0.1185       96.9300       97.0486      19.261079       0.60038
  28     23.16       77.8816        0.1458       96.7166       96.8624      18.980801       0.54197
  27     28.12       77.9765        0.1769       96.4935       96.6704      18.693967       0.48760
  26     33.73       78.0645        0.2118       96.2731       96.4849      18.420379       0.41135
  25     40.54       78.1499        0.2539       96.0408       96.2947      18.144811       0.34187
  24     48.69       78.2325        0.3047       95.7946       96.0993      17.866843       0.28765
  23     57.69       78.3035        0.3605       95.5573       95.9178      17.614345       0.23668
  22     68.43       78.3668        0.4270       95.3106       95.7377      17.370879       0.19140
  21     81.20       78.4130        0.5064       95.0644       95.5707      17.157709       0.14086
  20     96.49       78.4412        0.6010       94.8153       95.4163      16.975112       0.10078
  19     114.6       78.4688        0.7142       94.5412       95.2554      16.786578       0.08803
  18     136.5       78.4910        0.8484       94.2324       95.0808      16.589783       0.07567
  17     162.9       78.5080        1.0081       93.8760       94.8841      16.376123       0.06829
  16     196.4       78.5097        1.2153       93.4359       94.6512      16.141541       0.05905
  15     218.7       78.5036        1.3514       93.1535       94.5049      16.001336       0.05323
  14     243.0       78.4941        1.4993       92.8488       94.3480      15.853991       0.05110
  13     269.0       78.4807        1.6595       92.5217       94.1812      15.700497       0.04979
  12     297.5       78.4636        1.8326       92.1715       94.0041      15.540478       0.04746
  11     328.5       78.4445        2.0197       91.7951       93.8148      15.370293       0.04627
  10     361.9       78.4238        2.2211       91.3923       93.6134      15.189642       0.04571
   9     398.1       78.4017        2.4379       90.9623       93.4001      14.998438       0.04455
   8     437.6       78.3792        2.6707       90.5030       93.1736      14.794497       0.04360
   7     480.5       78.3567        2.9203       90.0138       92.9341      14.577399       0.04264
   6     533.0       78.3327        3.2277       89.4140       92.6417      14.309004       0.04318
   5     589.8       78.3128        3.5593       88.7685       92.3277      14.014936       0.04365
   4     651.6       78.3008        3.9158       88.0724       91.9882      13.687367       0.04480
   3     718.7       78.3011        4.2989       87.3206       91.6195      13.318383       0.04637
   2     792.3       78.3217        4.7083       86.5099       91.2182      12.896500       0.04839
   1     891.5       78.3913        5.2600       85.4069       90.6669      12.275658       0.05283
   0    1013.0       78.5557        5.9210       84.0749       89.9958      11.440122       0.05802



 Wavenumbers: 16000. - 22650. cm-1, ATM      1
 LEVEL PRESSURE   UPWARD FLUX   DIFDOWN FLUX  DIRDOWN FLUX  DOWNWARD FLUX   NET FLUX    HEATING RATE
          mb          W/m2          W/m2          W/m2        W/m2          W/m2       degree/day
  51    .06700      141.7511        0.0000      156.3892      156.3892      14.638175       0.00000
  50    .07753      141.7510        0.0004      156.3887      156.3891      14.638027       0.11912
  49    .09103      141.7510        0.0009      156.3879      156.3888      14.637811       0.13511
  48    0.1069      141.7510        0.0015      156.3871      156.3885      14.637521       0.15407
  47    0.1255      141.7510        0.0021      156.3861      156.3882      14.637134       0.17562
  46    0.1487      141.7511        0.0030      156.3847      156.3877      14.636563       0.20811
  45    0.1794      141.7512        0.0041      156.3828      156.3869      14.635670       0.24503
  44    0.2165      141.7515        0.0054      156.3805      156.3859      14.634460       0.27539
  43    0.2613      141.7518        0.0070      156.3776      156.3847      14.632817       0.30960
  42    0.3336      141.7526        0.0097      156.3726      156.3823      14.629695       0.36408
  41    0.4307      141.7539        0.0132      156.3657      156.3789      14.624987       0.40927
  40    0.5894      141.7565        0.0189      156.3537      156.3726      14.616010       0.47739
  39     1.339      141.7796        0.0459      156.2834      156.3293      14.549686       0.74670
  38     1.782      141.8009        0.0617      156.2324      156.2941      14.493185       1.07569
  37     2.292      141.8328        0.0801      156.1641      156.2442      14.411399       1.35459
  36     2.964      141.8858        0.1042      156.0605      156.1647      14.278904       1.66321
  35     3.853      141.9714        0.1360      155.9041      156.0401      14.068664       1.99521
  34     5.035      142.1006        0.1782      155.6774      155.8556      13.754999       2.24070
  33     6.613      142.2811        0.2345      155.3656      155.6002      13.319086       2.33039
  32     8.786      142.5162        0.3104      154.9577      155.2680      12.751847       2.20295
  31     11.80      142.8222        0.4186      154.4153      154.8339      12.011719       2.07213
  30     15.07      143.1154        0.5347      153.8804      154.4151      11.299709       1.83827
  29     18.79      143.4149        0.6657      153.3191      153.9848      10.569933       1.65463
  28     23.16      143.7279        0.8184      152.7126      153.5310       9.803091       1.48282
  27     28.12      144.0430        0.9928      152.0755      153.0683       9.025348       1.32211
  26     33.73      144.3339        1.1878      151.4409      152.6287       8.294780       1.09843
  25     40.54      144.6141        1.4231      150.7637      152.1868       7.572681       0.89585
  24     48.69      144.8827        1.7066      150.0339      151.7404       6.857758       0.73983
  23     57.69      145.1106        2.0176      149.3151      151.3327       6.222088       0.59584
  22     68.43      145.3098        2.3875      148.5476      150.9351       5.625335       0.46913
  21     81.20      145.4481        2.8281      147.7517      150.5797       5.131659       0.32621
  20     96.49      145.5209        3.3525      146.9127      150.2651       4.744232       0.21383
  19     114.6      145.5594        3.9733      145.9763      149.9496       4.390201       0.16531
  18     136.5      145.5733        4.7064      144.9088      149.6152       4.041923       0.13392
  17     162.9      145.5609        5.5754      143.6786      149.2540       3.693059       0.11151
  16     196.4      145.4824        6.6965      142.1652      148.8618       3.379370       0.07896
  15     218.7      145.4079        7.4292      141.2037      148.6329       3.225013       0.05860
  14     243.0      145.3163        8.2222      140.1761      148.3983       3.082030       0.04959
  13     269.0      145.2058        9.0777      139.0814      148.1591       2.953234       0.04178
  12     297.5      145.0757        9.9976      137.9177      147.9153       2.839587       0.03371
  11     328.5      144.9299       10.9864      136.6741      147.6605       2.730618       0.02963
  10     361.9      144.7680       12.0449      135.3501      147.3950       2.627024       0.02621
   9     398.1      144.5890       13.1771      133.9408      147.1179       2.528832       0.02288
   8     437.6      144.3936       14.3850      132.4429      146.8279       2.434331       0.02020
   7     480.5      144.1806       15.6708      130.8545      146.5253       2.344691       0.01761
   6     533.0      143.9152       17.2410      128.9212      146.1622       2.247069       0.01570
   5     589.8      143.6274       18.9186      126.8612      145.7797       2.152381       0.01405
   4     651.6      143.3175       20.7048      124.6720      145.3768       2.059240       0.01274
   3     718.7      142.9856       22.6016      122.3511      144.9527       1.967038       0.01159
   2     792.3      142.6324       24.6075      119.8996      144.5072       1.874756       0.01058
   1     891.5      142.1617       27.2734      116.6439      143.9172       1.755550       0.01014
   0    1013.0      141.6077       30.4117      112.8119      143.2236       1.615878       0.00970



 Wavenumbers: 22650. - 29000. cm-1, ATM      1
 LEVEL PRESSURE   UPWARD FLUX   DIFDOWN FLUX  DIRDOWN FLUX  DOWNWARD FLUX   NET FLUX    HEATING RATE
          mb          W/m2          W/m2          W/m2        W/m2          W/m2       degree/day
  51    .06700       58.3821        0.0000       59.0156       59.0156       0.633512       0.00000
  50    .07753       58.3820        0.0005       59.0151       59.0155       0.633512      -0.00000
  49    .09103       58.3819        0.0010       59.0144       59.0154       0.633512       0.00000
  48    0.1069       58.3818        0.0017       59.0136       59.0153       0.633512       0.00000
  47    0.1255       58.3816        0.0025       59.0127       59.0151       0.633512       0.00000
  46    0.1487       58.3814        0.0034       59.0115       59.0149       0.633512       0.00000
  45    0.1794       58.3812        0.0048       59.0099       59.0147       0.633512       0.00000
  44    0.2165       58.3809        0.0063       59.0080       59.0144       0.633512      -0.00000
  43    0.2613       58.3805        0.0082       59.0058       59.0140       0.633512      -0.00000
  42    0.3336       58.3799        0.0113       59.0022       59.0134       0.633512       0.00000
  41    0.4307       58.3791        0.0153       58.9973       59.0126       0.633512       0.00000
  40    0.5894       58.3778        0.0220       58.9894       59.0113       0.633512       0.00000
  39     1.339       58.3717        0.0534       58.9518       59.0052       0.633512      -0.00000
  38     1.782       58.3681        0.0719       58.9297       59.0016       0.633512       0.00000
  37     2.292       58.3639        0.0933       58.9042       58.9974       0.633512       0.00000
  36     2.964       58.3584        0.1213       58.8706       58.9920       0.633512      -0.00000
  35     3.853       58.3512        0.1584       58.8264       58.9847       0.633512       0.00000
  34     5.035       58.3416        0.2076       58.7676       58.9751       0.633512       0.00000
  33     6.613       58.3288        0.2732       58.6891       58.9623       0.633512      -0.00000
  32     8.786       58.3116        0.3617       58.5834       58.9451       0.633512       0.00000
  31     11.80       58.2869        0.4880       58.4325       58.9205       0.633512       0.00000
  30     15.07       58.2605        0.6234       58.2706       58.8940       0.633512       0.00000
  29     18.79       58.2308        0.7760       58.0882       58.8643       0.633512      -0.00000
  28     23.16       58.1961        0.9539       57.8757       58.8296       0.633512       0.00000
  27     28.12       58.1565        1.1567       57.6333       58.7900       0.633512      -0.00000
  26     33.73       58.1124        1.3828       57.3631       58.7459       0.633512       0.00000
  25     40.54       58.0593        1.6549       57.0379       58.6928       0.633512       0.00000
  24     48.69       57.9956        1.9812       56.6479       58.6291       0.633512       0.00000
  23     57.69       57.9260        2.3375       56.2221       58.5596       0.633512      -0.00000
  22     68.43       57.8438        2.7587       55.7186       58.4773       0.633512      -0.00000
  21     81.20       57.7466        3.2562       55.1239       58.3801       0.633512       0.00000
  20     96.49       57.6320        3.8427       54.4228       58.2655       0.633512       0.00000
  19     114.6       57.4976        4.5301       53.6010       58.1311       0.633512       0.00000
  18     136.5       57.3407        5.3324       52.6418       57.9742       0.633512       0.00000
  17     162.9       57.1571        6.2702       51.5204       57.7906       0.633512       0.00000
  16     196.4       56.9244        7.4584       50.0995       57.5579       0.633512      -0.00000
  15     218.7       56.7747        8.2219       49.1863       57.4082       0.633512       0.00000
  14     243.0       56.6148        9.0369       48.2114       57.2483       0.633512      -0.00000
  13     269.0       56.4447        9.9031       47.1752       57.0782       0.633512       0.00000
  12     297.5       56.2647       10.8194       46.0788       56.8982       0.633512      -0.00000
  11     328.5       56.0743       11.7874       44.9204       56.7078       0.633512       0.00000
  10     361.9       55.8741       12.8043       43.7033       56.5076       0.633512       0.00000
   9     398.1       55.6640       13.8702       42.4273       56.2975       0.633512       0.00000
   8     437.6       55.4444       14.9829       41.0950       56.0779       0.633512      -0.00000
   7     480.5       55.2157       16.1398       39.7095       55.8493       0.633512       0.00000
   6     533.0       54.9436       17.5145       38.0626       55.5771       0.633512      -0.00000
   5     589.8       54.6612       18.9381       36.3566       55.2947       0.633512      -0.00000
   4     651.6       54.3697       20.4039       34.5993       55.0032       0.633512       0.00000
   3     718.7       54.0704       21.9053       32.7986       54.7039       0.633512       0.00000
   2     792.3       53.7647       23.4342       30.9639       54.3982       0.633512       0.00000
   1     891.5       53.3760       25.3704       28.6392       54.0095       0.633512       0.00000
   0    1013.0       52.9426       27.5176       26.0585       53.5762       0.633512      -0.00000



 Wavenumbers: 29000. - 38000. cm-1, ATM      1
 LEVEL PRESSURE   UPWARD FLUX   DIFDOWN FLUX  DIRDOWN FLUX  DOWNWARD FLUX   NET FLUX    HEATING RATE
          mb          W/m2          W/m2          W/m2        W/m2          W/m2       degree/day
  51    .06700        8.7365        0.0000       20.8114       20.8114      12.074866       0.00000
  50    .07753        8.7363        0.0003       20.8070       20.8074      12.071059       3.05152
  49    .09103        8.7361        0.0007       20.8009       20.8016      12.065522       3.46081
  48    0.1069        8.7358        0.0012       20.7928       20.7939      12.058112       3.94425
  47    0.1255        8.7355        0.0017       20.7820       20.7837      12.048208       4.49029
  46    0.1487        8.7352        0.0024       20.7665       20.7688      12.033645       5.30838
  45    0.1794        8.7347        0.0033       20.7424       20.7457      12.010980       6.22197
  44    0.2165        8.7342        0.0044       20.7103       20.7147      11.980458       6.94332
  43    0.2613        8.7336        0.0056       20.6675       20.6731      11.939464       7.72723
  42    0.3336        8.7327        0.0077       20.5880       20.5956      11.862904       8.92613
  41    0.4307        8.7317        0.0104       20.4722       20.4826      11.750953       9.73389
  40    0.5894        8.7301        0.0147       20.2637       20.2784      11.548272      10.77831
  39     1.339        8.7267        0.0331       19.0984       19.1315      10.404817      12.87322
  38     1.782        8.7271        0.0427       18.4394       18.4820       9.754912      12.37315
  37     2.292        8.7298        0.0530       17.7714       17.8244       9.094594      10.93659
  36     2.964        8.7363        0.0656       17.0421       17.1078       8.371513       9.07685
  35     3.853        8.7490        0.0816       16.2679       16.3494       7.600401       7.31799
  34     5.035        8.7700        0.1017       15.4803       15.5820       6.812006       5.63197
  33     6.613        8.8006        0.1275       14.7157       14.8432       6.042560       4.11346
  32     8.786        8.8410        0.1612       13.9936       14.1548       5.313792       2.83027
  31     11.80        8.8937        0.2082       13.2835       13.4918       4.598067       2.00380
  30     15.07        8.9445        0.2570       12.7394       12.9963       4.051826       1.41029
  29     18.79        8.9970        0.3110       12.2666       12.5776       3.580622       1.06836
  28     23.16        9.0528        0.3725       11.8300       12.2025       3.149744       0.83318
  27     28.12        9.1099        0.4413       11.4279       11.8692       2.759322       0.66369
  26     33.73        9.1625        0.5172       11.0695       11.5866       2.424079       0.50405
  25     40.54        9.2125        0.6078       10.7209       11.3287       2.116178       0.38199
  24     48.69        9.2596        0.7153       10.3742       11.0895       1.829894       0.29626
  23     57.69        9.2982        0.8317       10.0549       10.8866       1.588384       0.22638
  22     68.43        9.3293        0.9682        9.7327       10.7009       1.371589       0.17043
  21     81.20        9.3441        1.1294        9.4134       10.5428       1.198730       0.11422
  20     96.49        9.3405        1.3189        9.0887       10.4076       1.067154       0.07262
  19     114.6        9.3265        1.5378        8.7388       10.2766       0.950043       0.05468
  18     136.5        9.3053        1.7881        8.3549       10.1430       0.837681       0.04321
  17     162.9        9.2768        2.0733        7.9311       10.0045       0.727676       0.03516
  16     196.4        9.2291        2.4267        7.4333        9.8600       0.630861       0.02437
  15     218.7        9.1948        2.6489        7.1296        9.7785       0.583647       0.01793
  14     243.0        9.1572        2.8812        6.8161        9.6973       0.540052       0.01512
  13     269.0        9.1162        3.1227        6.4944        9.6171       0.500911       0.01270
  12     297.5        9.0717        3.3723        6.1659        9.5381       0.466409       0.01023
  11     328.5        9.0253        3.6290        5.8297        9.4587       0.433379       0.00898
  10     361.9        8.9774        3.8904        5.4889        9.3793       0.401968       0.00795
   9     398.1        8.9280        4.1559        5.1444        9.3002       0.372203       0.00693
   8     437.6        8.8778        4.4240        4.7974        9.2214       0.343516       0.00613
   7     480.5        8.8271        4.6926        4.4508        9.1434       0.316284       0.00535
   6     533.0        8.7689        4.9984        4.0571        9.0555       0.286609       0.00477
   5     589.8        8.7116        5.2991        3.6704        8.9695       0.257879       0.00426
   4     651.6        8.6559        5.5925        3.2932        8.8857       0.229774       0.00384
   3     718.7        8.6026        5.8750        2.9298        8.8049       0.202250       0.00346
   2     792.3        8.5522        6.1447        2.5828        8.7275       0.175313       0.00309
   1     891.5        8.4943        6.4608        2.1756        8.6364       0.142057       0.00283
   0    1013.0        8.4386        6.7777        1.7663        8.5440       0.105329       0.00255



 Wavenumbers: 38000. - 50000. cm-1, ATM      1
 LEVEL PRESSURE   UPWARD FLUX   DIFDOWN FLUX  DIRDOWN FLUX  DOWNWARD FLUX   NET FLUX    HEATING RATE
          mb          W/m2          W/m2          W/m2        W/m2          W/m2       degree/day
  51    .06700        0.0061        0.0000        1.2836        1.2836       1.277518       0.00000
  50    .07753        0.0061        0.0001        1.2812        1.2812       1.275183       1.87150
  49    .09103        0.0060        0.0002        1.2777        1.2778       1.271851       2.08247
  48    0.1069        0.0059        0.0002        1.2731        1.2734       1.267473       2.33059
  47    0.1255        0.0058        0.0004        1.2672        1.2675       1.261717       2.60908
  46    0.1487        0.0057        0.0005        1.2586        1.2591       1.253391       3.03499
  45    0.1794        0.0055        0.0007        1.2455        1.2462       1.240623       3.50520
  44    0.2165        0.0054        0.0009        1.2282        1.2291       1.223697       3.85037
  43    0.2613        0.0052        0.0011        1.2054        1.2065       1.201348       4.21261
  42    0.3336        0.0049        0.0015        1.1639        1.1654       1.160524       4.75970
  41    0.4307        0.0045        0.0020        1.1051        1.1070       1.102565       5.03943
  40    0.5894        0.0039        0.0026        1.0039        1.0064       1.002524       5.32007
  39     1.339        0.0022        0.0035        0.5438        0.5473       0.545105       5.14971
  38     1.782        0.0016        0.0032        0.3635        0.3666       0.365006       3.42879
  37     2.292        0.0012        0.0027        0.2356        0.2383       0.237058       2.11916
  36     2.964        0.0009        0.0022        0.1455        0.1477       0.146786       1.13318
  35     3.853        0.0006        0.0017        0.0858        0.0875       0.086906       0.56828
  34     5.035        0.0004        0.0013        0.0488        0.0501       0.049701       0.26578
  33     6.613        0.0003        0.0010        0.0273        0.0282       0.027974       0.11615
  32     8.786        0.0002        0.0007        0.0144        0.0151       0.014928       0.05067
  31     11.80        0.0001        0.0004        0.0065        0.0070       0.006903       0.02247
  30     15.07        0.0000        0.0003        0.0031        0.0034       0.003329       0.00923
  29     18.79        0.0000        0.0002        0.0014        0.0016       0.001583       0.00396
  28     23.16        0.0000        0.0001        0.0006        0.0007       0.000720       0.00167
  27     28.12        0.0000        0.0001        0.0003        0.0003       0.000317       0.00069
  26     33.73        0.0000        0.0000        0.0001        0.0001       0.000140       0.00027
  25     40.54        0.0000        0.0000        0.0000        0.0001       0.000057       0.00010
  24     48.69        0.0000        0.0000        0.0000        0.0000       0.000021       0.00004
  23     57.69        0.0000        0.0000        0.0000        0.0000       0.000008       0.00001
  22     68.43        0.0000        0.0000        0.0000        0.0000       0.000003       0.00000
  21     81.20        0.0000        0.0000        0.0000        0.0000       0.000001       0.00000
  20     96.49        0.0000        0.0000        0.0000        0.0000       0.000000       0.00000
  19     114.6        0.0000        0.0000        0.0000        0.0000       0.000000       0.00000
  18     136.5        0.0000        0.0000        0.0000        0.0000       0.000000       0.00000
  17     162.9        0.0000        0.0000        0.0000        0.0000       0.000000       0.00000
  16     196.4        0.0000        0.0000        0.0000        0.0000       0.000000       0.00000
  15     218.7        0.0000        0.0000        0.0000        0.0000       0.000000       0.00000
  14     243.0        0.0000        0.0000        0.0000        0.0000       0.000000       0.00000
  13     269.0        0.0000        0.0000        0.0000        0.0000       0.000000       0.00000
  12     297.5        0.0000        0.0000        0.0000        0.0000       0.000000       0.00000
  11     328.5        0.0000        0.0000        0.0000        0.0000       0.000000       0.00000
  10     361.9        0.0000        0.0000        0.0000        0.0000       0.000000       0.00000
   9     398.1        0.0000        0.0000        0.0000        0.0000       0.000000       0.00000
   8     437.6        0.0000        0.0000        0.0000        0.0000       0.000000       0.00000
   7     480.5        0.0000        0.0000        0.0000        0.0000       0.000000       0.00000
   6     533.0        0.0000        0.0000        0.0000        0.0000       0.000000       0.00000
   5     589.8        0.0000        0.0000        0.0000        0.0000       0.000000       0.00000
   4     651.6        0.0000        0.0000        0.0000        0.0000       0.000000       0.00000
   3     718.7        0.0000        0.0000        0.0000        0.0000       0.000000       0.00000
   2     792.3        0.0000        0.0000        0.0000        0.0000       0.000000       0.00000
   1     891.5        0.0000        0.0000        0.0000        0.0000       0.000000       0.00000
   0    1013.0        0.0000        0.0000        0.0000        0.0000       0.000000       0.00000



 Wavenumbers:   820. -  2600. cm-1, ATM      1
 LEVEL PRESSURE   UPWARD FLUX   DIFDOWN FLUX  DIRDOWN FLUX  DOWNWARD FLUX   NET FLUX    HEATING RATE
          mb          W/m2          W/m2          W/m2        W/m2          W/m2       degree/day
  51    .06700        2.2069        0.0000        6.0047        6.0047       3.797763       0.00000
  50    .07753        2.2069        0.0000        6.0009        6.0009       3.793982       3.03110
  49    .09103        2.2069        0.0000        6.0001        6.0001       3.793189       0.49554
  48    0.1069        2.2069        0.0000        5.9992        5.9992       3.792311       0.46750
  47    0.1255        2.2069        0.0000        5.9982        5.9982       3.791326       0.44652
  46    0.1487        2.2069        0.0000        5.9970        5.9970       3.790142       0.43132
  45    0.1794        2.2069        0.0000        5.9956        5.9956       3.788668       0.40463
  44    0.2165        2.2069        0.0000        5.9940        5.9940       3.787127       0.35067
  43    0.2613        2.2069        0.0000        5.9924        5.9924       3.785536       0.29981
  42    0.3336        2.2069        0.0000        5.9902        5.9902       3.783288       0.26214
  41    0.4307        2.2069        0.0000        5.9876        5.9876       3.780674       0.22730
  40    0.5894        2.2069        0.0000        5.9835        5.9835       3.776598       0.21673
  39     1.339        2.2069        0.0000        5.9648        5.9648       3.757880       0.21073
  38     1.782        2.2069        0.0000        5.9544        5.9544       3.747545       0.19676
  37     2.292        2.2069        0.0000        5.9428        5.9429       3.735960       0.19188
  36     2.964        2.2069        0.0000        5.9281        5.9281       3.721200       0.18529
  35     3.853        2.2069        0.0000        5.9093        5.9093       3.702402       0.17839
  34     5.035        2.2069        0.0000        5.8854        5.8854       3.678488       0.17084
  33     6.613        2.2069        0.0000        5.8543        5.8543       3.647415       0.16611
  32     8.786        2.2069        0.0000        5.8128        5.8128       3.605881       0.16130
  31     11.80        2.2069        0.0000        5.7575        5.7575       3.550541       0.15493
  30     15.07        2.2069        0.0000        5.7084        5.7084       3.501419       0.12682
  29     18.79        2.2070        0.0000        5.6675        5.6675       3.460554       0.09265
  28     23.16        2.2070        0.0000        5.6362        5.6362       3.429208       0.06061
  27     28.12        2.2070        0.0000        5.6137        5.6137       3.406657       0.03833
  26     33.73        2.2071        0.0000        5.5961        5.5961       3.389002       0.02655
  25     40.54        2.2072        0.0000        5.5781        5.5781       3.370896       0.02246
  24     48.69        2.2073        0.0000        5.5568        5.5569       3.349588       0.02205
  23     57.69        2.2074        0.0000        5.5331        5.5331       3.325698       0.02239
  22     68.43        2.2075        0.0000        5.5042        5.5042       3.296641       0.02284
  21     81.20        2.2078        0.0000        5.4700        5.4700       3.262281       0.02270
  20     96.49        2.2080        0.0000        5.4298        5.4299       3.221818       0.02233
  19     114.6        2.2084        0.0000        5.3840        5.3840       3.175605       0.02158
  18     136.5        2.2088        0.0000        5.3327        5.3327       3.123924       0.01987
  17     162.9        2.2093        0.0000        5.2759        5.2760       3.066629       0.01831
  16     196.4        2.2100        0.0000        5.2078        5.2078       2.997821       0.01732
  15     218.7        2.2105        0.0000        5.1650        5.1650       2.954530       0.01644
  14     243.0        2.2111        0.0000        5.1183        5.1183       2.907232       0.01640
  13     269.0        2.2118        0.0000        5.0660        5.0661       2.854308       0.01717
  12     297.5        2.2126        0.0000        5.0054        5.0054       2.792850       0.01823
  11     328.5        2.2136        0.0000        4.9388        4.9388       2.725262       0.01838
  10     361.9        2.2147        0.0001        4.8666        4.8667       2.651955       0.01855
   9     398.1        2.2161        0.0001        4.7893        4.7894       2.573312       0.01832
   8     437.6        2.2178        0.0001        4.7069        4.7070       2.489194       0.01798
   7     480.5        2.2198        0.0001        4.6211        4.6212       2.401416       0.01724
   6     533.0        2.2227        0.0001        4.5165        4.5166       2.293952       0.01729
   5     589.8        2.2266        0.0001        4.3929        4.3930       2.166409       0.01893
   4     651.6        2.2324        0.0001        4.2241        4.2242       1.991793       0.02388
   3     718.7        2.2411        0.0001        4.0056        4.0057       1.764556       0.02856
   2     792.3        2.2546        0.0001        3.7499        3.7500       1.495436       0.03087
   1     891.5        2.2823        0.0001        3.4612        3.4613       1.178936       0.02693
   0    1013.0        2.3436        0.0001        3.2635        3.2636       0.919994       0.01798

  Modules and versions used in this calculation:

       rrtmg_sw.1col.f90:  $Revision$                    rrtmg_sw_init.f90:  $Revision$        
     rrtmgsw_cldprop.f90:  $Revision$                  rrtmgsw_cldprmc.f90:  NOT USED          
     rrtmg_sw_reftra.f90:  $Revision$                  rrtmg_sw_spcvrt.f90:  NOT USED          
     rrtmg_sw_spcvmc.f90:  NOT USED                    rrtmgsw_setcoef.f90:  NOT USED          
     rrtmg_sw_taumol.f90:  $Revision$                  rrtmg_sw_vrtqdr.f90:  NOT USED          
                rrtatm.f:  NOT USED                             util_xxx.f:  NOT USED          
                 extra.f:  NOT USED                       rrtmg_sw_k_g.f90:  $Revision$        

