

 Wavenumbers:   820. - 50000. cm-1, ATM      1
 LEVEL PRESSURE   UPWARD FLUX   DIFDOWN FLUX  DIRDOWN FLUX  DOWNWARD FLUX   NET FLUX    HEATING RATE
          mb          W/m2          W/m2          W/m2        W/m2          W/m2       degree/day
  51    .06700      385.0204        0.0000      617.8126      617.8126     232.792193       0.00000
  50    .07753      385.0200        0.0013      617.7946      617.7959     232.775900      13.05897
  49    .09103      385.0196        0.0030      617.7774      617.7805     232.760909       9.36961
  48    0.1069      385.0191        0.0050      617.7575      617.7625     232.743446       9.29573
  47    0.1255      385.0185        0.0072      617.7332      617.7404     232.721874       9.77983
  46    0.1487      385.0179        0.0100      617.6998      617.7099     232.691913      10.92109
  45    0.1794      385.0172        0.0139      617.6506      617.6645     232.647315      12.24308
  44    0.2165      385.0165        0.0184      617.5876      617.6060     232.589568      13.13657
  43    0.2613      385.0157        0.0238      617.5065      617.5303     232.514548      14.14091
  42    0.3336      385.0148        0.0326      617.3608      617.3934     232.378612      15.84877
  41    0.4307      385.0140        0.0442      617.1546      617.1988     232.184855      16.84674
  40    0.5894      385.0137        0.0630      616.7940      616.8570     231.843318      18.16253
  39     1.339      385.0300        0.1478      614.9295      615.0772     230.047266      20.22028
  38     1.782      385.0519        0.1955      613.9479      614.1434     229.091462      18.19697
  37     2.292      385.0886        0.2497      612.9822      613.2320     228.143325      15.70361
  36     2.964      385.1538        0.3203      611.9284      612.2487     227.094951      13.16027
  35     3.853      385.2634        0.4128      610.7663      611.1791     225.915778      11.19057
  34     5.035      385.4322        0.5349      609.4884      610.0233     224.591143       9.46264
  33     6.613      385.6700        0.6969      608.0923      608.7892     223.119171       7.86917
  32     8.786      385.9798        0.9144      606.5595      607.4739     221.494078       6.31127
  31     11.80      386.3807        1.2239      604.7702      605.9940     219.613371       5.26539
  30     15.07      386.7619        1.5542      603.1541      604.7083     217.946421       4.30374
  29     18.79      387.1485        1.9258      601.5502      603.4760     216.327563       3.67045
  28     23.16      387.5494        2.3576      599.8803      602.2379     214.688476       3.16946
  27     28.12      387.9485        2.8491      598.1636      601.0127     213.064191       2.76118
  26     33.73      388.3084        3.3970      596.4590      599.8560     211.547636       2.28018
  25     40.54      388.6419        4.0567      594.6247      598.6814     210.039506       1.87101
  24     48.69      388.9461        4.8483      592.6263      597.4746     208.528559       1.56359
  23     57.69      389.1850        5.7136      590.6236      596.3371     207.152173       1.29015
  22     68.43      389.3662        6.7387      588.4338      595.1725     205.806257       1.05807
  21     81.20      389.4386        7.9540      586.0698      594.0238     204.585126       0.80690
  20     96.49      389.3918        9.3929      583.4820      592.8749     203.483107       0.60824
  19     114.6      389.2869       11.0860      580.5333      591.6193     202.332421       0.53729
  18     136.5      389.1176       13.0684      577.1711      590.2396     201.121927       0.46546
  17     162.9      388.8776       15.3949      573.2528      588.6478     199.770173       0.43208
  16     196.4      388.4778       18.3617      568.1701      586.5319     198.054068       0.43196
  15     218.7      388.1855       20.2799      564.4815      584.7614     196.575951       0.56119
  14     243.0      387.8574       22.3372      559.8494      582.1866     194.329221       0.77924
  13     269.0      387.4924       24.5350      554.0065      578.5415     191.049026       1.06408
  12     297.5      387.0925       26.8740      547.0902      573.9642     186.871751       1.23893
  11     328.5      386.6653       29.3608      539.6540      569.0148     182.349464       1.22960
  10     361.9      386.2145       31.9913      531.5571      563.5484     177.333915       1.26898
   9     398.1      385.7441       34.7701      522.6979      557.4680     171.723983       1.30699
   8     437.6      385.2641       37.6958      513.0576      550.7534     165.489327       1.33301
   7     480.5      384.7839       40.7666      502.8045      543.5712     158.787313       1.31625
   6     533.0      384.2559       44.4583      490.3091      534.7674     150.511493       1.33132
   5     589.8      383.7983       48.3315      476.8169      525.1484     141.350121       1.35985
   4     651.6      383.5123       52.3735      461.7536      514.1271     130.614842       1.46808
   3     718.7      383.5271       56.5769      445.5374      502.1143     118.587170       1.51155
   2     792.3      384.1321       60.9167      427.7980      488.7147     104.582536       1.60617
   1     891.5      386.4568       66.5216      403.9272      470.4488      83.992022       1.75215
   0    1013.0      392.9263       72.8952      377.2902      450.1854      57.259137       1.85620



 Wavenumbers:  2600. -  3250. cm-1, ATM      1
 LEVEL PRESSURE   UPWARD FLUX   DIFDOWN FLUX  DIRDOWN FLUX  DOWNWARD FLUX   NET FLUX    HEATING RATE
          mb          W/m2          W/m2          W/m2        W/m2          W/m2       degree/day
  51    .06700        0.0201        0.0000        5.4450        5.4450       5.424971       0.00000
  50    .07753        0.0201        0.0000        5.4450        5.4450       5.424963       0.00640
  49    .09103        0.0201        0.0000        5.4450        5.4450       5.424953       0.00627
  48    0.1069        0.0201        0.0000        5.4450        5.4450       5.424941       0.00613
  47    0.1255        0.0201        0.0000        5.4450        5.4450       5.424928       0.00599
  46    0.1487        0.0201        0.0000        5.4450        5.4450       5.424911       0.00608
  45    0.1794        0.0201        0.0000        5.4450        5.4450       5.424889       0.00625
  44    0.2165        0.0201        0.0000        5.4449        5.4449       5.424862       0.00612
  43    0.2613        0.0201        0.0000        5.4449        5.4449       5.424830       0.00600
  42    0.3336        0.0201        0.0000        5.4448        5.4448       5.424777       0.00617
  41    0.4307        0.0201        0.0000        5.4448        5.4448       5.424706       0.00620
  40    0.5894        0.0201        0.0000        5.4446        5.4446       5.424586       0.00637
  39     1.339        0.0201        0.0000        5.4439        5.4439       5.423878       0.00797
  38     1.782        0.0201        0.0000        5.4434        5.4434       5.423335       0.01034
  37     2.292        0.0201        0.0000        5.4427        5.4427       5.422619       0.01186
  36     2.964        0.0201        0.0000        5.4416        5.4416       5.421581       0.01304
  35     3.853        0.0201        0.0000        5.4402        5.4402       5.420104       0.01402
  34     5.035        0.0201        0.0000        5.4381        5.4381       5.418048       0.01468
  33     6.613        0.0201        0.0000        5.4353        5.4353       5.415267       0.01487
  32     8.786        0.0201        0.0000        5.4317        5.4317       5.411635       0.01411
  31     11.80        0.0201        0.0000        5.4269        5.4269       5.406855       0.01338
  30     15.07        0.0201        0.0000        5.4224        5.4224       5.402329       0.01169
  29     18.79        0.0201        0.0000        5.4180        5.4180       5.397918       0.01000
  28     23.16        0.0201        0.0000        5.4135        5.4135       5.393433       0.00867
  27     28.12        0.0201        0.0000        5.4088        5.4088       5.388786       0.00790
  26     33.73        0.0201        0.0000        5.4036        5.4036       5.383547       0.00788
  25     40.54        0.0200        0.0000        5.3966        5.3967       5.376608       0.00861
  24     48.69        0.0200        0.0000        5.3872        5.3872       5.367135       0.00980
  23     57.69        0.0200        0.0000        5.3754        5.3754       5.355356       0.01104
  22     68.43        0.0200        0.0000        5.3599        5.3599       5.339875       0.01217
  21     81.20        0.0200        0.0000        5.3401        5.3401       5.320052       0.01310
  20     96.49        0.0200        0.0000        5.3155        5.3155       5.295499       0.01355
  19     114.6        0.0200        0.0000        5.2850        5.2850       5.265003       0.01424
  18     136.5        0.0200        0.0000        5.2497        5.2498       5.229766       0.01355
  17     162.9        0.0200        0.0001        5.2099        5.2099       5.189928       0.01273
  16     196.4        0.0200        0.0001        5.1616        5.1617       5.141715       0.01214
  15     218.7        0.0200        0.0001        5.1285        5.1286       5.108569       0.01258
  14     243.0        0.0200        0.0001        5.0880        5.0881       5.068073       0.01405
  13     269.0        0.0200        0.0001        5.0372        5.0373       5.017313       0.01647
  12     297.5        0.0200        0.0001        4.9733        4.9734       4.953348       0.01897
  11     328.5        0.0200        0.0001        4.8963        4.8964       4.876424       0.02092
  10     361.9        0.0200        0.0001        4.8005        4.8007       4.780626       0.02424
   9     398.1        0.0201        0.0001        4.6784        4.6785       4.658417       0.02847
   8     437.6        0.0201        0.0001        4.5221        4.5222       4.502086       0.03342
   7     480.5        0.0202        0.0001        4.3346        4.3348       4.314570       0.03683
   6     533.0        0.0203        0.0002        4.0874        4.0876       4.067306       0.03978
   5     589.8        0.0205        0.0002        3.8160        3.8162       3.795706       0.04031
   4     651.6        0.0207        0.0002        3.5138        3.5139       3.493201       0.04137
   3     718.7        0.0212        0.0002        3.1781        3.1783       3.157072       0.04224
   2     792.3        0.0219        0.0002        2.7954        2.7956       2.773632       0.04398
   1     891.5        0.0237        0.0001        2.2960        2.2961       2.272398       0.04265
   0    1013.0        0.0281        0.0001        1.7923        1.7924       1.764281       0.03528



 Wavenumbers:  3250. -  4000. cm-1, ATM      1
 LEVEL PRESSURE   UPWARD FLUX   DIFDOWN FLUX  DIRDOWN FLUX  DOWNWARD FLUX   NET FLUX    HEATING RATE
          mb          W/m2          W/m2          W/m2        W/m2          W/m2       degree/day
  51    .06700        0.0004        0.0000        9.1795        9.1795       9.179094       0.00000
  50    .07753        0.0004        0.0000        9.1746        9.1746       9.174167       3.94948
  49    .09103        0.0004        0.0000        9.1711        9.1711       9.170686       2.17542
  48    0.1069        0.0004        0.0000        9.1685        9.1685       9.168065       1.39548
  47    0.1255        0.0004        0.0000        9.1661        9.1661       9.165703       1.07079
  46    0.1487        0.0004        0.0000        9.1636        9.1636       9.163149       0.93085
  45    0.1794        0.0004        0.0000        9.1606        9.1606       9.160134       0.82772
  44    0.2165        0.0004        0.0000        9.1575        9.1575       9.157067       0.69763
  43    0.2613        0.0004        0.0000        9.1544        9.1544       9.153928       0.59170
  42    0.3336        0.0004        0.0000        9.1499        9.1499       9.149477       0.51899
  41    0.4307        0.0004        0.0000        9.1448        9.1448       9.144354       0.44543
  40    0.5894        0.0004        0.0000        9.1372        9.1372       9.136789       0.40227
  39     1.339        0.0004        0.0000        9.1090        9.1090       9.108524       0.31821
  38     1.782        0.0004        0.0000        9.0969        9.0969       9.096435       0.23016
  37     2.292        0.0004        0.0000        9.0854        9.0854       9.084937       0.19044
  36     2.964        0.0004        0.0000        9.0724        9.0724       9.071994       0.16247
  35     3.853        0.0004        0.0000        9.0569        9.0569       9.056500       0.14704
  34     5.035        0.0004        0.0000        9.0372        9.0372       9.036754       0.14106
  33     6.613        0.0004        0.0000        9.0108        9.0108       9.010357       0.14112
  32     8.786        0.0004        0.0000        8.9741        8.9741       8.973667       0.14249
  31     11.80        0.0004        0.0000        8.9201        8.9201       8.919682       0.15114
  30     15.07        0.0004        0.0000        8.8609        8.8609       8.860515       0.15276
  29     18.79        0.0004        0.0000        8.7939        8.7940       8.793546       0.15184
  28     23.16        0.0004        0.0000        8.7177        8.7178       8.717362       0.14731
  27     28.12        0.0004        0.0000        8.6354        8.6354       8.635045       0.13993
  26     33.73        0.0004        0.0000        8.5513        8.5513       8.550914       0.12649
  25     40.54        0.0004        0.0001        8.4601        8.4601       8.459757       0.11309
  24     48.69        0.0004        0.0001        8.3619        8.3619       8.361575       0.10160
  23     57.69        0.0004        0.0001        8.2622        8.2623       8.261945       0.09339
  22     68.43        0.0003        0.0001        8.1483        8.1484       8.148057       0.08953
  21     81.20        0.0003        0.0001        8.0151        8.0152       8.014864       0.08801
  20     96.49        0.0003        0.0001        7.8598        7.8600       7.859657       0.08566
  19     114.6        0.0003        0.0001        7.6727        7.6728       7.672516       0.08738
  18     136.5        0.0003        0.0002        7.4665        7.4667       7.466430       0.07925
  17     162.9        0.0002        0.0002        7.2227        7.2229       7.222636       0.07793
  16     196.4        0.0002        0.0002        6.8565        6.8567       6.856541       0.09215
  15     218.7        0.0002        0.0002        6.5254        6.5256       6.525447       0.12570
  14     243.0        0.0002        0.0002        6.0799        6.0802       6.080018       0.15449
  13     269.0        0.0001        0.0002        5.5195        5.5197       5.519605       0.18180
  12     297.5        0.0001        0.0002        4.8679        4.8682       4.868039       0.19325
  11     328.5        0.0001        0.0002        4.2284        4.2286       4.228510       0.17389
  10     361.9        0.0001        0.0002        3.6380        3.6382       3.638144       0.14937
   9     398.1        0.0001        0.0002        3.1132        3.1134       3.113362       0.12226
   8     437.6        0.0001        0.0002        2.6375        2.6377       2.637622       0.10172
   7     480.5        0.0000        0.0002        2.2036        2.2037       2.203694       0.08522
   6     533.0        0.0000        0.0002        1.7454        1.7456       1.745566       0.07370
   5     589.8        0.0000        0.0001        1.3070        1.3071       1.307097       0.06508
   4     651.6        0.0000        0.0001        0.8675        0.8676       0.867632       0.06010
   3     718.7        0.0000        0.0001        0.4996        0.4997       0.499651       0.04624
   2     792.3        0.0000        0.0000        0.2175        0.2175       0.217545       0.03235
   1     891.5        0.0000        0.0000        0.0345        0.0345       0.034524       0.01557
   0    1013.0        0.0000        0.0000        0.0008        0.0008       0.000805       0.00234



 Wavenumbers:  4000. -  4650. cm-1, ATM      1
 LEVEL PRESSURE   UPWARD FLUX   DIFDOWN FLUX  DIRDOWN FLUX  DOWNWARD FLUX   NET FLUX    HEATING RATE
          mb          W/m2          W/m2          W/m2        W/m2          W/m2       degree/day
  51    .06700        1.0673        0.0000       10.7795       10.7795       9.712288       0.00000
  50    .07753        1.0673        0.0000       10.7795       10.7795       9.712287       0.00080
  49    .09103        1.0673        0.0000       10.7795       10.7795       9.712285       0.00078
  48    0.1069        1.0673        0.0000       10.7795       10.7795       9.712284       0.00076
  47    0.1255        1.0673        0.0000       10.7795       10.7795       9.712282       0.00074
  46    0.1487        1.0673        0.0000       10.7795       10.7795       9.712280       0.00075
  45    0.1794        1.0673        0.0000       10.7795       10.7795       9.712278       0.00078
  44    0.2165        1.0673        0.0000       10.7795       10.7795       9.712274       0.00076
  43    0.2613        1.0673        0.0000       10.7795       10.7795       9.712270       0.00074
  42    0.3336        1.0673        0.0000       10.7795       10.7795       9.712264       0.00077
  41    0.4307        1.0673        0.0000       10.7795       10.7795       9.712255       0.00077
  40    0.5894        1.0673        0.0000       10.7795       10.7795       9.712240       0.00079
  39     1.339        1.0672        0.0000       10.7794       10.7794       9.712151       0.00100
  38     1.782        1.0672        0.0000       10.7793       10.7793       9.712081       0.00132
  37     2.292        1.0672        0.0000       10.7792       10.7792       9.711988       0.00155
  36     2.964        1.0672        0.0000       10.7791       10.7791       9.711848       0.00175
  35     3.853        1.0672        0.0000       10.7789       10.7789       9.711641       0.00197
  34     5.035        1.0672        0.0000       10.7786       10.7786       9.711335       0.00218
  33     6.613        1.0672        0.0000       10.7781       10.7781       9.710886       0.00240
  32     8.786        1.0672        0.0000       10.7774       10.7774       9.710222       0.00258
  31     11.80        1.0672        0.0000       10.7764       10.7764       9.709180       0.00292
  30     15.07        1.0672        0.0001       10.7751       10.7752       9.707958       0.00315
  29     18.79        1.0672        0.0001       10.7736       10.7737       9.706481       0.00335
  28     23.16        1.0672        0.0001       10.7717       10.7718       9.704648       0.00354
  27     28.12        1.0672        0.0001       10.7695       10.7696       9.702431       0.00377
  26     33.73        1.0671        0.0001       10.7667       10.7668       9.699699       0.00411
  25     40.54        1.0671        0.0002       10.7630       10.7631       9.695997       0.00459
  24     48.69        1.0671        0.0002       10.7580       10.7582       9.691069       0.00510
  23     57.69        1.0671        0.0002       10.7521       10.7523       9.685235       0.00547
  22     68.43        1.0671        0.0003       10.7447       10.7450       9.677933       0.00574
  21     81.20        1.0670        0.0003       10.7357       10.7360       9.668957       0.00593
  20     96.49        1.0670        0.0004       10.7247       10.7251       9.658056       0.00602
  19     114.6        1.0670        0.0004       10.7108       10.7112       9.644232       0.00645
  18     136.5        1.0670        0.0005       10.6941       10.6946       9.627611       0.00639
  17     162.9        1.0670        0.0006       10.6735       10.6742       9.607183       0.00653
  16     196.4        1.0670        0.0007       10.6451       10.6458       9.578812       0.00714
  15     218.7        1.0671        0.0008       10.6228       10.6236       9.556508       0.00847
  14     243.0        1.0672        0.0009       10.5925       10.5934       9.526165       0.01052
  13     269.0        1.0675        0.0010       10.5508       10.5518       9.484299       0.01358
  12     297.5        1.0679        0.0011       10.4938       10.4948       9.426954       0.01701
  11     328.5        1.0685        0.0012       10.4193       10.4205       9.352040       0.02037
  10     361.9        1.0693        0.0013       10.3224       10.3237       9.254435       0.02469
   9     398.1        1.0702        0.0014       10.1993       10.2007       9.130501       0.02887
   8     437.6        1.0715        0.0015       10.0495       10.0510       8.979555       0.03227
   7     480.5        1.0731        0.0017        9.8815        9.8832       8.810086       0.03328
   6     533.0        1.0755        0.0018        9.6718        9.6736       8.598126       0.03410
   5     589.8        1.0789        0.0020        9.4257        9.4276       8.348718       0.03702
   4     651.6        1.0844        0.0021        9.0870        9.0891       8.004718       0.04704
   3     718.7        1.0933        0.0022        8.6412        8.6434       7.550101       0.05713
   2     792.3        1.1086        0.0023        8.1045        8.1068       6.998197       0.06330
   1     891.5        1.1454        0.0024        7.3922        7.3946       6.249133       0.06374
   0    1013.0        1.2372        0.0024        6.5822        6.5847       5.347506       0.06260



 Wavenumbers:  4650. -  5150. cm-1, ATM      1
 LEVEL PRESSURE   UPWARD FLUX   DIFDOWN FLUX  DIRDOWN FLUX  DOWNWARD FLUX   NET FLUX    HEATING RATE
          mb          W/m2          W/m2          W/m2        W/m2          W/m2       degree/day
  51    .06700        0.2812        0.0000       10.2033       10.2033       9.922162       0.00000
  50    .07753        0.2812        0.0000       10.2031       10.2031       9.921926       0.18910
  49    .09103        0.2812        0.0000       10.2028       10.2028       9.921631       0.18437
  48    0.1069        0.2812        0.0000       10.2025       10.2025       9.921294       0.17940
  47    0.1255        0.2812        0.0000       10.2021       10.2021       9.920910       0.17434
  46    0.1487        0.2812        0.0000       10.2016       10.2016       9.920429       0.17544
  45    0.1794        0.2812        0.0000       10.2010       10.2010       9.919778       0.17859
  44    0.2165        0.2812        0.0000       10.2002       10.2002       9.919018       0.17286
  43    0.2613        0.2812        0.0000       10.1993       10.1993       9.918132       0.16698
  42    0.3336        0.2812        0.0000       10.1979       10.1979       9.916699       0.16710
  41    0.4307        0.2812        0.0000       10.1960       10.1960       9.914858       0.16010
  40    0.5894        0.2812        0.0000       10.1932       10.1932       9.911982       0.15291
  39     1.339        0.2812        0.0000       10.1816       10.1816       9.900384       0.13057
  38     1.782        0.2812        0.0000       10.1760       10.1760       9.894853       0.10532
  37     2.292        0.2812        0.0000       10.1706       10.1706       9.889393       0.09042
  36     2.964        0.2812        0.0000       10.1646       10.1646       9.883467       0.07439
  35     3.853        0.2812        0.0000       10.1584       10.1584       9.877250       0.05901
  34     5.035        0.2812        0.0000       10.1520       10.1521       9.870911       0.04528
  33     6.613        0.2811        0.0000       10.1456       10.1456       9.864451       0.03453
  32     8.786        0.2811        0.0000       10.1385       10.1386       9.857439       0.02723
  31     11.80        0.2811        0.0001       10.1295       10.1295       9.848398       0.02531
  30     15.07        0.2811        0.0001       10.1195       10.1196       9.838520       0.02550
  29     18.79        0.2811        0.0001       10.1075       10.1076       9.826515       0.02722
  28     23.16        0.2811        0.0001       10.0922       10.0923       9.811216       0.02958
  27     28.12        0.2810        0.0002       10.0730       10.0732       9.792132       0.03244
  26     33.73        0.2810        0.0002       10.0499       10.0501       9.769052       0.03470
  25     40.54        0.2810        0.0002       10.0199       10.0202       9.739172       0.03707
  24     48.69        0.2810        0.0003        9.9817        9.9820       9.701036       0.03946
  23     57.69        0.2809        0.0003        9.9382        9.9385       9.657549       0.04076
  22     68.43        0.2809        0.0004        9.8854        9.8858       9.604895       0.04139
  21     81.20        0.2808        0.0004        9.8230        9.8235       9.542623       0.04115
  20     96.49        0.2808        0.0005        9.7513        9.7518       9.470985       0.03954
  19     114.6        0.2807        0.0006        9.6713        9.6719       9.391157       0.03727
  18     136.5        0.2807        0.0007        9.5849        9.5857       9.304990       0.03313
  17     162.9        0.2806        0.0008        9.4930        9.4939       9.213242       0.02933
  16     196.4        0.2806        0.0010        9.3868        9.3878       9.107272       0.02667
  15     218.7        0.2806        0.0011        9.3208        9.3219       9.041372       0.02502
  14     243.0        0.2806        0.0012        9.2482        9.2494       8.968832       0.02516
  13     269.0        0.2806        0.0014        9.1639        9.1652       8.884641       0.02731
  12     297.5        0.2807        0.0015        9.0627        9.0642       8.783494       0.03000
  11     328.5        0.2809        0.0016        8.9435        8.9451       8.664234       0.03243
  10     361.9        0.2812        0.0018        8.8025        8.8043       8.523151       0.03570
   9     398.1        0.2815        0.0019        8.6358        8.6377       8.356150       0.03891
   8     437.6        0.2821        0.0020        8.4380        8.4400       8.157983       0.04237
   7     480.5        0.2828        0.0022        8.2077        8.2099       7.927134       0.04534
   6     533.0        0.2840        0.0023        7.9049        7.9073       7.623324       0.04887
   5     589.8        0.2857        0.0025        7.5587        7.5612       7.275554       0.05162
   4     651.6        0.2883        0.0026        7.1595        7.1621       6.873775       0.05494
   3     718.7        0.2923        0.0027        6.7266        6.7293       6.437000       0.05489
   2     792.3        0.2987        0.0028        6.2613        6.2641       5.965323       0.05410
   1     891.5        0.3122        0.0029        5.6574        5.6603       5.348050       0.05253
   0    1013.0        0.3402        0.0029        5.0000        5.0029       4.662775       0.04758



 Wavenumbers:  5150. -  6150. cm-1, ATM      1
 LEVEL PRESSURE   UPWARD FLUX   DIFDOWN FLUX  DIRDOWN FLUX  DOWNWARD FLUX   NET FLUX    HEATING RATE
          mb          W/m2          W/m2          W/m2        W/m2          W/m2       degree/day
  51    .06700        2.4144        0.0000       25.5798       25.5798      23.165372       0.00000
  50    .07753        2.4144        0.0000       25.5798       25.5798      23.165315       0.04603
  49    .09103        2.4144        0.0000       25.5797       25.5797      23.165240       0.04674
  48    0.1069        2.4144        0.0000       25.5796       25.5796      23.165151       0.04748
  47    0.1255        2.4144        0.0000       25.5795       25.5795      23.165045       0.04821
  46    0.1487        2.4144        0.0000       25.5793       25.5794      23.164905       0.05079
  45    0.1794        2.4144        0.0000       25.5792       25.5792      23.164708       0.05405
  44    0.2165        2.4144        0.0000       25.5789       25.5789      23.164467       0.05486
  43    0.2613        2.4144        0.0000       25.5786       25.5786      23.164172       0.05569
  42    0.3336        2.4144        0.0000       25.5781       25.5781      23.163667       0.05881
  41    0.4307        2.4144        0.0000       25.5774       25.5774      23.162982       0.05956
  40    0.5894        2.4144        0.0000       25.5763       25.5763      23.161836       0.06096
  39     1.339        2.4144        0.0000       25.5707       25.5708      23.156338       0.06189
  38     1.782        2.4144        0.0000       25.5675       25.5676      23.153157       0.06057
  37     2.292        2.4144        0.0001       25.5639       25.5640      23.149573       0.05935
  36     2.964        2.4144        0.0001       25.5594       25.5594      23.145046       0.05683
  35     3.853        2.4144        0.0001       25.5536       25.5537      23.139333       0.05422
  34     5.035        2.4143        0.0001       25.5463       25.5464      23.132041       0.05209
  33     6.613        2.4143        0.0002       25.5368       25.5370      23.122688       0.05000
  32     8.786        2.4143        0.0002       25.5248       25.5250      23.110747       0.04637
  31     11.80        2.4142        0.0003       25.5088       25.5091      23.094872       0.04444
  30     15.07        2.4142        0.0004       25.4931       25.4935      23.079342       0.04010
  29     18.79        2.4141        0.0005       25.4771       25.4776      23.063492       0.03594
  28     23.16        2.4140        0.0006       25.4602       25.4608      23.046825       0.03223
  27     28.12        2.4139        0.0007       25.4430       25.4437      23.029764       0.02900
  26     33.73        2.4138        0.0009       25.4258       25.4267      23.012885       0.02538
  25     40.54        2.4137        0.0011       25.4077       25.4087      22.994997       0.02219
  24     48.69        2.4136        0.0013       25.3887       25.3900      22.976376       0.01927
  23     57.69        2.4135        0.0015       25.3703       25.3718      22.958327       0.01692
  22     68.43        2.4134        0.0018       25.3507       25.3525      22.939166       0.01506
  21     81.20        2.4132        0.0021       25.3295       25.3316      22.918407       0.01372
  20     96.49        2.4130        0.0025       25.3058       25.3083      22.895298       0.01275
  19     114.6        2.4128        0.0030       25.2786       25.2816      22.868860       0.01234
  18     136.5        2.4125        0.0036       25.2468       25.2503      22.837797       0.01194
  17     162.9        2.4122        0.0042       25.1986       25.2029      22.790628       0.01508
  16     196.4        2.4119        0.0051       25.0904       25.0955      22.683645       0.02693
  15     218.7        2.4117        0.0056       24.9062       24.9118      22.500123       0.06968
  14     243.0        2.4115        0.0061       24.5062       24.5123      22.100861       0.13848
  13     269.0        2.4113        0.0067       23.8540       23.8606      21.449310       0.21136
  12     297.5        2.4113        0.0071       23.0742       23.0813      20.670044       0.23112
  11     328.5        2.4113        0.0076       22.2426       22.2502      19.838949       0.22597
  10     361.9        2.4114        0.0081       21.2937       21.3017      18.890305       0.24002
   9     398.1        2.4118        0.0085       20.2674       20.2759      17.864174       0.23907
   8     437.6        2.4123        0.0089       19.1912       19.2001      16.787718       0.23015
   7     480.5        2.4132        0.0093       18.1243       18.1336      15.720385       0.20962
   6     533.0        2.4148        0.0097       16.9806       16.9902      14.575403       0.18419
   5     589.8        2.4176        0.0101       15.9550       15.9651      13.547526       0.15257
   4     651.6        2.4226        0.0106       15.0360       15.0466      12.623976       0.12630
   3     718.7        2.4314        0.0111       14.2694       14.2806      11.849140       0.09738
   2     792.3        2.4476        0.0117       13.5174       13.5291      11.081508       0.08804
   1     891.5        2.4874        0.0123       12.4834       12.4956      10.008212       0.09133
   0    1013.0        2.5928        0.0129       11.4778       11.4908       8.897923       0.07709



 Wavenumbers:  6150. -  7700. cm-1, ATM      1
 LEVEL PRESSURE   UPWARD FLUX   DIFDOWN FLUX  DIRDOWN FLUX  DOWNWARD FLUX   NET FLUX    HEATING RATE
          mb          W/m2          W/m2          W/m2        W/m2          W/m2       degree/day
  51    .06700        3.6104        0.0000       47.3109       47.3109      43.700467       0.00000
  50    .07753        3.6104        0.0000       47.3108       47.3108      43.700391       0.06052
  49    .09103        3.6104        0.0000       47.3107       47.3107      43.700294       0.06107
  48    0.1069        3.6104        0.0000       47.3106       47.3106      43.700178       0.06165
  47    0.1255        3.6104        0.0000       47.3104       47.3104      43.700041       0.06222
  46    0.1487        3.6104        0.0000       47.3102       47.3102      43.699862       0.06516
  45    0.1794        3.6104        0.0000       47.3100       47.3100      43.699611       0.06900
  44    0.2165        3.6104        0.0000       47.3097       47.3097      43.699304       0.06970
  43    0.2613        3.6104        0.0000       47.3093       47.3093      43.698931       0.07043
  42    0.3336        3.6104        0.0000       47.3086       47.3087      43.698295       0.07409
  41    0.4307        3.6104        0.0000       47.3078       47.3078      43.697434       0.07487
  40    0.5894        3.6103        0.0001       47.3063       47.3063      43.695996       0.07648
  39     1.339        3.6103        0.0001       47.2992       47.2994      43.689085       0.07780
  38     1.782        3.6102        0.0002       47.2951       47.2953      43.685065       0.07654
  37     2.292        3.6102        0.0002       47.2904       47.2907      43.680509       0.07545
  36     2.964        3.6101        0.0003       47.2845       47.2848      43.674705       0.07286
  35     3.853        3.6100        0.0004       47.2769       47.2773      43.667301       0.07026
  34     5.035        3.6099        0.0006       47.2671       47.2676      43.657746       0.06826
  33     6.613        3.6097        0.0007       47.2543       47.2551      43.645326       0.06640
  32     8.786        3.6095        0.0010       47.2378       47.2387      43.629180       0.06270
  31     11.80        3.6092        0.0013       47.2152       47.2165      43.607226       0.06147
  30     15.07        3.6089        0.0017       47.1923       47.1940      43.585050       0.05725
  29     18.79        3.6085        0.0021       47.1681       47.1702      43.561656       0.05304
  28     23.16        3.6081        0.0025       47.1418       47.1443      43.536200       0.04922
  27     28.12        3.6076        0.0031       47.1136       47.1167      43.509058       0.04614
  26     33.73        3.6071        0.0037       47.0846       47.0883      43.481235       0.04183
  25     40.54        3.6064        0.0044       47.0527       47.0571      43.450705       0.03788
  24     48.69        3.6056        0.0053       47.0179       47.0232      43.417582       0.03428
  23     57.69        3.6047        0.0063       46.9829       46.9892      43.384485       0.03102
  22     68.43        3.6037        0.0075       46.9445       46.9520      43.348273       0.02847
  21     81.20        3.6024        0.0089       46.9018       46.9107      43.308219       0.02647
  20     96.49        3.6009        0.0105       46.8533       46.8639      43.262927       0.02500
  19     114.6        3.5992        0.0125       46.7975       46.8100      43.210826       0.02433
  18     136.5        3.5971        0.0149       46.7321       46.7470      43.149896       0.02343
  17     162.9        3.5946        0.0176       46.6381       46.6558      43.061197       0.02835
  16     196.4        3.5913        0.0212       46.4491       46.4703      42.879004       0.04586
  15     218.7        3.5893        0.0235       46.1856       46.2091      42.619859       0.09839
  14     243.0        3.5871        0.0258       45.6556       45.6814      42.094344       0.18227
  13     269.0        3.5848        0.0281       44.6859       44.7139      41.129118       0.31311
  12     297.5        3.5826        0.0302       43.3174       43.3476      39.764921       0.40461
  11     328.5        3.5805        0.0323       41.8744       41.9067      38.326208       0.39118
  10     361.9        3.5786        0.0344       40.2977       40.3321      36.753512       0.39791
   9     398.1        3.5770        0.0363       38.4957       38.5320      34.955057       0.41900
   8     437.6        3.5759        0.0380       36.5025       36.5405      32.964591       0.42557
   7     480.5        3.5756        0.0395       34.4419       34.4814      30.905787       0.40434
   6     533.0        3.5769        0.0410       32.0594       32.1004      28.523526       0.38323
   5     589.8        3.5812        0.0423       29.6622       29.7045      26.123291       0.35627
   4     651.6        3.5919        0.0431       27.1560       27.1991      23.607164       0.34409
   3     718.7        3.6136        0.0437       24.7250       24.7686      21.155040       0.30816
   2     792.3        3.6560        0.0439       22.3743       22.4182      18.762250       0.27443
   1     891.5        3.7666        0.0441       19.6842       19.7282      15.961598       0.23832
   0    1013.0        4.0620        0.0443       17.1678       17.2121      13.150071       0.19522



 Wavenumbers:  7700. -  8050. cm-1, ATM      1
 LEVEL PRESSURE   UPWARD FLUX   DIFDOWN FLUX  DIRDOWN FLUX  DOWNWARD FLUX   NET FLUX    HEATING RATE
          mb          W/m2          W/m2          W/m2        W/m2          W/m2       degree/day
  51    .06700        5.4497        0.0000       11.1810       11.1810       5.731296       0.00000
  50    .07753        5.4497        0.0000       11.1809       11.1809       5.731275       0.01703
  49    .09103        5.4497        0.0000       11.1809       11.1809       5.731248       0.01669
  48    0.1069        5.4497        0.0000       11.1809       11.1809       5.731217       0.01634
  47    0.1255        5.4497        0.0000       11.1809       11.1809       5.731182       0.01599
  46    0.1487        5.4497        0.0000       11.1808       11.1808       5.731138       0.01622
  45    0.1794        5.4497        0.0000       11.1808       11.1808       5.731077       0.01669
  44    0.2165        5.4497        0.0000       11.1807       11.1807       5.731005       0.01638
  43    0.2613        5.4497        0.0000       11.1806       11.1806       5.730920       0.01607
  42    0.3336        5.4497        0.0000       11.1805       11.1805       5.730778       0.01644
  41    0.4307        5.4498        0.0000       11.1803       11.1804       5.730591       0.01626
  40    0.5894        5.4498        0.0000       11.1801       11.1801       5.730286       0.01624
  39     1.339        5.4500        0.0001       11.1788       11.1789       5.728841       0.01627
  38     1.782        5.4502        0.0001       11.1781       11.1782       5.727992       0.01616
  37     2.292        5.4503        0.0001       11.1772       11.1773       5.727009       0.01627
  36     2.964        5.4505        0.0002       11.1761       11.1762       5.725719       0.01620
  35     3.853        5.4508        0.0002       11.1746       11.1748       5.724015       0.01617
  34     5.035        5.4511        0.0003       11.1726       11.1729       5.721751       0.01617
  33     6.613        5.4516        0.0004       11.1700       11.1703       5.718728       0.01616
  32     8.786        5.4522        0.0005       11.1664       11.1669       5.714656       0.01582
  31     11.80        5.4531        0.0006       11.1613       11.1619       5.708834       0.01630
  30     15.07        5.4541        0.0008       11.1558       11.1567       5.702589       0.01612
  29     18.79        5.4552        0.0010       11.1497       11.1507       5.695543       0.01598
  28     23.16        5.4564        0.0012       11.1425       11.1438       5.687324       0.01589
  27     28.12        5.4579        0.0015       11.1343       11.1358       5.677942       0.01595
  26     33.73        5.4595        0.0018       11.1252       11.1270       5.667465       0.01575
  25     40.54        5.4615        0.0022       11.1142       11.1164       5.654838       0.01566
  24     48.69        5.4640        0.0026       11.1010       11.1036       5.639664       0.01570
  23     57.69        5.4666        0.0031       11.0866       11.0897       5.623058       0.01557
  22     68.43        5.4698        0.0037       11.0695       11.0732       5.603365       0.01548
  21     81.20        5.4737        0.0043       11.0494       11.0537       5.580027       0.01542
  20     96.49        5.4783        0.0052       11.0255       11.0307       5.552390       0.01525
  19     114.6        5.4839        0.0061       10.9976       11.0037       5.519815       0.01521
  18     136.5        5.4905        0.0073       10.9648       10.9720       5.481536       0.01472
  17     162.9        5.4985        0.0086       10.9263       10.9349       5.436395       0.01443
  16     196.4        5.5091        0.0104       10.8773       10.8876       5.378532       0.01456
  15     218.7        5.5162        0.0115       10.8455       10.8570       5.340885       0.01429
  14     243.0        5.5240        0.0128       10.8114       10.8242       5.300202       0.01411
  13     269.0        5.5326        0.0141       10.7748       10.7889       5.256287       0.01425
  12     297.5        5.5421        0.0156       10.7354       10.7510       5.208856       0.01407
  11     328.5        5.5527        0.0171       10.6932       10.7103       5.157568       0.01395
  10     361.9        5.5646        0.0188       10.6479       10.6667       5.102119       0.01403
   9     398.1        5.5778        0.0206       10.5991       10.6197       5.041892       0.01403
   8     437.6        5.5927        0.0226       10.5464       10.5690       4.976249       0.01403
   7     480.5        5.6096        0.0247       10.4893       10.5140       4.904423       0.01411
   6     533.0        5.6318        0.0272       10.4177       10.4449       4.813090       0.01469
   5     589.8        5.6581        0.0300       10.3374       10.3674       4.709383       0.01539
   4     651.6        5.6903        0.0329       10.2447       10.2776       4.587300       0.01670
   3     718.7        5.7308        0.0360       10.1352       10.1713       4.440423       0.01846
   2     792.3        5.7838        0.0393       10.0022       10.0415       4.257693       0.02096
   1     891.5        5.8765        0.0436        9.7912        9.8347       3.958229       0.02548
   0    1013.0        6.0306        0.0484        9.4886        9.5370       3.506408       0.03137



 Wavenumbers:  8050. - 12850. cm-1, ATM      1
 LEVEL PRESSURE   UPWARD FLUX   DIFDOWN FLUX  DIRDOWN FLUX  DOWNWARD FLUX   NET FLUX    HEATING RATE
          mb          W/m2          W/m2          W/m2        W/m2          W/m2       degree/day
  51    .06700       87.2897        0.0000      156.5418      156.5418      69.252044       0.00000
  50    .07753       87.2897        0.0000      156.5417      156.5417      69.252044      -0.00000
  49    .09103       87.2897        0.0001      156.5417      156.5417      69.252044       0.00000
  48    0.1069       87.2897        0.0001      156.5416      156.5417      69.252044       0.00000
  47    0.1255       87.2896        0.0002      156.5415      156.5417      69.252044      -0.00000
  46    0.1487       87.2896        0.0002      156.5414      156.5417      69.252044       0.00000
  45    0.1794       87.2896        0.0003      156.5413      156.5416      69.252044      -0.00000
  44    0.2165       87.2895        0.0004      156.5412      156.5416      69.252044      -0.00000
  43    0.2613       87.2895        0.0005      156.5410      156.5415      69.252044       0.00000
  42    0.3336       87.2894        0.0007      156.5407      156.5414      69.252044       0.00000
  41    0.4307       87.2893        0.0010      156.5403      156.5413      69.252044      -0.00000
  40    0.5894       87.2891        0.0015      156.5397      156.5411      69.252044       0.00000
  39     1.339       87.2882        0.0035      156.5367      156.5403      69.252044       0.00000
  38     1.782       87.2877        0.0048      156.5350      156.5398      69.252044      -0.00000
  37     2.292       87.2871        0.0062      156.5330      156.5392      69.252044       0.00000
  36     2.964       87.2864        0.0081      156.5303      156.5384      69.252044       0.00000
  35     3.853       87.2853        0.0105      156.5268      156.5374      69.252044       0.00000
  34     5.035       87.2840        0.0138      156.5222      156.5360      69.252044      -0.00000
  33     6.613       87.2821        0.0182      156.5160      156.5342      69.252044       0.00000
  32     8.786       87.2797        0.0241      156.5076      156.5317      69.252044      -0.00000
  31     11.80       87.2762        0.0325      156.4957      156.5282      69.252044      -0.00000
  30     15.07       87.2724        0.0416      156.4828      156.5244      69.252044       0.00000
  29     18.79       87.2681        0.0519      156.4682      156.5201      69.252044      -0.00000
  28     23.16       87.2631        0.0639      156.4512      156.5151      69.252044       0.00000
  27     28.12       87.2574        0.0777      156.4317      156.5094      69.252044      -0.00000
  26     33.73       87.2509        0.0931      156.4099      156.5030      69.252044       0.00000
  25     40.54       87.2432        0.1118      156.3834      156.4952      69.252044       0.00000
  24     48.69       87.2338        0.1343      156.3515      156.4858      69.252044      -0.00000
  23     57.69       87.2235        0.1591      156.3164      156.4755      69.252044      -0.00000
  22     68.43       87.2111        0.1886      156.2746      156.4632      69.252044       0.00000
  21     81.20       87.1964        0.2239      156.2246      156.4485      69.252044       0.00000
  20     96.49       87.1789        0.2660      156.1649      156.4309      69.252044      -0.00000
  19     114.6       87.1582        0.3161      156.0852      156.4013      69.243018       0.00421
  18     136.5       87.1337        0.3755      155.9900      156.3655      69.231843       0.00430
  17     162.9       87.1044        0.4465      155.8712      156.3178      69.213339       0.00591
  16     196.4       87.0665        0.5388      155.6939      156.2327      69.166167       0.01187
  15     218.7       87.0417        0.5994      155.5215      156.1209      69.079178       0.03303
  14     243.0       87.0153        0.6653      155.2298      155.8951      68.879853       0.06913
  13     269.0       86.9877        0.7364      154.7543      155.4908      68.503029       0.12224
  12     297.5       86.9602        0.8129      154.0806      154.8935      67.933293       0.16898
  11     328.5       86.9334        0.8952      153.2769      154.1722      67.238761       0.18884
  10     361.9       86.9088        0.9834      152.2870      153.2703      66.361519       0.22195
   9     398.1       86.8889        1.0773      151.0282      152.1055      65.216588       0.26674
   8     437.6       86.8779        1.1768      149.4295      150.6062      63.728291       0.31821
   7     480.5       86.8811        1.2815      147.4754      148.7569      61.875838       0.36381
   6     533.0       86.9129        1.4076      144.7430      146.1506      59.237648       0.42440
   5     589.8       86.9987        1.5389      141.3569      142.8958      55.897110       0.49585
   4     651.6       87.1981        1.6725      137.0173      138.6898      51.491735       0.60245
   3     718.7       87.5887        1.8071      131.8608      133.6679      46.079104       0.68022
   2     792.3       88.3428        1.9380      125.7119      127.6499      39.307058       0.77668
   1     891.5       90.2594        2.0935      117.0074      119.1009      28.841507       0.89057
   0    1013.0       94.9805        2.2588      107.3376      109.5965      14.615979       0.98775



 Wavenumbers: 12850. - 16000. cm-1, ATM      1
 LEVEL PRESSURE   UPWARD FLUX   DIFDOWN FLUX  DIRDOWN FLUX  DOWNWARD FLUX   NET FLUX    HEATING RATE
          mb          W/m2          W/m2          W/m2        W/m2          W/m2       degree/day
  51    .06700       77.5543        0.0000       98.0872       98.0872      20.532944       0.00000
  50    .07753       77.5543        0.0001       98.0864       98.0864      20.532153       0.63373
  49    .09103       77.5543        0.0002       98.0853       98.0854      20.531160       0.62055
  48    0.1069       77.5543        0.0003       98.0841       98.0843      20.530020       0.60710
  47    0.1255       77.5543        0.0004       98.0826       98.0830      20.528710       0.59393
  46    0.1487       77.5543        0.0005       98.0809       98.0814      20.527057       0.60252
  45    0.1794       77.5544        0.0007       98.0784       98.0792      20.524809       0.61712
  44    0.2165       77.5544        0.0010       98.0756       98.0766      20.522165       0.60133
  43    0.2613       77.5545        0.0012       98.0723       98.0736      20.519058       0.58574
  42    0.3336       77.5547        0.0017       98.0670       98.0687      20.513989       0.59103
  41    0.4307       77.5551        0.0023       98.0602       98.0625      20.507437       0.56965
  40    0.5894       77.5558        0.0033       98.0496       98.0529      20.497122       0.54853
  39     1.339       77.5619        0.0081       98.0043       98.0124      20.450536       0.52448
  38     1.782       77.5675        0.0109       97.9793       97.9902      20.422667       0.53058
  37     2.292       77.5759        0.0141       97.9498       97.9639      20.388025       0.57376
  36     2.964       77.5897        0.0183       97.9088       97.9272      20.337433       0.63508
  35     3.853       77.6121        0.0239       97.8503       97.8743      20.262170       0.71425
  34     5.035       77.6458        0.0314       97.7680       97.7994      20.153524       0.77612
  33     6.613       77.6929        0.0413       97.6562       97.6975      20.004551       0.79641
  32     8.786       77.7543        0.0547       97.5107       97.5653      19.811085       0.75135
  31     11.80       77.8341        0.0738       97.3179       97.3916      19.557572       0.70976
  30     15.07       77.9105        0.0943       97.1283       97.2226      19.312080       0.63381
  29     18.79       77.9886        0.1174       96.9300       97.0474      19.058837       0.57418
  28     23.16       78.0702        0.1444       96.7166       96.8609      18.790771       0.51835
  27     28.12       78.1523        0.1752       96.4935       96.6687      18.516401       0.46641
  26     33.73       78.2282        0.2097       96.2731       96.4828      18.254599       0.39363
  25     40.54       78.3014        0.2514       96.0408       96.2922      17.990784       0.32729
  24     48.69       78.3716        0.3017       95.7946       96.0962      17.724620       0.27544
  23     57.69       78.4313        0.3569       95.5573       95.9142      17.482882       0.22659
  22     68.43       78.4834        0.4227       95.3106       95.7333      17.249905       0.18315
  21     81.20       78.5196        0.5012       95.0643       95.5655      17.045982       0.13475
  20     96.49       78.5386        0.5949       94.8153       95.4101      16.871488       0.09631
  19     114.6       78.5650        0.7074       94.5410       95.2484      16.683404       0.08782
  18     136.5       78.5847        0.8407       94.2319       95.0727      16.487982       0.07514
  17     162.9       78.5976        0.9995       93.8752       94.8747      16.277109       0.06740
  16     196.4       78.5919        1.2055       93.4342       94.6396      16.047751       0.05773
  15     218.7       78.5800        1.3407       93.1503       94.4910      15.910933       0.05194
  14     243.0       78.5637        1.4877       92.8417       94.3294      15.765723       0.05036
  13     269.0       78.5428        1.6471       92.5061       94.1532      15.610411       0.05038
  12     297.5       78.5179        1.8193       92.1391       93.9584      15.440533       0.05038
  11     328.5       78.4910        2.0054       91.7366       93.7420      15.250984       0.05154
  10     361.9       78.4631        2.2059       91.2950       93.5008      15.037785       0.05394
   9     398.1       78.4356        2.4216       90.8083       93.2298      14.794284       0.05673
   8     437.6       78.4116        2.6532       90.2663       92.9195      14.507839       0.06124
   7     480.5       78.3943        2.9013       89.6605       92.5618      14.167510       0.06684
   6     533.0       78.3895        3.2064       88.8705       92.0770      13.687502       0.07722
   5     589.8       78.4154        3.5341       87.9455       91.4796      13.064153       0.09253
   4     651.6       78.4959        3.8825       86.8372       90.7198      12.223899       0.11491
   3     718.7       78.6629        4.2500       85.5101       89.7601      11.097163       0.14160
   2     792.3       78.9873        4.6324       83.9005       88.5329       9.545577       0.17795
   1     891.5       79.7827        5.1255       81.4239       86.5494       6.766721       0.23647
   0    1013.0       81.4482        5.6855       78.2084       83.8939       2.445710       0.30003



 Wavenumbers: 16000. - 22650. cm-1, ATM      1
 LEVEL PRESSURE   UPWARD FLUX   DIFDOWN FLUX  DIRDOWN FLUX  DOWNWARD FLUX   NET FLUX    HEATING RATE
          mb          W/m2          W/m2          W/m2        W/m2          W/m2       degree/day
  51    .06700      139.8698        0.0000      156.3892      156.3892      16.519444       0.00000
  50    .07753      139.8698        0.0004      156.3887      156.3891      16.519298       0.11752
  49    .09103      139.8698        0.0009      156.3879      156.3888      16.519084       0.13330
  48    0.1069      139.8697        0.0015      156.3871      156.3885      16.518799       0.15200
  47    0.1255      139.8698        0.0021      156.3861      156.3882      16.518417       0.17326
  46    0.1487      139.8698        0.0029      156.3847      156.3877      16.517853       0.20531
  45    0.1794      139.8699        0.0041      156.3828      156.3869      16.516973       0.24174
  44    0.2165      139.8701        0.0054      156.3805      156.3859      16.515779       0.27169
  43    0.2613      139.8705        0.0070      156.3776      156.3846      16.514158       0.30544
  42    0.3336      139.8712        0.0096      156.3726      156.3823      16.511077       0.35919
  41    0.4307      139.8724        0.0131      156.3657      156.3788      16.506433       0.40377
  40    0.5894      139.8749        0.0188      156.3537      156.3725      16.497577       0.47098
  39     1.339      139.8970        0.0457      156.2834      156.3292      16.432144       0.73666
  38     1.782      139.9175        0.0615      156.2324      156.2939      16.376403       1.06122
  37     2.292      139.9482        0.0798      156.1641      156.2439      16.295718       1.33636
  36     2.964      139.9993        0.1039      156.0605      156.1644      16.165008       1.64081
  35     3.853      140.0820        0.1356      155.9041      156.0396      15.957605       1.96829
  34     5.035      140.2068        0.1776      155.6774      155.8550      15.648180       2.21040
  33     6.613      140.3812        0.2338      155.3656      155.5994      15.218179       2.29879
  32     8.786      140.6083        0.3094      154.9577      155.2670      14.658667       2.17294
  31     11.80      140.9039        0.4173      154.4153      154.8326      13.928675       2.04375
  30     15.07      141.1869        0.5330      153.8804      154.4134      13.226476       1.81294
  29     18.79      141.4758        0.6635      153.3191      153.9826      12.506819       1.63169
  28     23.16      141.7776        0.8158      152.7126      153.5283      11.750678       1.46213
  27     28.12      142.0812        0.9896      152.0755      153.0651      10.983862       1.30354
  26     33.73      142.3612        1.1839      151.4409      152.6248      10.263625       1.08289
  25     40.54      142.6303        1.4185      150.7637      152.1821       9.551807       0.88309
  24     48.69      142.8877        1.7009      150.0338      151.7348       8.847130       0.72923
  23     57.69      143.1054        2.0109      149.3151      151.3260       8.220632       0.58725
  22     68.43      143.2946        2.3796      148.5476      150.9272       7.632543       0.46232
  21     81.20      143.4241        2.8186      147.7517      150.5702       7.146079       0.32145
  20     96.49      143.4894        3.3411      146.9126      150.2537       6.764344       0.21069
  19     114.6      143.5216        3.9597      145.9763      149.9360       6.414451       0.16338
  18     136.5      143.5287        4.6902      144.9087      149.5990       6.070257       0.13235
  17     162.9      143.5090        5.5560      143.6785      149.2345       5.725479       0.11021
  16     196.4      143.4227        6.6730      142.1650      148.8380       5.415359       0.07806
  15     218.7      143.3437        7.4030      141.2032      148.6062       5.262511       0.05803
  14     243.0      143.2476        8.1931      140.1750      148.3681       5.120405       0.04929
  13     269.0      143.1330        9.0454      139.0789      148.1243       4.991319       0.04187
  12     297.5      142.9990        9.9621      137.9124      147.8745       4.875415       0.03438
  11     328.5      142.8498       10.9474      136.6645      147.6119       4.762037       0.03083
  10     361.9      142.6851       12.0022      135.3340      147.3362       4.651115       0.02806
   9     398.1      142.5045       13.1306      133.9153      147.0459       4.541427       0.02555
   8     437.6      142.3090       14.3346      132.4037      146.7383       4.429316       0.02397
   7     480.5      142.0984       15.6164      130.7959      146.4123       4.313964       0.02265
   6     533.0      141.8400       17.1820      128.8311      146.0131       4.173143       0.02265
   5     589.8      141.5667       18.8549      126.7243      145.5792       4.012449       0.02385
   4     651.6      141.2865       20.6368      124.4604      145.0971       3.810677       0.02759
   3     718.7      141.0070       22.5296      122.0263      144.5559       3.548847       0.03290
   2     792.3      140.7505       24.5307      119.3993      143.9301       3.179617       0.04235
   1     891.5      140.5090       27.1869      115.7990      142.9859       2.476897       0.05980
   0    1013.0      140.3946       30.3074      111.4316      141.7390       1.344378       0.07864



 Wavenumbers: 22650. - 29000. cm-1, ATM      1
 LEVEL PRESSURE   UPWARD FLUX   DIFDOWN FLUX  DIRDOWN FLUX  DOWNWARD FLUX   NET FLUX    HEATING RATE
          mb          W/m2          W/m2          W/m2        W/m2          W/m2       degree/day
  51    .06700       58.6820        0.0000       59.0156       59.0156       0.333646       0.00000
  50    .07753       58.6819        0.0005       59.0151       59.0155       0.333646      -0.00000
  49    .09103       58.6818        0.0010       59.0144       59.0154       0.333646      -0.00000
  48    0.1069       58.6816        0.0017       59.0136       59.0153       0.333646       0.00000
  47    0.1255       58.6815        0.0025       59.0127       59.0151       0.333646       0.00000
  46    0.1487       58.6813        0.0035       59.0115       59.0149       0.333646      -0.00000
  45    0.1794       58.6810        0.0048       59.0099       59.0147       0.333646       0.00000
  44    0.2165       58.6807        0.0063       59.0080       59.0144       0.333646       0.00000
  43    0.2613       58.6804        0.0082       59.0058       59.0140       0.333646       0.00000
  42    0.3336       58.6798        0.0113       59.0022       59.0134       0.333646      -0.00000
  41    0.4307       58.6790        0.0154       58.9973       59.0127       0.333646      -0.00000
  40    0.5894       58.6777        0.0220       58.9894       59.0114       0.333646       0.00000
  39     1.339       58.6717        0.0535       58.9518       59.0053       0.333646       0.00000
  38     1.782       58.6681        0.0720       58.9297       59.0017       0.333646       0.00000
  37     2.292       58.6640        0.0934       58.9042       58.9976       0.333646       0.00000
  36     2.964       58.6586        0.1216       58.8706       58.9922       0.333646       0.00000
  35     3.853       58.6514        0.1587       58.8264       58.9851       0.333646      -0.00000
  34     5.035       58.6419        0.2080       58.7676       58.9756       0.333646       0.00000
  33     6.613       58.6293        0.2738       58.6891       58.9629       0.333646      -0.00000
  32     8.786       58.6122        0.3624       58.5834       58.9458       0.333646       0.00000
  31     11.80       58.5878        0.4890       58.4324       58.9215       0.333646       0.00000
  30     15.07       58.5617        0.6247       58.2706       58.8953       0.333646      -0.00000
  29     18.79       58.5322        0.7777       58.0882       58.8659       0.333646       0.00000
  28     23.16       58.4979        0.9559       57.8757       58.8316       0.333646       0.00000
  27     28.12       58.4588        1.1591       57.6333       58.7924       0.333646       0.00000
  26     33.73       58.4151        1.3857       57.3631       58.7488       0.333646       0.00000
  25     40.54       58.3626        1.6584       57.0379       58.6963       0.333646      -0.00000
  24     48.69       58.2996        1.9854       56.6479       58.6333       0.333646      -0.00000
  23     57.69       58.2309        2.3424       56.2221       58.5645       0.333646       0.00000
  22     68.43       58.1495        2.7646       55.7186       58.4832       0.333646       0.00000
  21     81.20       58.0534        3.2632       55.1239       58.3871       0.333646      -0.00000
  20     96.49       57.9401        3.8510       54.4228       58.2738       0.333646      -0.00000
  19     114.6       57.8073        4.5400       53.6010       58.1410       0.333646      -0.00000
  18     136.5       57.6522        5.3441       52.6418       57.9859       0.333646      -0.00000
  17     162.9       57.4709        6.2842       51.5203       57.8045       0.333646       0.00000
  16     196.4       57.2410        7.4752       50.0994       57.5747       0.333646       0.00000
  15     218.7       57.0932        8.2406       49.1862       57.4269       0.333646       0.00000
  14     243.0       56.9354        9.0578       48.2112       57.2690       0.333646       0.00000
  13     269.0       56.7676        9.9264       47.1748       57.1012       0.333646      -0.00000
  12     297.5       56.5899       10.8455       46.0780       56.9235       0.333646       0.00000
  11     328.5       56.4021       11.8166       44.9191       56.7357       0.333646      -0.00000
  10     361.9       56.2046       12.8371       43.7012       56.5382       0.333646       0.00000
   9     398.1       55.9974       13.9071       42.4239       56.3311       0.333646      -0.00000
   8     437.6       55.7809       15.0245       41.0900       56.1145       0.333646      -0.00000
   7     480.5       55.5555       16.1870       39.7021       55.8891       0.333646       0.00000
   6     533.0       55.2871       17.5698       38.0509       55.6207       0.333646      -0.00000
   5     589.8       55.0085       19.0035       36.3387       55.3422       0.333646       0.00000
   4     651.6       54.7211       20.4812       34.5735       55.0547       0.333646       0.00000
   3     718.7       54.4254       21.9991       32.7599       54.7590       0.333646       0.00000
   2     792.3       54.1234       23.5463       30.9108       54.4571       0.333646       0.00000
   1     891.5       53.7376       25.5194       28.5519       54.0712       0.333646      -0.00000
   0    1013.0       53.3065       27.7175       25.9227       53.6401       0.333646       0.00000



 Wavenumbers: 29000. - 38000. cm-1, ATM      1
 LEVEL PRESSURE   UPWARD FLUX   DIFDOWN FLUX  DIRDOWN FLUX  DOWNWARD FLUX   NET FLUX    HEATING RATE
          mb          W/m2          W/m2          W/m2        W/m2          W/m2       degree/day
  51    .06700        8.7676        0.0000       20.8114       20.8114      12.043737       0.00000
  50    .07753        8.7674        0.0003       20.8070       20.8074      12.039930       3.05155
  49    .09103        8.7672        0.0007       20.8009       20.8016      12.034393       3.46085
  48    0.1069        8.7670        0.0012       20.7928       20.7939      12.026983       3.94429
  47    0.1255        8.7667        0.0017       20.7820       20.7837      12.017078       4.49034
  46    0.1487        8.7663        0.0024       20.7665       20.7688      12.002515       5.30844
  45    0.1794        8.7659        0.0033       20.7424       20.7457      11.979850       6.22204
  44    0.2165        8.7653        0.0044       20.7103       20.7147      11.949328       6.94340
  43    0.2613        8.7648        0.0056       20.6675       20.6731      11.908333       7.72732
  42    0.3336        8.7639        0.0077       20.5880       20.5957      11.831772       8.92625
  41    0.4307        8.7628        0.0104       20.4722       20.4826      11.719819       9.73402
  40    0.5894        8.7612        0.0147       20.2637       20.2784      11.517136      10.77846
  39     1.339        8.7578        0.0331       19.0984       19.1315      10.373659      12.87347
  38     1.782        8.7583        0.0427       18.4394       18.4821       9.723734      12.37351
  37     2.292        8.7610        0.0530       17.7714       17.8244       9.063390      10.93703
  36     2.964        8.7676        0.0657       17.0421       17.1078       8.340266       9.07739
  35     3.853        8.7804        0.0816       16.2678       16.3495       7.569087       7.31863
  34     5.035        8.8015        0.1018       15.4803       15.5821       6.780593       5.63267
  33     6.613        8.8323        0.1276       14.7157       14.8433       6.011011       4.11419
  32     8.786        8.8729        0.1614       13.9936       14.1549       5.282065       2.83096
  31     11.80        8.9259        0.2084       13.2835       13.4920       4.566106       2.00446
  30     15.07        8.9770        0.2573       12.7393       12.9966       4.019636       1.41088
  29     18.79        9.0298        0.3114       12.2666       12.5780       3.548193       1.06891
  28     23.16        9.0859        0.3729       11.8300       12.2029       3.117056       0.83368
  27     28.12        9.1433        0.4418       11.4279       11.8697       2.726365       0.66415
  26     33.73        9.1964        0.5178       11.0695       11.5872       2.390860       0.50444
  25     40.54        9.2467        0.6085       10.7209       11.3294       2.082692       0.38232
  24     48.69        9.2943        0.7162       10.3742       11.0904       1.796134       0.29654
  23     57.69        9.3333        0.8328       10.0549       10.8877       1.554372       0.22662
  22     68.43        9.3649        0.9695        9.7327       10.7022       1.337330       0.17062
  21     81.20        9.3801        1.1309        9.4134       10.5443       1.164260       0.11436
  20     96.49        9.3769        1.3207        9.0887       10.4095       1.032511       0.07272
  19     114.6        9.3635        1.5400        8.7388       10.2788       0.915237       0.05476
  18     136.5        9.3429        1.7907        8.3549       10.1456       0.802709       0.04327
  17     162.9        9.3151        2.0765        7.9311       10.0076       0.692529       0.03522
  16     196.4        9.2683        2.4305        7.4333        9.8638       0.595548       0.02441
  15     218.7        9.2345        2.6532        7.1295        9.7828       0.548247       0.01796
  14     243.0        9.1975        2.8860        6.8161        9.7021       0.504570       0.01515
  13     269.0        9.1571        3.1281        6.4943        9.6224       0.465350       0.01272
  12     297.5        9.1133        3.3784        6.1657        9.5440       0.430776       0.01025
  11     328.5        9.0675        3.6358        5.8294        9.4652       0.397674       0.00900
  10     361.9        9.0203        3.8980        5.4885        9.3865       0.366192       0.00797
   9     398.1        8.9718        4.1644        5.1438        9.3082       0.336358       0.00695
   8     437.6        8.9225        4.4333        4.7968        9.2301       0.307596       0.00615
   7     480.5        8.8727        4.7028        4.4502        9.1530       0.280295       0.00536
   6     533.0        8.8156        5.0100        4.0561        9.0661       0.250534       0.00479
   5     589.8        8.7594        5.3130        3.6681        8.9811       0.221717       0.00428
   4     651.6        8.7048        5.6088        3.2895        8.8983       0.193522       0.00386
   3     718.7        8.6524        5.8952        2.9232        8.8184       0.165904       0.00347
   2     792.3        8.6031        6.1690        2.5730        8.7420       0.138872       0.00310
   1     891.5        8.5466        6.4910        2.1610        8.6520       0.105494       0.00284
   0    1013.0        8.4926        6.8149        1.7463        8.5612       0.068613       0.00256



 Wavenumbers: 38000. - 50000. cm-1, ATM      1
 LEVEL PRESSURE   UPWARD FLUX   DIFDOWN FLUX  DIRDOWN FLUX  DOWNWARD FLUX   NET FLUX    HEATING RATE
          mb          W/m2          W/m2          W/m2        W/m2          W/m2       degree/day
  51    .06700        0.0061        0.0000        1.2836        1.2836       1.277518       0.00000
  50    .07753        0.0061        0.0001        1.2812        1.2812       1.275183       1.87150
  49    .09103        0.0060        0.0002        1.2777        1.2778       1.271851       2.08247
  48    0.1069        0.0059        0.0002        1.2731        1.2734       1.267473       2.33059
  47    0.1255        0.0058        0.0004        1.2672        1.2675       1.261717       2.60908
  46    0.1487        0.0057        0.0005        1.2586        1.2591       1.253391       3.03499
  45    0.1794        0.0055        0.0007        1.2455        1.2462       1.240623       3.50520
  44    0.2165        0.0054        0.0009        1.2282        1.2291       1.223697       3.85037
  43    0.2613        0.0052        0.0011        1.2054        1.2065       1.201348       4.21261
  42    0.3336        0.0049        0.0015        1.1639        1.1654       1.160524       4.75970
  41    0.4307        0.0045        0.0020        1.1051        1.1070       1.102565       5.03943
  40    0.5894        0.0039        0.0026        1.0039        1.0064       1.002524       5.32007
  39     1.339        0.0022        0.0035        0.5438        0.5473       0.545104       5.14971
  38     1.782        0.0016        0.0032        0.3635        0.3666       0.365006       3.42879
  37     2.292        0.0012        0.0027        0.2356        0.2383       0.237058       2.11916
  36     2.964        0.0009        0.0022        0.1455        0.1477       0.146786       1.13318
  35     3.853        0.0006        0.0017        0.0858        0.0875       0.086906       0.56828
  34     5.035        0.0004        0.0013        0.0488        0.0501       0.049701       0.26578
  33     6.613        0.0003        0.0010        0.0273        0.0282       0.027974       0.11615
  32     8.786        0.0002        0.0007        0.0144        0.0151       0.014928       0.05067
  31     11.80        0.0001        0.0004        0.0065        0.0070       0.006903       0.02247
  30     15.07        0.0000        0.0003        0.0031        0.0034       0.003329       0.00923
  29     18.79        0.0000        0.0002        0.0014        0.0016       0.001583       0.00396
  28     23.16        0.0000        0.0001        0.0006        0.0007       0.000720       0.00167
  27     28.12        0.0000        0.0001        0.0003        0.0003       0.000317       0.00069
  26     33.73        0.0000        0.0000        0.0001        0.0001       0.000140       0.00027
  25     40.54        0.0000        0.0000        0.0000        0.0001       0.000057       0.00010
  24     48.69        0.0000        0.0000        0.0000        0.0000       0.000021       0.00004
  23     57.69        0.0000        0.0000        0.0000        0.0000       0.000008       0.00001
  22     68.43        0.0000        0.0000        0.0000        0.0000       0.000003       0.00000
  21     81.20        0.0000        0.0000        0.0000        0.0000       0.000001       0.00000
  20     96.49        0.0000        0.0000        0.0000        0.0000       0.000000       0.00000
  19     114.6        0.0000        0.0000        0.0000        0.0000       0.000000       0.00000
  18     136.5        0.0000        0.0000        0.0000        0.0000       0.000000       0.00000
  17     162.9        0.0000        0.0000        0.0000        0.0000       0.000000       0.00000
  16     196.4        0.0000        0.0000        0.0000        0.0000       0.000000       0.00000
  15     218.7        0.0000        0.0000        0.0000        0.0000       0.000000       0.00000
  14     243.0        0.0000        0.0000        0.0000        0.0000       0.000000       0.00000
  13     269.0        0.0000        0.0000        0.0000        0.0000       0.000000       0.00000
  12     297.5        0.0000        0.0000        0.0000        0.0000       0.000000       0.00000
  11     328.5        0.0000        0.0000        0.0000        0.0000       0.000000       0.00000
  10     361.9        0.0000        0.0000        0.0000        0.0000       0.000000       0.00000
   9     398.1        0.0000        0.0000        0.0000        0.0000       0.000000       0.00000
   8     437.6        0.0000        0.0000        0.0000        0.0000       0.000000       0.00000
   7     480.5        0.0000        0.0000        0.0000        0.0000       0.000000       0.00000
   6     533.0        0.0000        0.0000        0.0000        0.0000       0.000000       0.00000
   5     589.8        0.0000        0.0000        0.0000        0.0000       0.000000       0.00000
   4     651.6        0.0000        0.0000        0.0000        0.0000       0.000000       0.00000
   3     718.7        0.0000        0.0000        0.0000        0.0000       0.000000       0.00000
   2     792.3        0.0000        0.0000        0.0000        0.0000       0.000000       0.00000
   1     891.5        0.0000        0.0000        0.0000        0.0000       0.000000       0.00000
   0    1013.0        0.0000        0.0000        0.0000        0.0000       0.000000       0.00000



 Wavenumbers:   820. -  2600. cm-1, ATM      1
 LEVEL PRESSURE   UPWARD FLUX   DIFDOWN FLUX  DIRDOWN FLUX  DOWNWARD FLUX   NET FLUX    HEATING RATE
          mb          W/m2          W/m2          W/m2        W/m2          W/m2       degree/day
  51    .06700        0.0074        0.0000        6.0047        6.0047       5.997209       0.00000
  50    .07753        0.0074        0.0000        6.0008        6.0008       5.993323       3.11531
  49    .09103        0.0074        0.0000        5.9998        5.9998       5.992393       0.58111
  48    0.1069        0.0074        0.0000        5.9988        5.9988       5.991351       0.55451
  47    0.1255        0.0074        0.0000        5.9976        5.9976       5.990171       0.53493
  46    0.1487        0.0074        0.0000        5.9962        5.9962       5.988732       0.52454
  45    0.1794        0.0074        0.0000        5.9943        5.9943       5.986897       0.50390
  44    0.2165        0.0074        0.0000        5.9924        5.9924       5.984912       0.45149
  43    0.2613        0.0074        0.0000        5.9902        5.9902       5.982778       0.40220
  42    0.3336        0.0074        0.0000        5.9870        5.9870       5.979603       0.37022
  41    0.4307        0.0074        0.0000        5.9832        5.9832       5.975731       0.33668
  40    0.5894        0.0074        0.0000        5.9770        5.9770       5.969554       0.32847
  39     1.339        0.0074        0.0000        5.9484        5.9484       5.940931       0.32224
  38     1.782        0.0074        0.0000        5.9325        5.9325       5.925044       0.30247
  37     2.292        0.0074        0.0000        5.9149        5.9149       5.907417       0.29195
  36     2.964        0.0074        0.0000        5.8928        5.8928       5.885409       0.27626
  35     3.853        0.0074        0.0000        5.8656        5.8656       5.858177       0.25844
  34     5.035        0.0074        0.0000        5.8323        5.8323       5.824869       0.23794
  33     6.613        0.0074        0.0000        5.7915        5.7915       5.784061       0.21816
  32     8.786        0.0074        0.0000        5.7415        5.7415       5.734097       0.19404
  31     11.80        0.0074        0.0000        5.6808        5.6808       5.673378       0.16999
  30     15.07        0.0074        0.0000        5.6303        5.6303       5.622907       0.13031
  29     18.79        0.0074        0.0000        5.5887        5.5887       5.581290       0.09436
  28     23.16        0.0074        0.0000        5.5540        5.5540       5.546550       0.06717
  27     28.12        0.0074        0.0000        5.5238        5.5238       5.516399       0.05126
  26     33.73        0.0074        0.0000        5.4954        5.4954       5.487926       0.04281
  25     40.54        0.0074        0.0000        5.4638        5.4638       5.456402       0.03911
  24     48.69        0.0074        0.0000        5.4280        5.4280       5.420525       0.03713
  23     57.69        0.0074        0.0000        5.3901        5.3901       5.382635       0.03552
  22     68.43        0.0074        0.0000        5.3466        5.3467       5.339223       0.03413
  21     81.20        0.0074        0.0000        5.2974        5.2974       5.289967       0.03255
  20     96.49        0.0074        0.0000        5.2417        5.2417       5.234263       0.03074
  19     114.6        0.0074        0.0000        5.1777        5.1777       5.170256       0.02989
  18     136.5        0.0074        0.0000        5.1049        5.1049       5.097463       0.02799
  17     162.9        0.0074        0.0000        5.0143        5.0143       5.006861       0.02896
  16     196.4        0.0074        0.0000        4.8775        4.8775       4.870074       0.03443
  15     218.7        0.0074        0.0000        4.7561        4.7561       4.748673       0.04609
  14     243.0        0.0074        0.0000        4.5939        4.5940       4.586531       0.05624
  13     269.0        0.0074        0.0000        4.4121        4.4121       4.404699       0.05899
  12     297.5        0.0074        0.0000        4.1898        4.1899       4.182431       0.06592
  11     328.5        0.0074        0.0000        3.9298        3.9299       3.922430       0.07069
  10     361.9        0.0074        0.0000        3.6488        3.6488       3.641367       0.07111
   9     398.1        0.0075        0.0000        3.3895        3.3896       3.382128       0.06040
   8     437.6        0.0075        0.0000        3.1843        3.1843       3.176836       0.04389
   7     480.5        0.0075        0.0000        3.0374        3.0375       3.029981       0.02884
   6     533.0        0.0075        0.0000        2.8902        2.8902       2.882680       0.02370
   5     589.8        0.0076        0.0000        2.7213        2.7214       2.713772       0.02507
   4     651.6        0.0077        0.0000        2.5113        2.5113       2.503598       0.02874
   3     718.7        0.0080        0.0000        2.2820        2.2820       2.274078       0.02884
   2     792.3        0.0084        0.0000        2.0300        2.0300       2.021618       0.02895
   1     891.5        0.0096        0.0000        1.6452        1.6452       1.635614       0.03285
   0    1013.0        0.0129        0.0000        1.1339        1.1340       1.121042       0.03573

  Modules and versions used in this calculation:

       rrtmg_sw.1col.f90:  $Revision$                    rrtmg_sw_init.f90:  $Revision$        
     rrtmgsw_cldprop.f90:  $Revision$                  rrtmgsw_cldprmc.f90:  NOT USED          
     rrtmg_sw_reftra.f90:  $Revision$                  rrtmg_sw_spcvrt.f90:  NOT USED          
     rrtmg_sw_spcvmc.f90:  NOT USED                    rrtmgsw_setcoef.f90:  NOT USED          
     rrtmg_sw_taumol.f90:  $Revision$                  rrtmg_sw_vrtqdr.f90:  NOT USED          
                rrtatm.f:  NOT USED                             util_xxx.f:  NOT USED          
                 extra.f:  NOT USED                       rrtmg_sw_k_g.f90:  $Revision$        

