

 Wavenumbers:   820. - 50000. cm-1, ATM      1
 LEVEL PRESSURE   UPWARD FLUX   DIFDOWN FLUX  DIRDOWN FLUX  DOWNWARD FLUX   NET FLUX    HEATING RATE
          mb          W/m2          W/m2          W/m2        W/m2          W/m2       degree/day
  51    .06700      428.6853        0.0000      617.8126      617.8126     189.127248       0.00000
  50    .07753      428.6850        0.0014      617.7950      617.7964     189.111408      12.69652
  49    .09103      428.6845        0.0031      617.7784      617.7815     189.096956       9.03298
  48    0.1069      428.6841        0.0050      617.7591      617.7641     189.080094       8.97556
  47    0.1255      428.6836        0.0073      617.7355      617.7428     189.059196       9.47418
  46    0.1487      428.6830        0.0101      617.7030      617.7131     189.030063      10.61921
  45    0.1794      428.6823        0.0140      617.6549      617.6689     188.986563      11.94196
  44    0.2165      428.6816        0.0185      617.5932      617.6117     188.930090      12.84648
  43    0.2613      428.6810        0.0239      617.5137      617.5376     188.856584      13.85553
  42    0.3336      428.6802        0.0328      617.3706      617.4034     188.723185      15.55305
  41    0.4307      428.6797        0.0445      617.1681      617.2125     188.532825      16.55140
  40    0.5894      428.6798        0.0633      616.8133      616.8766     188.196820      17.86831
  39     1.339      428.6993        0.1486      614.9740      615.1226     186.423319      19.96640
  38     1.782      428.7238        0.1966      614.0055      614.2020     185.478234      17.99290
  37     2.292      428.7641        0.2512      613.0537      613.3048     184.540748      15.52722
  36     2.964      428.8349        0.3222      612.0168      612.3390     183.504065      13.01350
  35     3.853      428.9535        0.4152      610.8755      611.2908     182.337300      11.07281
  34     5.035      429.1355        0.5381      609.6231      610.1612     181.025686       9.36963
  33     6.613      429.3918        0.7011      608.2579      608.9590     179.567198       7.79708
  32     8.786      429.7257        0.9199      606.7612      607.6811     177.955391       6.25968
  31     11.80      430.1584        1.2313      605.0142      606.2456     176.087162       5.23045
  30     15.07      430.5706        1.5637      603.4360      604.9998     174.429183       4.28058
  29     18.79      430.9894        1.9377      601.8697      603.8074     172.818087       3.65285
  28     23.16      431.4246        2.3723      600.2404      602.6127     171.188180       3.15171
  27     28.12      431.8591        2.8670      598.5676      601.4346     169.575518       2.74142
  26     33.73      432.2530        3.4185      596.9073      600.3257     168.072782       2.25940
  25     40.54      432.6213        4.0825      595.1204      599.2029     166.581546       1.85005
  24     48.69      432.9612        4.8793      593.1721      598.0514     165.090119       1.54339
  23     57.69      433.2336        5.7503      591.2197      596.9700     163.736478       1.26884
  22     68.43      433.4483        6.7823      589.0854      595.8677     162.419388       1.03541
  21     81.20      433.5519        8.0059      586.7823      594.7883     161.236329       0.78175
  20     96.49      433.5343        9.4548      584.2612      593.7160     160.181765       0.58204
  19     114.6      433.4524       11.1593      581.4086      592.5679     159.115544       0.49785
  18     136.5      433.3095       13.1554      578.1579      591.3133     158.003782       0.42750
  17     162.9      433.1002       15.4981      574.4225      589.9206     156.820457       0.37824
  16     196.4      432.7384       18.4862      569.7804      588.2667     155.528249       0.32526
  15     218.7      432.4705       20.4186      566.7440      587.1626     154.692068       0.31747
  14     243.0      432.1685       22.4916      563.3504      585.8420     153.673441       0.35329
  13     269.0      431.8310       24.7069      559.5186      584.2255     152.394487       0.41489
  12     297.5      431.4585       27.0654      555.2389      582.3043     150.845726       0.45935
  11     328.5      431.0588       29.5736      550.5516      580.1252     149.066414       0.48379
  10     361.9      430.6342       32.2277      545.4071      577.6349     147.000674       0.52265
   9     398.1      430.1867       35.0329      539.7450      574.7779     144.591252       0.56134
   8     437.6      429.7227       37.9884      533.5265      571.5149     141.792180       0.59846
   7     480.5      429.2473       41.0929      526.7898      567.8827     138.635337       0.61999
   6     533.0      428.7019       44.8275      518.3946      563.2220     134.520161       0.66200
   5     589.8      428.1808       48.7502      509.0813      557.8314     129.650685       0.72279
   4     651.6      427.7418       52.8539      498.4374      551.2913     123.549495       0.83435
   3     718.7      427.4552       57.1307      486.7081      543.8388     116.383573       0.90056
   2     792.3      427.4661       61.5657      473.9171      535.4828     108.016683       0.95959
   1     891.5      428.2483       67.3225      456.7794      524.1019      95.853549       1.03502
   0    1013.0      430.9651       73.9154      437.1762      511.0916      80.126543       1.09201



 Wavenumbers:  2600. -  3250. cm-1, ATM      1
 LEVEL PRESSURE   UPWARD FLUX   DIFDOWN FLUX  DIRDOWN FLUX  DOWNWARD FLUX   NET FLUX    HEATING RATE
          mb          W/m2          W/m2          W/m2        W/m2          W/m2       degree/day
  51    .06700        0.0464        0.0000        5.4450        5.4450       5.398651       0.00000
  50    .07753        0.0464        0.0000        5.4450        5.4450       5.398643       0.00640
  49    .09103        0.0464        0.0000        5.4450        5.4450       5.398633       0.00627
  48    0.1069        0.0464        0.0000        5.4450        5.4450       5.398621       0.00613
  47    0.1255        0.0464        0.0000        5.4450        5.4450       5.398608       0.00599
  46    0.1487        0.0464        0.0000        5.4450        5.4450       5.398591       0.00608
  45    0.1794        0.0464        0.0000        5.4450        5.4450       5.398568       0.00625
  44    0.2165        0.0464        0.0000        5.4449        5.4449       5.398541       0.00612
  43    0.2613        0.0464        0.0000        5.4449        5.4449       5.398510       0.00600
  42    0.3336        0.0464        0.0000        5.4448        5.4448       5.398457       0.00617
  41    0.4307        0.0464        0.0000        5.4448        5.4448       5.398385       0.00620
  40    0.5894        0.0464        0.0000        5.4446        5.4446       5.398266       0.00637
  39     1.339        0.0464        0.0000        5.4439        5.4439       5.397558       0.00797
  38     1.782        0.0464        0.0000        5.4434        5.4434       5.397015       0.01034
  37     2.292        0.0464        0.0000        5.4427        5.4427       5.396299       0.01186
  36     2.964        0.0464        0.0000        5.4416        5.4416       5.395261       0.01304
  35     3.853        0.0464        0.0000        5.4402        5.4402       5.393783       0.01402
  34     5.035        0.0464        0.0000        5.4381        5.4381       5.391728       0.01468
  33     6.613        0.0464        0.0000        5.4353        5.4353       5.388947       0.01487
  32     8.786        0.0464        0.0000        5.4317        5.4317       5.385315       0.01411
  31     11.80        0.0464        0.0000        5.4269        5.4269       5.380535       0.01338
  30     15.07        0.0464        0.0000        5.4224        5.4224       5.376009       0.01169
  29     18.79        0.0464        0.0000        5.4180        5.4180       5.371597       0.01000
  28     23.16        0.0464        0.0000        5.4135        5.4135       5.367112       0.00867
  27     28.12        0.0464        0.0000        5.4088        5.4088       5.362465       0.00790
  26     33.73        0.0464        0.0000        5.4036        5.4036       5.357225       0.00788
  25     40.54        0.0464        0.0000        5.3966        5.3967       5.350286       0.00861
  24     48.69        0.0464        0.0000        5.3872        5.3872       5.340812       0.00980
  23     57.69        0.0464        0.0000        5.3754        5.3754       5.329031       0.01104
  22     68.43        0.0464        0.0000        5.3599        5.3599       5.313548       0.01217
  21     81.20        0.0464        0.0000        5.3401        5.3401       5.293721       0.01310
  20     96.49        0.0464        0.0000        5.3155        5.3155       5.269165       0.01355
  19     114.6        0.0464        0.0000        5.2860        5.2860       5.239681       0.01377
  18     136.5        0.0464        0.0000        5.2518        5.2518       5.205481       0.01315
  17     162.9        0.0464        0.0001        5.2134        5.2135       5.167097       0.01227
  16     196.4        0.0464        0.0001        5.1687        5.1687       5.122348       0.01126
  15     218.7        0.0464        0.0001        5.1421        5.1422       5.095789       0.01008
  14     243.0        0.0464        0.0001        5.1151        5.1152       5.068789       0.00936
  13     269.0        0.0464        0.0001        5.0871        5.0872       5.040758       0.00909
  12     297.5        0.0464        0.0001        5.0569        5.0570       5.010565       0.00895
  11     328.5        0.0465        0.0001        5.0240        5.0241       4.977662       0.00895
  10     361.9        0.0465        0.0001        4.9870        4.9872       4.940646       0.00937
   9     398.1        0.0466        0.0001        4.9454        4.9455       4.898928       0.00972
   8     437.6        0.0467        0.0001        4.8961        4.8963       4.849604       0.01055
   7     480.5        0.0468        0.0002        4.8368        4.8369       4.790118       0.01168
   6     533.0        0.0470        0.0002        4.7530        4.7532       4.706212       0.01350
   5     589.8        0.0472        0.0002        4.6461        4.6463       4.599006       0.01591
   4     651.6        0.0476        0.0002        4.5042        4.5044       4.456800       0.01945
   3     718.7        0.0482        0.0002        4.3268        4.3271       4.278856       0.02236
   2     792.3        0.0491        0.0002        4.1128        4.1130       4.063946       0.02465
   1     891.5        0.0508        0.0002        3.8106        3.8108       3.759942       0.02587
   0    1013.0        0.0544        0.0002        3.4655        3.4658       3.411376       0.02420



 Wavenumbers:  3250. -  4000. cm-1, ATM      1
 LEVEL PRESSURE   UPWARD FLUX   DIFDOWN FLUX  DIRDOWN FLUX  DOWNWARD FLUX   NET FLUX    HEATING RATE
          mb          W/m2          W/m2          W/m2        W/m2          W/m2       degree/day
  51    .06700        0.0131        0.0000        9.1795        9.1795       9.166464       0.00000
  50    .07753        0.0131        0.0000        9.1748        9.1748       9.161783       3.75179
  49    .09103        0.0131        0.0000        9.1716        9.1716       9.158574       2.00546
  48    0.1069        0.0131        0.0000        9.1693        9.1693       9.156238       1.24390
  47    0.1255        0.0131        0.0000        9.1672        9.1672       9.154174       0.93551
  46    0.1487        0.0131        0.0000        9.1650        9.1650       9.151959       0.80748
  45    0.1794        0.0131        0.0000        9.1624        9.1624       9.149352       0.71558
  44    0.2165        0.0131        0.0000        9.1598        9.1598       9.146722       0.59821
  43    0.2613        0.0131        0.0000        9.1571        9.1571       9.144077       0.49859
  42    0.3336        0.0131        0.0000        9.1535        9.1535       9.140435       0.42467
  41    0.4307        0.0131        0.0000        9.1494        9.1494       9.136384       0.35222
  40    0.5894        0.0131        0.0000        9.1436        9.1436       9.130513       0.31222
  39     1.339        0.0131        0.0000        9.1206        9.1206       9.107521       0.25885
  38     1.782        0.0131        0.0000        9.1101        9.1101       9.097075       0.19887
  37     2.292        0.0131        0.0000        9.1000        9.1000       9.086951       0.16769
  36     2.964        0.0131        0.0000        9.0886        9.0886       9.075536       0.14328
  35     3.853        0.0131        0.0000        9.0751        9.0751       9.062051       0.12798
  34     5.035        0.0131        0.0000        9.0583        9.0583       9.045201       0.12037
  33     6.613        0.0131        0.0000        9.0360        9.0360       9.022914       0.11915
  32     8.786        0.0131        0.0000        9.0048        9.0048       8.991791       0.12087
  31     11.80        0.0130        0.0000        8.9581        8.9581       8.945044       0.13088
  30     15.07        0.0130        0.0000        8.9060        8.9060       8.892933       0.13454
  29     18.79        0.0130        0.0000        8.8456        8.8456       8.832541       0.13693
  28     23.16        0.0130        0.0000        8.7750        8.7750       8.761996       0.13641
  27     28.12        0.0130        0.0000        8.6967        8.6967       8.683678       0.13313
  26     33.73        0.0130        0.0000        8.6146        8.6147       8.601644       0.12334
  25     40.54        0.0130        0.0001        8.5247        8.5248       8.511750       0.11152
  24     48.69        0.0130        0.0001        8.4286        8.4287       8.415658       0.09944
  23     57.69        0.0130        0.0001        8.3337        8.3338       8.320791       0.08892
  22     68.43        0.0130        0.0001        8.2280        8.2281       8.215117       0.08307
  21     81.20        0.0130        0.0001        8.1061        8.1063       8.093294       0.08050
  20     96.49        0.0129        0.0001        7.9644        7.9645       7.951599       0.07821
  19     114.6        0.0129        0.0001        7.8027        7.8029       7.789965       0.07547
  18     136.5        0.0129        0.0002        7.6251        7.6252       7.612345       0.06830
  17     162.9        0.0129        0.0002        7.4319        7.4321       7.419233       0.06173
  16     196.4        0.0128        0.0002        7.2011        7.2013       7.188459       0.05809
  15     218.7        0.0128        0.0002        7.0413        7.0415       7.028737       0.06064
  14     243.0        0.0128        0.0003        6.8393        6.8396       6.826817       0.07003
  13     269.0        0.0128        0.0003        6.5719        6.5722       6.559398       0.08675
  12     297.5        0.0127        0.0003        6.2647        6.2650       6.252274       0.09109
  11     328.5        0.0127        0.0003        5.9492        5.9495       5.936783       0.08578
  10     361.9        0.0127        0.0003        5.6231        5.6235       5.610775       0.08248
   9     398.1        0.0127        0.0003        5.2647        5.2650       5.252316       0.08351
   8     437.6        0.0127        0.0003        4.8624        4.8627       4.850029       0.08601
   7     480.5        0.0127        0.0003        4.4338        4.4342       4.421457       0.08417
   6     533.0        0.0128        0.0003        3.9374        3.9377       3.924949       0.07987
   5     589.8        0.0129        0.0003        3.4461        3.4464       3.433520       0.07294
   4     651.6        0.0131        0.0003        2.9377        2.9381       2.924936       0.06955
   3     718.7        0.0136        0.0003        2.4447        2.4450       2.431433       0.06202
   2     792.3        0.0144        0.0003        1.9658        1.9660       1.951587       0.05503
   1     891.5        0.0167        0.0002        1.4144        1.4146       1.397905       0.04712
   0    1013.0        0.0231        0.0002        0.8921        0.8923       0.869184       0.03671



 Wavenumbers:  4000. -  4650. cm-1, ATM      1
 LEVEL PRESSURE   UPWARD FLUX   DIFDOWN FLUX  DIRDOWN FLUX  DOWNWARD FLUX   NET FLUX    HEATING RATE
          mb          W/m2          W/m2          W/m2        W/m2          W/m2       degree/day
  51    .06700        1.5292        0.0000       10.7795       10.7795       9.250311       0.00000
  50    .07753        1.5292        0.0000       10.7795       10.7795       9.250310       0.00082
  49    .09103        1.5292        0.0000       10.7795       10.7795       9.250309       0.00081
  48    0.1069        1.5292        0.0000       10.7795       10.7795       9.250307       0.00079
  47    0.1255        1.5292        0.0000       10.7795       10.7795       9.250306       0.00077
  46    0.1487        1.5292        0.0000       10.7795       10.7795       9.250304       0.00078
  45    0.1794        1.5292        0.0000       10.7795       10.7795       9.250301       0.00081
  44    0.2165        1.5292        0.0000       10.7795       10.7795       9.250297       0.00079
  43    0.2613        1.5292        0.0000       10.7795       10.7795       9.250293       0.00077
  42    0.3336        1.5292        0.0000       10.7795       10.7795       9.250286       0.00080
  41    0.4307        1.5292        0.0000       10.7795       10.7795       9.250277       0.00080
  40    0.5894        1.5292        0.0000       10.7795       10.7795       9.250262       0.00082
  39     1.339        1.5292        0.0000       10.7794       10.7794       9.250169       0.00104
  38     1.782        1.5292        0.0000       10.7793       10.7793       9.250097       0.00138
  37     2.292        1.5292        0.0000       10.7792       10.7792       9.249999       0.00161
  36     2.964        1.5292        0.0000       10.7791       10.7791       9.249854       0.00182
  35     3.853        1.5292        0.0000       10.7788       10.7789       9.249639       0.00204
  34     5.035        1.5292        0.0000       10.7785       10.7785       9.249322       0.00227
  33     6.613        1.5292        0.0000       10.7780       10.7781       9.248855       0.00250
  32     8.786        1.5292        0.0000       10.7773       10.7774       9.248166       0.00268
  31     11.80        1.5292        0.0000       10.7762       10.7763       9.247083       0.00303
  30     15.07        1.5292        0.0001       10.7750       10.7750       9.245812       0.00328
  29     18.79        1.5292        0.0001       10.7734       10.7735       9.244276       0.00348
  28     23.16        1.5292        0.0001       10.7715       10.7716       9.242367       0.00369
  27     28.12        1.5292        0.0001       10.7691       10.7692       9.240057       0.00393
  26     33.73        1.5292        0.0001       10.7663       10.7664       9.237206       0.00429
  25     40.54        1.5292        0.0002       10.7624       10.7625       9.233339       0.00480
  24     48.69        1.5292        0.0002       10.7572       10.7574       9.228185       0.00533
  23     57.69        1.5293        0.0002       10.7511       10.7513       9.222071       0.00573
  22     68.43        1.5293        0.0003       10.7434       10.7437       9.214407       0.00603
  21     81.20        1.5294        0.0003       10.7340       10.7344       9.204967       0.00624
  20     96.49        1.5295        0.0004       10.7226       10.7230       9.193479       0.00634
  19     114.6        1.5297        0.0004       10.7088       10.7093       9.179586       0.00649
  18     136.5        1.5299        0.0005       10.6922       10.6928       9.162851       0.00644
  17     162.9        1.5302        0.0006       10.6722       10.6728       9.142599       0.00647
  16     196.4        1.5307        0.0007       10.6458       10.6466       9.115819       0.00674
  15     218.7        1.5311        0.0008       10.6279       10.6287       9.097583       0.00692
  14     243.0        1.5317        0.0009       10.6073       10.6083       9.076582       0.00728
  13     269.0        1.5324        0.0010       10.5833       10.5843       9.051929       0.00800
  12     297.5        1.5332        0.0011       10.5546       10.5558       9.022527       0.00872
  11     328.5        1.5344        0.0012       10.5212       10.5224       8.988065       0.00937
  10     361.9        1.5358        0.0014       10.4825       10.4838       8.948065       0.01012
   9     398.1        1.5375        0.0015       10.4376       10.4390       8.901500       0.01085
   8     437.6        1.5398        0.0016       10.3846       10.3863       8.846496       0.01176
   7     480.5        1.5426        0.0018       10.3221       10.3239       8.781277       0.01281
   6     533.0        1.5467        0.0020       10.2349       10.2369       8.690178       0.01465
   5     589.8        1.5522        0.0021       10.1252       10.1273       8.575187       0.01707
   4     651.6        1.5598        0.0023        9.9798        9.9822       8.422406       0.02089
   3     718.7        1.5702        0.0025        9.7992        9.8017       8.231545       0.02399
   2     792.3        1.5848        0.0027        9.5843        9.5870       8.002234       0.02630
   1     891.5        1.6133        0.0030        9.2762        9.2792       7.665931       0.02862
   0    1013.0        1.6683        0.0033        8.8762        8.8795       7.211172       0.03158



 Wavenumbers:  4650. -  5150. cm-1, ATM      1
 LEVEL PRESSURE   UPWARD FLUX   DIFDOWN FLUX  DIRDOWN FLUX  DOWNWARD FLUX   NET FLUX    HEATING RATE
          mb          W/m2          W/m2          W/m2        W/m2          W/m2       degree/day
  51    .06700        0.3862        0.0000       10.2033       10.2033       9.817096       0.00000
  50    .07753        0.3862        0.0000       10.2031       10.2031       9.816866       0.18409
  49    .09103        0.3862        0.0000       10.2028       10.2028       9.816579       0.17950
  48    0.1069        0.3862        0.0000       10.2025       10.2025       9.816251       0.17467
  47    0.1255        0.3862        0.0000       10.2021       10.2021       9.815876       0.16976
  46    0.1487        0.3862        0.0000       10.2017       10.2017       9.815408       0.17085
  45    0.1794        0.3862        0.0000       10.2010       10.2010       9.814774       0.17393
  44    0.2165        0.3862        0.0000       10.2003       10.2003       9.814034       0.16836
  43    0.2613        0.3862        0.0000       10.1994       10.1994       9.813171       0.16266
  42    0.3336        0.3862        0.0000       10.1980       10.1980       9.811775       0.16280
  41    0.4307        0.3862        0.0000       10.1962       10.1962       9.809980       0.15600
  40    0.5894        0.3862        0.0000       10.1934       10.1934       9.807178       0.14903
  39     1.339        0.3862        0.0000       10.1821       10.1821       9.795868       0.12733
  38     1.782        0.3862        0.0000       10.1767       10.1767       9.790470       0.10277
  37     2.292        0.3862        0.0000       10.1714       10.1714       9.785141       0.08828
  36     2.964        0.3862        0.0000       10.1656       10.1656       9.779351       0.07268
  35     3.853        0.3862        0.0000       10.1595       10.1595       9.773269       0.05772
  34     5.035        0.3862        0.0000       10.1533       10.1533       9.767058       0.04437
  33     6.613        0.3862        0.0000       10.1469       10.1469       9.760710       0.03393
  32     8.786        0.3862        0.0000       10.1400       10.1400       9.753797       0.02685
  31     11.80        0.3862        0.0001       10.1310       10.1311       9.744859       0.02502
  30     15.07        0.3862        0.0001       10.1212       10.1213       9.735080       0.02525
  29     18.79        0.3862        0.0001       10.1093       10.1094       9.723191       0.02696
  28     23.16        0.3861        0.0001       10.0941       10.0942       9.708036       0.02930
  27     28.12        0.3861        0.0002       10.0751       10.0753       9.689128       0.03214
  26     33.73        0.3861        0.0002       10.0522       10.0524       9.666261       0.03438
  25     40.54        0.3861        0.0002       10.0225       10.0228       9.636654       0.03673
  24     48.69        0.3861        0.0003        9.9847        9.9850       9.598861       0.03911
  23     57.69        0.3861        0.0003        9.9415        9.9418       9.555758       0.04040
  22     68.43        0.3861        0.0004        9.8893        9.8896       9.503560       0.04104
  21     81.20        0.3861        0.0004        9.8275        9.8279       9.441809       0.04080
  20     96.49        0.3861        0.0005        9.7563        9.7569       9.370743       0.03922
  19     114.6        0.3862        0.0006        9.6772        9.6779       9.291708       0.03690
  18     136.5        0.3862        0.0007        9.5918        9.5925       9.206317       0.03283
  17     162.9        0.3864        0.0009        9.5009        9.5018       9.115422       0.02905
  16     196.4        0.3866        0.0010        9.3963        9.3973       9.010759       0.02635
  15     218.7        0.3868        0.0011        9.3325        9.3336       8.946861       0.02426
  14     243.0        0.3870        0.0012        9.2650        9.2663       8.879279       0.02344
  13     269.0        0.3873        0.0014        9.1925        9.1939       8.806569       0.02359
  12     297.5        0.3877        0.0015        9.1129        9.1144       8.726669       0.02370
  11     328.5        0.3882        0.0016        9.0246        9.0262       8.638047       0.02410
  10     361.9        0.3888        0.0018        8.9260        8.9278       8.538946       0.02507
   9     398.1        0.3896        0.0020        8.8155        8.8175       8.427852       0.02588
   8     437.6        0.3906        0.0021        8.6911        8.6933       8.302614       0.02678
   7     480.5        0.3919        0.0023        8.5514        8.5537       8.161790       0.02766
   6     533.0        0.3939        0.0025        8.3709        8.3734       7.979540       0.02932
   5     589.8        0.3965        0.0027        8.1653        8.1680       7.771483       0.03088
   4     651.6        0.4000        0.0029        7.9333        7.9362       7.536217       0.03217
   3     718.7        0.4048        0.0031        7.6732        7.6762       7.271440       0.03328
   2     792.3        0.4114        0.0033        7.3866        7.3899       6.978458       0.03360
   1     891.5        0.4235        0.0035        6.9956        6.9991       6.575578       0.03428
   0    1013.0        0.4451        0.0037        6.5425        6.5463       6.101179       0.03294



 Wavenumbers:  5150. -  6150. cm-1, ATM      1
 LEVEL PRESSURE   UPWARD FLUX   DIFDOWN FLUX  DIRDOWN FLUX  DOWNWARD FLUX   NET FLUX    HEATING RATE
          mb          W/m2          W/m2          W/m2        W/m2          W/m2       degree/day
  51    .06700        3.1934        0.0000       25.5798       25.5798      22.386449       0.00000
  50    .07753        3.1934        0.0000       25.5798       25.5798      22.386444       0.00387
  49    .09103        3.1934        0.0000       25.5798       25.5798      22.386438       0.00392
  48    0.1069        3.1934        0.0000       25.5798       25.5798      22.386430       0.00398
  47    0.1255        3.1934        0.0000       25.5798       25.5798      22.386421       0.00403
  46    0.1487        3.1934        0.0000       25.5798       25.5798      22.386410       0.00425
  45    0.1794        3.1934        0.0000       25.5798       25.5798      22.386393       0.00451
  44    0.2165        3.1934        0.0000       25.5797       25.5797      22.386373       0.00458
  43    0.2613        3.1934        0.0000       25.5797       25.5797      22.386349       0.00465
  42    0.3336        3.1934        0.0000       25.5797       25.5797      22.386306       0.00491
  41    0.4307        3.1934        0.0000       25.5796       25.5796      22.386249       0.00498
  40    0.5894        3.1934        0.0000       25.5795       25.5795      22.386153       0.00511
  39     1.339        3.1933        0.0000       25.5790       25.5790      22.385682       0.00530
  38     1.782        3.1933        0.0000       25.5787       25.5787      22.385402       0.00534
  37     2.292        3.1933        0.0001       25.5783       25.5784      22.385079       0.00535
  36     2.964        3.1933        0.0001       25.5779       25.5780      22.384660       0.00526
  35     3.853        3.1933        0.0001       25.5773       25.5774      22.384115       0.00517
  34     5.035        3.1933        0.0001       25.5766       25.5767      22.383395       0.00514
  33     6.613        3.1933        0.0002       25.5755       25.5757      22.382432       0.00515
  32     8.786        3.1932        0.0002       25.5741       25.5744      22.381136       0.00503
  31     11.80        3.1932        0.0003       25.5722       25.5725      22.379295       0.00515
  30     15.07        3.1932        0.0004       25.5701       25.5705      22.377341       0.00505
  29     18.79        3.1931        0.0005       25.5678       25.5683      22.375175       0.00491
  28     23.16        3.1931        0.0006       25.5652       25.5658      22.372691       0.00480
  27     28.12        3.1931        0.0008       25.5622       25.5630      22.369899       0.00475
  26     33.73        3.1930        0.0009       25.5590       25.5599      22.366831       0.00461
  25     40.54        3.1930        0.0011       25.5551       25.5562      22.363173       0.00454
  24     48.69        3.1930        0.0013       25.5505       25.5519      22.358864       0.00446
  23     57.69        3.1930        0.0015       25.5456       25.5472      22.354187       0.00438
  22     68.43        3.1930        0.0018       25.5399       25.5417      22.348681       0.00433
  21     81.20        3.1930        0.0022       25.5330       25.5352      22.342153       0.00431
  20     96.49        3.1931        0.0026       25.5248       25.5274      22.334317       0.00432
  19     114.6        3.1932        0.0031       25.5149       25.5180      22.324811       0.00444
  18     136.5        3.1933        0.0037       25.5028       25.5065      22.313164       0.00448
  17     162.9        3.1934        0.0043       25.4851       25.4894      22.295976       0.00549
  16     196.4        3.1937        0.0052       25.4481       25.4533      22.259632       0.00915
  15     218.7        3.1938        0.0058       25.3923       25.3981      22.204302       0.02101
  14     243.0        3.1940        0.0064       25.2838       25.2903      22.096249       0.03748
  13     269.0        3.1943        0.0071       25.1157       25.1228      21.928446       0.05443
  12     297.5        3.1947        0.0078       24.8862       24.8940      21.699314       0.06796
  11     328.5        3.1951        0.0085       24.5894       24.5979      21.402799       0.08062
  10     361.9        3.1957        0.0093       24.2130       24.2223      21.026540       0.09520
   9     398.1        3.1965        0.0100       23.7712       23.7812      20.584648       0.10295
   8     437.6        3.1976        0.0108       23.2776       23.2885      20.090858       0.10558
   7     480.5        3.1990        0.0116       22.7358       22.7474      19.548396       0.10654
   6     533.0        3.2014        0.0125       22.0122       22.0247      18.823323       0.11664
   5     589.8        3.2049        0.0134       21.1318       21.1452      17.940259       0.13108
   4     651.6        3.2110        0.0141       20.0502       20.0643      16.853306       0.14864
   3     718.7        3.2212        0.0147       18.8691       18.8838      15.662577       0.14964
   2     792.3        3.2394        0.0153       17.6444       17.6596      14.420202       0.14249
   1     891.5        3.2843        0.0159       16.2510       16.2670      12.982677       0.12233
   0    1013.0        3.4049        0.0169       15.0725       15.0894      11.684539       0.09014



 Wavenumbers:  6150. -  7700. cm-1, ATM      1
 LEVEL PRESSURE   UPWARD FLUX   DIFDOWN FLUX  DIRDOWN FLUX  DOWNWARD FLUX   NET FLUX    HEATING RATE
          mb          W/m2          W/m2          W/m2        W/m2          W/m2       degree/day
  51    .06700        5.9630        0.0000       47.3108       47.3108      41.347798       0.00000
  50    .07753        5.9630        0.0000       47.3108       47.3108      41.347777       0.01683
  49    .09103        5.9630        0.0000       47.3108       47.3108      41.347751       0.01663
  48    0.1069        5.9630        0.0000       47.3108       47.3108      41.347720       0.01643
  47    0.1255        5.9630        0.0000       47.3107       47.3107      41.347684       0.01623
  46    0.1487        5.9630        0.0000       47.3107       47.3107      41.347638       0.01663
  45    0.1794        5.9630        0.0000       47.3106       47.3106      41.347575       0.01727
  44    0.2165        5.9630        0.0000       47.3105       47.3105      41.347500       0.01710
  43    0.2613        5.9630        0.0000       47.3104       47.3104      41.347410       0.01694
  42    0.3336        5.9630        0.0000       47.3103       47.3103      41.347260       0.01750
  41    0.4307        5.9630        0.0000       47.3100       47.3101      41.347060       0.01743
  40    0.5894        5.9630        0.0001       47.3097       47.3097      41.346730       0.01755
  39     1.339        5.9629        0.0001       47.3079       47.3081      41.345158       0.01769
  38     1.782        5.9629        0.0002       47.3069       47.3071      41.344237       0.01754
  37     2.292        5.9628        0.0003       47.3058       47.3060      41.343177       0.01755
  36     2.964        5.9628        0.0003       47.3042       47.3046      41.341799       0.01731
  35     3.853        5.9627        0.0004       47.3022       47.3027      41.339996       0.01711
  34     5.035        5.9626        0.0006       47.2996       47.3002      41.337619       0.01698
  33     6.613        5.9624        0.0007       47.2961       47.2969      41.334466       0.01686
  32     8.786        5.9622        0.0010       47.2915       47.2925      41.330256       0.01635
  31     11.80        5.9619        0.0013       47.2849       47.2862      41.324311       0.01664
  30     15.07        5.9616        0.0017       47.2779       47.2796      41.318030       0.01622
  29     18.79        5.9613        0.0021       47.2702       47.2723      41.311066       0.01579
  28     23.16        5.9608        0.0026       47.2613       47.2639      41.303087       0.01543
  27     28.12        5.9604        0.0032       47.2513       47.2545      41.294146       0.01520
  26     33.73        5.9598        0.0038       47.2404       47.2442      41.284387       0.01467
  25     40.54        5.9592        0.0046       47.2275       47.2321      41.272919       0.01423
  24     48.69        5.9584        0.0055       47.2124       47.2180      41.259548       0.01384
  23     57.69        5.9576        0.0065       47.1963       47.2029      41.245303       0.01335
  22     68.43        5.9566        0.0078       47.1776       47.1854      41.228841       0.01294
  21     81.20        5.9553        0.0092       47.1559       47.1651      41.209796       0.01259
  20     96.49        5.9539        0.0109       47.1306       47.1416      41.187689       0.01220
  19     114.6        5.9522        0.0130       47.1012       47.1141      41.161977       0.01201
  18     136.5        5.9501        0.0154       47.0668       47.0822      41.132094       0.01149
  17     162.9        5.9477        0.0183       47.0238       47.0421      41.094426       0.01204
  16     196.4        5.9446        0.0221       46.9563       46.9784      41.033868       0.01524
  15     218.7        5.9426        0.0246       46.8819       46.9065      40.963987       0.02653
  14     243.0        5.9405        0.0273       46.7464       46.7736      40.833145       0.04538
  13     269.0        5.9383        0.0301       46.5179       46.5480      40.609618       0.07251
  12     297.5        5.9363        0.0331       46.1882       46.2213      40.285018       0.09627
  11     328.5        5.9343        0.0362       45.7798       45.8160      39.881738       0.10965
  10     361.9        5.9325        0.0395       45.2563       45.2958      39.363394       0.13115
   9     398.1        5.9310        0.0429       44.5844       44.6273      38.696299       0.15542
   8     437.6        5.9304        0.0464       43.7539       43.8003      37.869887       0.17669
   7     480.5        5.9308        0.0498       42.8016       42.8515      36.920617       0.18643
   6     533.0        5.9336        0.0539       41.5743       41.6282      35.694532       0.19724
   5     589.8        5.9406        0.0578       40.1223       40.1801      34.239425       0.21599
   4     651.6        5.9565        0.0612       38.2659       38.3271      32.370646       0.25556
   3     718.7        5.9873        0.0642       36.1202       36.1843      30.197073       0.27316
   2     792.3        6.0460        0.0665       33.7661       33.8327      27.786667       0.27645
   1     891.5        6.1945        0.0689       30.7803       30.8493      24.654819       0.26651
   0    1013.0        6.5726        0.0714       27.7789       27.8503      21.277632       0.23450



 Wavenumbers:  7700. -  8050. cm-1, ATM      1
 LEVEL PRESSURE   UPWARD FLUX   DIFDOWN FLUX  DIRDOWN FLUX  DOWNWARD FLUX   NET FLUX    HEATING RATE
          mb          W/m2          W/m2          W/m2        W/m2          W/m2       degree/day
  51    .06700        5.8128        0.0000       11.1810       11.1810       5.368159       0.00000
  50    .07753        5.8128        0.0000       11.1809       11.1809       5.368137       0.01747
  49    .09103        5.8128        0.0000       11.1809       11.1809       5.368110       0.01712
  48    0.1069        5.8128        0.0000       11.1809       11.1809       5.368078       0.01676
  47    0.1255        5.8128        0.0000       11.1809       11.1809       5.368042       0.01641
  46    0.1487        5.8128        0.0000       11.1808       11.1808       5.367997       0.01665
  45    0.1794        5.8128        0.0000       11.1808       11.1808       5.367934       0.01713
  44    0.2165        5.8129        0.0000       11.1807       11.1807       5.367860       0.01680
  43    0.2613        5.8129        0.0000       11.1806       11.1806       5.367773       0.01649
  42    0.3336        5.8129        0.0000       11.1805       11.1805       5.367628       0.01687
  41    0.4307        5.8129        0.0000       11.1803       11.1804       5.367436       0.01669
  40    0.5894        5.8130        0.0000       11.1801       11.1801       5.367123       0.01667
  39     1.339        5.8132        0.0001       11.1788       11.1789       5.365640       0.01670
  38     1.782        5.8134        0.0001       11.1781       11.1782       5.364769       0.01658
  37     2.292        5.8136        0.0001       11.1772       11.1773       5.363760       0.01670
  36     2.964        5.8138        0.0002       11.1761       11.1762       5.362437       0.01662
  35     3.853        5.8141        0.0002       11.1746       11.1748       5.360688       0.01660
  34     5.035        5.8145        0.0003       11.1726       11.1729       5.358365       0.01659
  33     6.613        5.8150        0.0004       11.1699       11.1703       5.355262       0.01659
  32     8.786        5.8158        0.0005       11.1664       11.1668       5.351082       0.01623
  31     11.80        5.8168        0.0006       11.1613       11.1619       5.345107       0.01673
  30     15.07        5.8179        0.0008       11.1558       11.1566       5.338696       0.01655
  29     18.79        5.8192        0.0010       11.1496       11.1507       5.331462       0.01640
  28     23.16        5.8207        0.0013       11.1424       11.1437       5.323023       0.01632
  27     28.12        5.8224        0.0015       11.1342       11.1358       5.313387       0.01638
  26     33.73        5.8243        0.0018       11.1251       11.1269       5.302625       0.01618
  25     40.54        5.8266        0.0022       11.1141       11.1163       5.289653       0.01609
  24     48.69        5.8295        0.0027       11.1009       11.1035       5.274059       0.01614
  23     57.69        5.8326        0.0031       11.0864       11.0896       5.256988       0.01600
  22     68.43        5.8363        0.0037       11.0693       11.0731       5.236737       0.01592
  21     81.20        5.8408        0.0044       11.0491       11.0536       5.212727       0.01587
  20     96.49        5.8462        0.0052       11.0253       11.0305       5.184280       0.01570
  19     114.6        5.8527        0.0062       10.9972       11.0034       5.150735       0.01566
  18     136.5        5.8605        0.0074       10.9644       10.9718       5.111286       0.01517
  17     162.9        5.8699        0.0088       10.9259       10.9346       5.064728       0.01488
  16     196.4        5.8823        0.0105       10.8768       10.8873       5.004993       0.01504
  15     218.7        5.8906        0.0117       10.8450       10.8567       4.966121       0.01476
  14     243.0        5.8998        0.0130       10.8110       10.8239       4.924157       0.01455
  13     269.0        5.9098        0.0143       10.7745       10.7888       4.878991       0.01465
  12     297.5        5.9209        0.0158       10.7356       10.7514       4.830498       0.01438
  11     328.5        5.9331        0.0174       10.6941       10.7115       4.778418       0.01416
  10     361.9        5.9465        0.0192       10.6500       10.6692       4.722652       0.01411
   9     398.1        5.9612        0.0210       10.6032       10.6242       4.662924       0.01392
   8     437.6        5.9775        0.0230       10.5535       10.5765       4.598998       0.01367
   7     480.5        5.9954        0.0251       10.5009       10.5260       4.530619       0.01343
   6     533.0        6.0181        0.0277       10.4368       10.4646       4.446425       0.01354
   5     589.8        6.0437        0.0306       10.3684       10.3990       4.355341       0.01352
   4     651.6        6.0725        0.0336       10.2951       10.3287       4.256241       0.01355
   3     718.7        6.1052        0.0369       10.2162       10.2531       4.147902       0.01362
   2     792.3        6.1427        0.0403       10.1308       10.1712       4.028510       0.01369
   1     891.5        6.1978        0.0450       10.0132       10.0582       3.860366       0.01431
   0    1013.0        6.2715        0.0506        9.8675        9.9180       3.646514       0.01485



 Wavenumbers:  8050. - 12850. cm-1, ATM      1
 LEVEL PRESSURE   UPWARD FLUX   DIFDOWN FLUX  DIRDOWN FLUX  DOWNWARD FLUX   NET FLUX    HEATING RATE
          mb          W/m2          W/m2          W/m2        W/m2          W/m2       degree/day
  51    .06700      117.4898        0.0000      156.5418      156.5418      39.051979       0.00000
  50    .07753      117.4898        0.0000      156.5417      156.5417      39.051979       0.00000
  49    .09103      117.4897        0.0001      156.5417      156.5417      39.051979       0.00000
  48    0.1069      117.4897        0.0001      156.5416      156.5417      39.051979      -0.00000
  47    0.1255      117.4897        0.0002      156.5415      156.5417      39.051979       0.00000
  46    0.1487      117.4897        0.0002      156.5414      156.5417      39.051979      -0.00000
  45    0.1794      117.4897        0.0003      156.5413      156.5416      39.051979       0.00000
  44    0.2165      117.4896        0.0005      156.5412      156.5416      39.051979       0.00000
  43    0.2613      117.4896        0.0006      156.5410      156.5416      39.051979      -0.00000
  42    0.3336      117.4895        0.0008      156.5407      156.5415      39.051979       0.00000
  41    0.4307      117.4894        0.0011      156.5403      156.5414      39.051979       0.00000
  40    0.5894      117.4893        0.0016      156.5397      156.5413      39.051979      -0.00000
  39     1.339      117.4886        0.0038      156.5367      156.5406      39.051979       0.00000
  38     1.782      117.4882        0.0052      156.5350      156.5402      39.051979      -0.00000
  37     2.292      117.4877        0.0067      156.5330      156.5397      39.051979       0.00000
  36     2.964      117.4871        0.0087      156.5303      156.5391      39.051979       0.00000
  35     3.853      117.4863        0.0114      156.5268      156.5382      39.051979      -0.00000
  34     5.035      117.4852        0.0149      156.5222      156.5371      39.051979      -0.00000
  33     6.613      117.4837        0.0197      156.5160      156.5357      39.051979       0.00000
  32     8.786      117.4817        0.0261      156.5076      156.5337      39.051979       0.00000
  31     11.80      117.4789        0.0352      156.4957      156.5309      39.051979       0.00000
  30     15.07      117.4759        0.0451      156.4828      156.5279      39.051979       0.00000
  29     18.79      117.4725        0.0562      156.4682      156.5244      39.051979      -0.00000
  28     23.16      117.4685        0.0692      156.4512      156.5204      39.051979       0.00000
  27     28.12      117.4639        0.0841      156.4317      156.5158      39.051979      -0.00000
  26     33.73      117.4587        0.1008      156.4099      156.5107      39.051979      -0.00000
  25     40.54      117.4525        0.1210      156.3834      156.5045      39.051979       0.00000
  24     48.69      117.4450        0.1454      156.3515      156.4970      39.051979       0.00000
  23     57.69      117.4367        0.1723      156.3164      156.4887      39.051979       0.00000
  22     68.43      117.4269        0.2043      156.2746      156.4788      39.051979       0.00000
  21     81.20      117.4151        0.2425      156.2246      156.4671      39.051979      -0.00000
  20     96.49      117.4010        0.2881      156.1649      156.4530      39.051979       0.00000
  19     114.6      117.3843        0.3423      156.0933      156.4356      39.051234       0.00035
  18     136.5      117.3645        0.4068      156.0081      156.4148      39.050306       0.00036
  17     162.9      117.3409        0.4837      155.9060      156.3896      39.048758       0.00049
  16     196.4      117.3102        0.5837      155.7712      156.3549      39.044746       0.00101
  15     218.7      117.2901        0.6496      155.6776      156.3271      39.037029       0.00293
  14     243.0      117.2686        0.7213      155.5651      156.2864      39.017745       0.00669
  13     269.0      117.2461        0.7992      155.4216      156.2208      38.974660       0.01398
  12     297.5      117.2234        0.8835      155.2315      156.1150      38.891553       0.02465
  11     328.5      117.2009        0.9748      154.9915      155.9662      38.765307       0.03433
  10     361.9      117.1796        1.0732      154.6942      155.7674      38.587830       0.04490
   9     398.1      117.1611        1.1792      154.3280      155.5072      38.346103       0.05632
   8     437.6      117.1486        1.2933      153.8786      155.1718      38.023247       0.06903
   7     480.5      117.1454        1.4156      153.3404      154.7559      37.610525       0.08106
   6     533.0      117.1606        1.5661      152.5962      154.1623      37.001715       0.09794
   5     589.8      117.2116        1.7281      151.6560      153.3841      36.172579       0.12307
   4     651.6      117.3377        1.9011      150.3678      152.2688      34.931101       0.16978
   3     718.7      117.5881        2.0841      148.6599      150.7439      33.155834       0.22310
   2     792.3      118.0652        2.2755      146.4018      148.6773      30.612088       0.29174
   1     891.5      119.2315        2.5251      142.7268      145.2519      26.020390       0.39073
   0    1013.0      121.8615        2.8115      137.8013      140.6128      18.751271       0.50473



 Wavenumbers: 12850. - 16000. cm-1, ATM      1
 LEVEL PRESSURE   UPWARD FLUX   DIFDOWN FLUX  DIRDOWN FLUX  DOWNWARD FLUX   NET FLUX    HEATING RATE
          mb          W/m2          W/m2          W/m2        W/m2          W/m2       degree/day
  51    .06700       84.9341        0.0000       98.0872       98.0872      13.153172       0.00000
  50    .07753       84.9341        0.0001       98.0864       98.0864      13.152378       0.63687
  49    .09103       84.9341        0.0002       98.0853       98.0855      13.151379       0.62412
  48    0.1069       84.9341        0.0003       98.0841       98.0843      13.150231       0.61117
  47    0.1255       84.9341        0.0004       98.0826       98.0830      13.148911       0.59857
  46    0.1487       84.9342        0.0005       98.0809       98.0814      13.147243       0.60801
  45    0.1794       84.9342        0.0008       98.0784       98.0792      13.144971       0.62359
  44    0.2165       84.9343        0.0010       98.0756       98.0766      13.142296       0.60860
  43    0.2613       84.9345        0.0013       98.0723       98.0736      13.139145       0.59392
  42    0.3336       84.9348        0.0018       98.0670       98.0688      13.133993       0.60065
  41    0.4307       84.9353        0.0024       98.0602       98.0626      13.127317       0.58047
  40    0.5894       84.9363        0.0035       98.0496       98.0530      13.116765       0.56115
  39     1.339       84.9443        0.0084       98.0043       98.0128      13.068424       0.54423
  38     1.782       84.9516        0.0113       97.9793       97.9906      13.039061       0.55903
  37     2.292       84.9622        0.0147       97.9498       97.9645      13.002256       0.60959
  36     2.964       84.9798        0.0191       97.9088       97.9280      12.948158       0.67909
  35     3.853       85.0080        0.0250       97.8503       97.8753      12.867327       0.76710
  34     5.035       85.0504        0.0327       97.7680       97.8007      12.750360       0.83556
  33     6.613       85.1095        0.0431       97.6562       97.6993      12.589797       0.85837
  32     8.786       85.1865        0.0570       97.5107       97.5677      12.381204       0.81010
  31     11.80       85.2870        0.0770       97.3179       97.3948      12.107873       0.76524
  30     15.07       85.3835        0.0984       97.1283       97.2267      11.843226       0.68327
  29     18.79       85.4823        0.1225       96.9300       97.0525      11.570258       0.61890
  28     23.16       85.5859        0.1507       96.7166       96.8672      11.281353       0.55865
  27     28.12       85.6906        0.1829       96.4935       96.6764      10.985727       0.50254
  26     33.73       85.7882        0.2189       96.2731       96.4920      10.703833       0.42384
  25     40.54       85.8832        0.2625       96.0408       96.3033      10.420009       0.35212
  24     48.69       85.9757        0.3150       95.7946       96.1096      10.133826       0.29615
  23     57.69       86.0560        0.3727       95.5573       95.9300       9.873999       0.24355
  22     68.43       86.1285        0.4415       95.3106       95.7521       9.623650       0.19681
  21     81.20       86.1831        0.5235       95.0644       95.5879       9.404817       0.14460
  20     96.49       86.2189        0.6215       94.8153       95.4368       9.217831       0.10320
  19     114.6       86.2562        0.7387       94.5412       95.2798       9.023681       0.09065
  18     136.5       86.2886        0.8776       94.2324       95.1100       8.821446       0.07776
  17     162.9       86.3166        1.0431       93.8760       94.9190       8.602459       0.07000
  16     196.4       86.3302        1.2577       93.4358       94.6935       8.363345       0.06019
  15     218.7       86.3311        1.3987       93.1534       94.5521       8.221011       0.05404
  14     243.0       86.3287        1.5519       92.8483       94.4002       8.071533       0.05184
  13     269.0       86.3227        1.7179       92.5207       94.2386       7.915925       0.05048
  12     297.5       86.3133        1.8974       92.1695       94.0668       7.753539       0.04816
  11     328.5       86.3025        2.0913       91.7915       93.8828       7.580352       0.04709
  10     361.9       86.2906        2.3001       91.3863       93.6865       7.395807       0.04669
   9     398.1       86.2783        2.5249       90.9527       93.4776       7.199277       0.04579
   8     437.6       86.2668        2.7663       90.4883       93.2546       6.987807       0.04521
   7     480.5       86.2569        3.0252       89.9918       93.0169       6.760069       0.04473
   6     533.0       86.2499        3.3440       89.3799       92.7238       6.473944       0.04603
   5     589.8       86.2515        3.6878       88.7161       92.4039       6.152403       0.04773
   4     651.6       86.2695        4.0574       87.9901       92.0474       5.777918       0.05121
   3     718.7       86.3131        4.4537       87.1934       91.6471       5.334013       0.05579
   2     792.3       86.3998        4.8768       86.3116       91.1885       4.788692       0.06254
   1     891.5       86.6061        5.4447       85.0698       90.5146       3.908493       0.07490
   0    1013.0       87.0240        6.1211       83.5164       89.6374       2.613388       0.08993



 Wavenumbers: 16000. - 22650. cm-1, ATM      1
 LEVEL PRESSURE   UPWARD FLUX   DIFDOWN FLUX  DIRDOWN FLUX  DOWNWARD FLUX   NET FLUX    HEATING RATE
          mb          W/m2          W/m2          W/m2        W/m2          W/m2       degree/day
  51    .06700      141.8327        0.0000      156.3892      156.3892      14.556532       0.00000
  50    .07753      141.8327        0.0004      156.3887      156.3891      14.556383       0.11908
  49    .09103      141.8327        0.0009      156.3879      156.3888      14.556167       0.13506
  48    0.1069      141.8327        0.0015      156.3871      156.3885      14.555878       0.15402
  47    0.1255      141.8327        0.0021      156.3861      156.3882      14.555491       0.17556
  46    0.1487      141.8328        0.0030      156.3847      156.3877      14.554920       0.20803
  45    0.1794      141.8329        0.0041      156.3828      156.3869      14.554028       0.24495
  44    0.2165      141.8331        0.0054      156.3805      156.3859      14.552817       0.27529
  43    0.2613      141.8335        0.0070      156.3776      156.3847      14.551176       0.30949
  42    0.3336      141.8343        0.0097      156.3726      156.3823      14.548054       0.36396
  41    0.4307      141.8355        0.0132      156.3657      156.3789      14.543348       0.40913
  40    0.5894      141.8382        0.0189      156.3537      156.3726      14.534374       0.47723
  39     1.339      141.8613        0.0459      156.2834      156.3293      14.468072       0.74644
  38     1.782      141.8825        0.0618      156.2324      156.2941      14.411591       1.07532
  37     2.292      141.9144        0.0801      156.1641      156.2442      14.329833       1.35412
  36     2.964      141.9673        0.1042      156.0605      156.1647      14.197384       1.66264
  35     3.853      142.0529        0.1361      155.9041      156.0401      13.987217       1.99452
  34     5.035      142.1820        0.1783      155.6774      155.8556      13.673661       2.23992
  33     6.613      142.3623        0.2346      155.3656      155.6002      13.237899       2.32958
  32     8.786      142.5973        0.3105      154.9577      155.2681      12.670860       2.20218
  31     11.80      142.9031        0.4188      154.4153      154.8341      11.930993       2.07139
  30     15.07      143.1961        0.5349      153.8804      154.4153      11.219237       1.83762
  29     18.79      143.4953        0.6659      153.3191      153.9850      10.489724       1.65403
  28     23.16      143.8081        0.8187      152.7126      153.5313       9.723161       1.48228
  27     28.12      144.1230        0.9932      152.0755      153.0687       8.945704       1.32162
  26     33.73      144.4138        1.1882      151.4409      152.6292       8.215406       1.09802
  25     40.54      144.6938        1.4237      150.7637      152.1874       7.493578       0.89551
  24     48.69      144.9621        1.7072      150.0339      151.7411       6.778924       0.73955
  23     57.69      145.1900        2.0183      149.3151      151.3335       6.143498       0.59562
  22     68.43      145.3891        2.3884      148.5476      150.9361       5.546974       0.46895
  21     81.20      145.5273        2.8291      147.7517      150.5808       5.053489       0.32609
  20     96.49      145.6002        3.3537      146.9127      150.2664       4.666213       0.21375
  19     114.6      145.6389        3.9748      145.9763      149.9512       4.312238       0.16528
  18     136.5      145.6530        4.7082      144.9088      149.6171       3.964015       0.13390
  17     162.9      145.6409        5.5775      143.6786      149.2562       3.615205       0.11149
  16     196.4      145.5628        6.6992      142.1652      148.8644       3.301555       0.07895
  15     218.7      145.4886        7.4321      141.2037      148.6358       3.147200       0.05860
  14     243.0      145.3973        8.2255      140.1760      148.4015       3.004179       0.04960
  13     269.0      145.2872        9.0813      139.0812      148.1625       2.875265       0.04182
  12     297.5      145.1576       10.0016      137.9173      147.9190       2.761358       0.03378
  11     328.5      145.0124       10.9908      136.6735      147.6644       2.651967       0.02974
  10     361.9      144.8512       12.0498      135.3491      147.3989       2.547729       0.02637
   9     398.1      144.6731       13.1825      133.9392      147.1217       2.448578       0.02310
   8     437.6      144.4788       14.3910      132.4405      146.8315       2.352652       0.02051
   7     480.5      144.2673       15.6774      130.8509      146.5283       2.260969       0.01801
   6     533.0      144.0041       17.2484      128.9156      146.1641       2.159956       0.01625
   5     589.8      143.7194       18.9268      126.8527      145.7795       2.060123       0.01482
   4     651.6      143.4142       20.7141      124.6587      145.3728       1.958539       0.01389
   3     718.7      143.0893       22.6119      122.3305      144.9424       1.853123       0.01325
   2     792.3      142.7471       24.6189      119.8675      144.4864       1.739318       0.01305
   1     891.5      142.2990       27.2858      116.5881      143.8738       1.574836       0.01400
   0    1013.0      141.7840       30.4244      112.7169      143.1414       1.357350       0.01510



 Wavenumbers: 22650. - 29000. cm-1, ATM      1
 LEVEL PRESSURE   UPWARD FLUX   DIFDOWN FLUX  DIRDOWN FLUX  DOWNWARD FLUX   NET FLUX    HEATING RATE
          mb          W/m2          W/m2          W/m2        W/m2          W/m2       degree/day
  51    .06700       58.6820        0.0000       59.0156       59.0156       0.333635       0.00000
  50    .07753       58.6819        0.0005       59.0151       59.0155       0.333635      -0.00000
  49    .09103       58.6818        0.0010       59.0144       59.0154       0.333635      -0.00000
  48    0.1069       58.6816        0.0017       59.0136       59.0153       0.333635       0.00000
  47    0.1255       58.6815        0.0025       59.0127       59.0151       0.333635       0.00000
  46    0.1487       58.6813        0.0035       59.0115       59.0149       0.333635      -0.00000
  45    0.1794       58.6811        0.0048       59.0099       59.0147       0.333635       0.00000
  44    0.2165       58.6808        0.0063       59.0080       59.0144       0.333635       0.00000
  43    0.2613       58.6804        0.0082       59.0058       59.0140       0.333635       0.00000
  42    0.3336       58.6798        0.0113       59.0022       59.0134       0.333635       0.00000
  41    0.4307       58.6790        0.0154       58.9973       59.0127       0.333635       0.00000
  40    0.5894       58.6777        0.0220       58.9894       59.0114       0.333635       0.00000
  39     1.339       58.6717        0.0535       58.9518       59.0053       0.333635      -0.00000
  38     1.782       58.6681        0.0720       58.9297       59.0017       0.333635       0.00000
  37     2.292       58.6640        0.0934       58.9042       58.9976       0.333635       0.00000
  36     2.964       58.6586        0.1216       58.8706       58.9922       0.333635      -0.00000
  35     3.853       58.6514        0.1587       58.8264       58.9851       0.333635       0.00000
  34     5.035       58.6419        0.2080       58.7676       58.9756       0.333635      -0.00000
  33     6.613       58.6293        0.2738       58.6891       58.9629       0.333635       0.00000
  32     8.786       58.6122        0.3624       58.5834       58.9458       0.333635       0.00000
  31     11.80       58.5878        0.4890       58.4325       58.9215       0.333635       0.00000
  30     15.07       58.5617        0.6247       58.2706       58.8953       0.333635       0.00000
  29     18.79       58.5323        0.7776       58.0882       58.8659       0.333635      -0.00000
  28     23.16       58.4979        0.9559       57.8757       58.8316       0.333635       0.00000
  27     28.12       58.4588        1.1591       57.6333       58.7924       0.333635       0.00000
  26     33.73       58.4152        1.3857       57.3631       58.7488       0.333635       0.00000
  25     40.54       58.3626        1.6584       57.0379       58.6963       0.333635      -0.00000
  24     48.69       58.2996        1.9854       56.6479       58.6333       0.333635       0.00000
  23     57.69       58.2309        2.3424       56.2221       58.5645       0.333635       0.00000
  22     68.43       58.1495        2.7646       55.7186       58.4832       0.333635       0.00000
  21     81.20       58.0534        3.2632       55.1239       58.3871       0.333635       0.00000
  20     96.49       57.9401        3.8510       54.4228       58.2738       0.333635      -0.00000
  19     114.6       57.8073        4.5400       53.6010       58.1410       0.333635       0.00000
  18     136.5       57.6522        5.3441       52.6418       57.9859       0.333635      -0.00000
  17     162.9       57.4709        6.2842       51.5204       57.8045       0.333635       0.00000
  16     196.4       57.2410        7.4752       50.0995       57.5747       0.333635      -0.00000
  15     218.7       57.0933        8.2406       49.1863       57.4269       0.333635       0.00000
  14     243.0       56.9354        9.0577       48.2114       57.2691       0.333635       0.00000
  13     269.0       56.7676        9.9261       47.1752       57.1013       0.333635       0.00000
  12     297.5       56.5900       10.8449       46.0787       56.9237       0.333635      -0.00000
  11     328.5       56.4023       11.8156       44.9204       56.7359       0.333635       0.00000
  10     361.9       56.2049       12.8354       43.7032       56.5386       0.333635      -0.00000
   9     398.1       55.9979       13.9045       42.4271       56.3316       0.333635       0.00000
   8     437.6       55.7817       15.0206       41.0947       56.1153       0.333635       0.00000
   7     480.5       55.5566       16.1812       39.7090       55.8903       0.333635       0.00000
   6     533.0       55.2889       17.5606       38.0619       55.6225       0.333635       0.00000
   5     589.8       55.0113       18.9892       36.3558       55.3450       0.333635       0.00000
   4     651.6       54.7251       20.4606       34.5981       55.0587       0.333635       0.00000
   3     718.7       54.4314       21.9681       32.7969       54.7650       0.333635      -0.00000
   2     792.3       54.1318       23.5036       30.9619       54.4654       0.333635       0.00000
   1     891.5       53.7514       25.4491       28.6359       54.0850       0.333635      -0.00000
   0    1013.0       53.3273       27.6115       26.0494       53.6610       0.333635       0.00000



 Wavenumbers: 29000. - 38000. cm-1, ATM      1
 LEVEL PRESSURE   UPWARD FLUX   DIFDOWN FLUX  DIRDOWN FLUX  DOWNWARD FLUX   NET FLUX    HEATING RATE
          mb          W/m2          W/m2          W/m2        W/m2          W/m2       degree/day
  51    .06700        8.7676        0.0000       20.8114       20.8114      12.043771       0.00000
  50    .07753        8.7674        0.0003       20.8070       20.8074      12.039964       3.05155
  49    .09103        8.7672        0.0007       20.8009       20.8016      12.034427       3.46085
  48    0.1069        8.7669        0.0012       20.7928       20.7939      12.027017       3.94429
  47    0.1255        8.7666        0.0017       20.7820       20.7837      12.017112       4.49034
  46    0.1487        8.7663        0.0024       20.7665       20.7688      12.002549       5.30844
  45    0.1794        8.7658        0.0033       20.7424       20.7457      11.979884       6.22204
  44    0.2165        8.7653        0.0044       20.7103       20.7147      11.949362       6.94340
  43    0.2613        8.7647        0.0056       20.6675       20.6731      11.908367       7.72732
  42    0.3336        8.7638        0.0077       20.5880       20.5957      11.831806       8.92625
  41    0.4307        8.7628        0.0104       20.4722       20.4826      11.719853       9.73402
  40    0.5894        8.7612        0.0147       20.2637       20.2784      11.517170      10.77846
  39     1.339        8.7578        0.0331       19.0984       19.1315      10.373693      12.87347
  38     1.782        8.7583        0.0427       18.4394       18.4821       9.723768      12.37351
  37     2.292        8.7610        0.0530       17.7714       17.8244       9.063424      10.93703
  36     2.964        8.7675        0.0657       17.0421       17.1078       8.340300       9.07739
  35     3.853        8.7804        0.0816       16.2679       16.3495       7.569121       7.31863
  34     5.035        8.8015        0.1018       15.4803       15.5821       6.780628       5.63267
  33     6.613        8.8322        0.1276       14.7157       14.8433       6.011046       4.11418
  32     8.786        8.8728        0.1614       13.9936       14.1549       5.282100       2.83096
  31     11.80        8.9258        0.2084       13.2835       13.4920       4.566142       2.00446
  30     15.07        8.9769        0.2573       12.7394       12.9966       4.019673       1.41088
  29     18.79        9.0297        0.3114       12.2666       12.5780       3.548230       1.06890
  28     23.16        9.0858        0.3729       11.8300       12.2029       3.117095       0.83368
  27     28.12        9.1433        0.4418       11.4279       11.8697       2.726405       0.66415
  26     33.73        9.1963        0.5178       11.0695       11.5872       2.390901       0.50444
  25     40.54        9.2467        0.6085       10.7209       11.3294       2.082734       0.38232
  24     48.69        9.2942        0.7162       10.3742       11.0904       1.796177       0.29654
  23     57.69        9.3332        0.8328       10.0549       10.8877       1.554415       0.22662
  22     68.43        9.3648        0.9695        9.7327       10.7022       1.337375       0.17062
  21     81.20        9.3800        1.1309        9.4134       10.5443       1.164305       0.11436
  20     96.49        9.3769        1.3207        9.0887       10.4094       1.032558       0.07272
  19     114.6        9.3635        1.5400        8.7388       10.2788       0.915284       0.05476
  18     136.5        9.3428        1.7907        8.3549       10.1456       0.802757       0.04327
  17     162.9        9.3151        2.0765        7.9311       10.0076       0.692578       0.03522
  16     196.4        9.2682        2.4305        7.4333        9.8638       0.595597       0.02441
  15     218.7        9.2345        2.6532        7.1296        9.7828       0.548297       0.01796
  14     243.0        9.1975        2.8860        6.8161        9.7021       0.504619       0.01515
  13     269.0        9.1570        3.1280        6.4944        9.6224       0.465399       0.01272
  12     297.5        9.1132        3.3782        6.1659        9.5441       0.430825       0.01025
  11     328.5        9.0675        3.6356        5.8296        9.4652       0.397722       0.00900
  10     361.9        9.0204        3.8977        5.4889        9.3866       0.366238       0.00797
   9     398.1        8.9719        4.1639        5.1443        9.3083       0.336401       0.00695
   8     437.6        8.9226        4.4329        4.7973        9.2302       0.307639       0.00615
   7     480.5        8.8728        4.7024        4.4507        9.1531       0.280333       0.00536
   6     533.0        8.8158        5.0092        4.0571        9.0663       0.250572       0.00479
   5     589.8        8.7598        5.3112        3.6703        8.9815       0.221754       0.00428
   4     651.6        8.7054        5.6061        3.2928        8.8990       0.193553       0.00386
   3     718.7        8.6534        5.8909        2.9284        8.8193       0.165930       0.00347
   2     792.3        8.6046        6.1623        2.5813        8.7435       0.138890       0.00310
   1     891.5        8.5489        6.4809        2.1734        8.6544       0.105499       0.00284
   0    1013.0        8.4958        6.8006        1.7638        8.5645       0.068616       0.00256



 Wavenumbers: 38000. - 50000. cm-1, ATM      1
 LEVEL PRESSURE   UPWARD FLUX   DIFDOWN FLUX  DIRDOWN FLUX  DOWNWARD FLUX   NET FLUX    HEATING RATE
          mb          W/m2          W/m2          W/m2        W/m2          W/m2       degree/day
  51    .06700        0.0061        0.0000        1.2836        1.2836       1.277518       0.00000
  50    .07753        0.0061        0.0001        1.2812        1.2812       1.275183       1.87150
  49    .09103        0.0060        0.0002        1.2777        1.2778       1.271851       2.08247
  48    0.1069        0.0059        0.0002        1.2731        1.2734       1.267473       2.33059
  47    0.1255        0.0058        0.0004        1.2672        1.2675       1.261717       2.60908
  46    0.1487        0.0057        0.0005        1.2586        1.2591       1.253391       3.03499
  45    0.1794        0.0055        0.0007        1.2455        1.2462       1.240623       3.50520
  44    0.2165        0.0054        0.0009        1.2282        1.2291       1.223697       3.85037
  43    0.2613        0.0052        0.0011        1.2054        1.2065       1.201348       4.21261
  42    0.3336        0.0049        0.0015        1.1639        1.1654       1.160524       4.75970
  41    0.4307        0.0045        0.0020        1.1051        1.1070       1.102565       5.03943
  40    0.5894        0.0039        0.0026        1.0039        1.0064       1.002524       5.32007
  39     1.339        0.0022        0.0035        0.5438        0.5473       0.545105       5.14971
  38     1.782        0.0016        0.0032        0.3635        0.3666       0.365006       3.42879
  37     2.292        0.0012        0.0027        0.2356        0.2383       0.237058       2.11916
  36     2.964        0.0009        0.0022        0.1455        0.1477       0.146786       1.13318
  35     3.853        0.0006        0.0017        0.0858        0.0875       0.086906       0.56828
  34     5.035        0.0004        0.0013        0.0488        0.0501       0.049701       0.26578
  33     6.613        0.0003        0.0010        0.0273        0.0282       0.027974       0.11615
  32     8.786        0.0002        0.0007        0.0144        0.0151       0.014928       0.05067
  31     11.80        0.0001        0.0004        0.0065        0.0070       0.006903       0.02247
  30     15.07        0.0000        0.0003        0.0031        0.0034       0.003329       0.00923
  29     18.79        0.0000        0.0002        0.0014        0.0016       0.001583       0.00396
  28     23.16        0.0000        0.0001        0.0006        0.0007       0.000720       0.00167
  27     28.12        0.0000        0.0001        0.0003        0.0003       0.000317       0.00069
  26     33.73        0.0000        0.0000        0.0001        0.0001       0.000140       0.00027
  25     40.54        0.0000        0.0000        0.0000        0.0001       0.000057       0.00010
  24     48.69        0.0000        0.0000        0.0000        0.0000       0.000021       0.00004
  23     57.69        0.0000        0.0000        0.0000        0.0000       0.000008       0.00001
  22     68.43        0.0000        0.0000        0.0000        0.0000       0.000003       0.00000
  21     81.20        0.0000        0.0000        0.0000        0.0000       0.000001       0.00000
  20     96.49        0.0000        0.0000        0.0000        0.0000       0.000000       0.00000
  19     114.6        0.0000        0.0000        0.0000        0.0000       0.000000       0.00000
  18     136.5        0.0000        0.0000        0.0000        0.0000       0.000000       0.00000
  17     162.9        0.0000        0.0000        0.0000        0.0000       0.000000       0.00000
  16     196.4        0.0000        0.0000        0.0000        0.0000       0.000000       0.00000
  15     218.7        0.0000        0.0000        0.0000        0.0000       0.000000       0.00000
  14     243.0        0.0000        0.0000        0.0000        0.0000       0.000000       0.00000
  13     269.0        0.0000        0.0000        0.0000        0.0000       0.000000       0.00000
  12     297.5        0.0000        0.0000        0.0000        0.0000       0.000000       0.00000
  11     328.5        0.0000        0.0000        0.0000        0.0000       0.000000       0.00000
  10     361.9        0.0000        0.0000        0.0000        0.0000       0.000000       0.00000
   9     398.1        0.0000        0.0000        0.0000        0.0000       0.000000       0.00000
   8     437.6        0.0000        0.0000        0.0000        0.0000       0.000000       0.00000
   7     480.5        0.0000        0.0000        0.0000        0.0000       0.000000       0.00000
   6     533.0        0.0000        0.0000        0.0000        0.0000       0.000000       0.00000
   5     589.8        0.0000        0.0000        0.0000        0.0000       0.000000       0.00000
   4     651.6        0.0000        0.0000        0.0000        0.0000       0.000000       0.00000
   3     718.7        0.0000        0.0000        0.0000        0.0000       0.000000       0.00000
   2     792.3        0.0000        0.0000        0.0000        0.0000       0.000000       0.00000
   1     891.5        0.0000        0.0000        0.0000        0.0000       0.000000       0.00000
   0    1013.0        0.0000        0.0000        0.0000        0.0000       0.000000       0.00000



 Wavenumbers:   820. -  2600. cm-1, ATM      1
 LEVEL PRESSURE   UPWARD FLUX   DIFDOWN FLUX  DIRDOWN FLUX  DOWNWARD FLUX   NET FLUX    HEATING RATE
          mb          W/m2          W/m2          W/m2        W/m2          W/m2       degree/day
  51    .06700        0.0289        0.0000        6.0047        6.0047       5.975714       0.00000
  50    .07753        0.0289        0.0000        6.0009        6.0009       5.971925       3.03625
  49    .09103        0.0289        0.0000        6.0001        6.0001       5.971124       0.50077
  48    0.1069        0.0289        0.0000        5.9992        5.9992       5.970236       0.47283
  47    0.1255        0.0289        0.0000        5.9982        5.9982       5.969239       0.45193
  46    0.1487        0.0289        0.0000        5.9970        5.9970       5.968040       0.43703
  45    0.1794        0.0289        0.0000        5.9955        5.9955       5.966544       0.41071
  44    0.2165        0.0289        0.0000        5.9939        5.9939       5.964975       0.35685
  43    0.2613        0.0289        0.0000        5.9923        5.9923       5.963352       0.30609
  42    0.3336        0.0289        0.0000        5.9900        5.9900       5.961046       0.26878
  41    0.4307        0.0289        0.0000        5.9873        5.9873       5.958355       0.23403
  40    0.5894        0.0289        0.0000        5.9831        5.9831       5.954149       0.22363
  39     1.339        0.0289        0.0000        5.9638        5.9638       5.934814       0.21768
  38     1.782        0.0289        0.0000        5.9531        5.9531       5.924128       0.20344
  37     2.292        0.0289        0.0000        5.9411        5.9411       5.912157       0.19828
  36     2.964        0.0289        0.0000        5.9259        5.9259       5.896926       0.19119
  35     3.853        0.0289        0.0000        5.9065        5.9065       5.877574       0.18366
  34     5.035        0.0289        0.0000        5.8820        5.8820       5.853035       0.17529
  33     6.613        0.0289        0.0000        5.8502        5.8502       5.821279       0.16977
  32     8.786        0.0289        0.0000        5.8081        5.8081       5.779142       0.16365
  31     11.80        0.0289        0.0000        5.7523        5.7523       5.723403       0.15605
  30     15.07        0.0289        0.0000        5.7031        5.7031       5.674203       0.12703
  29     18.79        0.0289        0.0000        5.6623        5.6623       5.633371       0.09258
  28     23.16        0.0289        0.0000        5.6309        5.6309       5.601925       0.06081
  27     28.12        0.0289        0.0000        5.6079        5.6079       5.578990       0.03899
  26     33.73        0.0289        0.0000        5.5896        5.5896       5.560708       0.02749
  25     40.54        0.0289        0.0000        5.5707        5.5707       5.541781       0.02348
  24     48.69        0.0289        0.0000        5.5485        5.5485       5.519570       0.02298
  23     57.69        0.0289        0.0000        5.5237        5.5237       5.494814       0.02320
  22     68.43        0.0289        0.0000        5.4938        5.4938       5.464881       0.02353
  21     81.20        0.0289        0.0000        5.4586        5.4586       5.429635       0.02329
  20     96.49        0.0289        0.0000        5.4172        5.4172       5.388276       0.02283
  19     114.6        0.0289        0.0000        5.3699        5.3699       5.341009       0.02207
  18     136.5        0.0289        0.0000        5.3170        5.3170       5.288085       0.02035
  17     162.9        0.0289        0.0000        5.2573        5.2573       5.228340       0.01910
  16     196.4        0.0289        0.0000        5.1824        5.1824       5.153492       0.01884
  15     218.7        0.0289        0.0000        5.1304        5.1305       5.101517       0.01973
  14     243.0        0.0290        0.0000        5.0656        5.0657       5.036712       0.02248
  13     269.0        0.0290        0.0000        4.9828        4.9829       4.953894       0.02687
  12     297.5        0.0290        0.0000        4.8769        4.8769       4.847950       0.03142
  11     328.5        0.0290        0.0000        4.7629        4.7629       4.733920       0.03100
  10     361.9        0.0290        0.0000        4.6474        4.6474       4.618415       0.02922
   9     398.1        0.0290        0.0000        4.5318        4.5318       4.502792       0.02694
   8     437.6        0.0291        0.0000        4.4077        4.4078       4.378714       0.02653
   7     480.5        0.0291        0.0000        4.2646        4.2646       4.235533       0.02812
   6     533.0        0.0292        0.0000        4.0643        4.0643       4.035179       0.03223
   5     589.8        0.0292        0.0000        3.8252        3.8252       3.795971       0.03551
   4     651.6        0.0294        0.0001        3.5635        3.5636       3.534196       0.03580
   3     718.7        0.0296        0.0001        3.3497        3.3498       3.320213       0.02689
   2     792.3        0.0299        0.0001        3.2023        3.2024       3.172457       0.01695
   1     891.5        0.0306        0.0001        3.0441        3.0441       3.013479       0.01353
   0    1013.0        0.0323        0.0001        2.8329        2.8330       2.800686       0.01478

  Modules and versions used in this calculation:

       rrtmg_sw.1col.f90:  $Revision$                    rrtmg_sw_init.f90:  $Revision$        
     rrtmgsw_cldprop.f90:  $Revision$                  rrtmgsw_cldprmc.f90:  NOT USED          
     rrtmg_sw_reftra.f90:  $Revision$                  rrtmg_sw_spcvrt.f90:  NOT USED          
     rrtmg_sw_spcvmc.f90:  NOT USED                    rrtmgsw_setcoef.f90:  NOT USED          
     rrtmg_sw_taumol.f90:  $Revision$                  rrtmg_sw_vrtqdr.f90:  NOT USED          
                rrtatm.f:  NOT USED                             util_xxx.f:  NOT USED          
                 extra.f:  NOT USED                       rrtmg_sw_k_g.f90:  $Revision$        

