

 Wavenumbers:   820. - 50000. cm-1, ATM      1
 LEVEL PRESSURE   UPWARD FLUX   DIFDOWN FLUX  DIRDOWN FLUX  DOWNWARD FLUX   NET FLUX    HEATING RATE
          mb          W/m2          W/m2          W/m2        W/m2          W/m2       degree/day
  51    .06700      387.4326        0.0000      617.8126      617.8126     230.379980       0.00000
  50    .07753      387.4322        0.0013      617.7946      617.7960     230.363735      13.02086
  49    .09103      387.4318        0.0030      617.7775      617.7806     230.348803       9.33288
  48    0.1069      387.4313        0.0050      617.7577      617.7627     230.331403       9.26215
  47    0.1255      387.4308        0.0072      617.7334      617.7407     230.309902       9.74736
  46    0.1487      387.4302        0.0100      617.7002      617.7102     230.280031      10.88828
  45    0.1794      387.4294        0.0139      617.6511      617.6650     230.235551      12.21068
  44    0.2165      387.4287        0.0184      617.5882      617.6066     230.177940      13.10555
  43    0.2613      387.4279        0.0238      617.5072      617.5310     230.103082      14.11043
  42    0.3336      387.4270        0.0326      617.3618      617.3945     229.967417      15.81728
  41    0.4307      387.4263        0.0442      617.1560      617.2003     229.774023      16.81509
  40    0.5894      387.4260        0.0630      616.7960      616.8590     229.433069      18.13152
  39     1.339      387.4425        0.1478      614.9341      615.0819     227.639417      20.19326
  38     1.782      387.4647        0.1955      613.9539      614.1495     226.684772      18.17491
  37     2.292      387.5017        0.2498      612.9896      613.2395     225.737815      15.68409
  36     2.964      387.5672        0.3204      611.9376      612.2580     224.690775      13.14351
  35     3.853      387.6775        0.4130      610.7776      611.1906     223.513091      11.17643
  34     5.035      387.8474        0.5351      609.5023      610.0374     222.190060       9.45118
  33     6.613      388.0866        0.6972      608.1092      608.8064     220.719790       7.86007
  32     8.786      388.3983        0.9147      606.5799      607.4947     219.096381       6.30473
  31     11.80      388.8016        1.2244      604.7945      606.0189     217.217268       5.26092
  30     15.07      389.1852        1.5549      603.1819      604.7368     215.551580       4.30048
  29     18.79      389.5743        1.9266      601.5813      603.5080     213.933659       3.66832
  28     23.16      389.9779        2.3587      599.9148      602.2734     212.295526       3.16762
  27     28.12      390.3798        2.8504      598.2016      601.0520     210.672273       2.75942
  26     33.73      390.7422        3.3986      596.5004      599.8989     209.156709       2.27869
  25     40.54      391.0785        4.0585      594.6694      598.7280     207.649495       1.86987
  24     48.69      391.3854        4.8505      592.6745      597.5250     206.139653       1.56245
  23     57.69      391.6268        5.7162      590.6752      596.3914     204.764543       1.28896
  22     68.43      391.8106        6.7418      588.4891      595.2308     203.420253       1.05679
  21     81.20      391.8853        7.9577      586.1292      594.0869     202.201534       0.80531
  20     96.49      391.8406        9.3973      583.5455      592.9428     201.102161       0.60677
  19     114.6      391.7373       11.0912      580.6037      591.6950     199.957641       0.53441
  18     136.5      391.5699       13.0746      577.2498      590.3245     198.754534       0.46262
  17     162.9      391.3319       15.4023      573.3452      588.7475     197.415548       0.42799
  16     196.4      390.9346       18.3706      568.2958      586.6664     195.731819       0.42381
  15     218.7      390.6438       20.2898      564.6546      584.9444     194.300659       0.54336
  14     243.0      390.3172       22.3482      560.1198      582.4680     192.150805       0.74564
  13     269.0      389.9539       24.5473      554.4170      578.9642     189.010342       1.01875
  12     297.5      389.5555       26.8877      547.6476      574.5353     184.979771       1.19542
  11     328.5      389.1299       29.3759      540.3696      569.7455     180.615622       1.18660
  10     361.9      388.6805       32.0081      532.4577      564.4658     175.785311       1.22212
   9     398.1      388.2112       34.7887      523.7801      558.5687     170.357532       1.26455
   8     437.6      387.7320       37.7164      514.3087      552.0251     164.293098       1.29661
   7     480.5      387.2518       40.7894      504.2208      545.0103     157.758485       1.28337
   6     533.0      386.7225       44.4838      491.9163      536.4001     149.677589       1.29996
   5     589.8      386.2609       48.3605      478.6070      526.9675     140.706624       1.33159
   4     651.6      385.9690       52.4067      463.7318      516.1385     130.169439       1.44099
   3     718.7      385.9709       56.6128      447.7456      504.3584     118.387450       1.48067
   2     792.3      386.5489       60.9593      430.3031      491.2624     104.713458       1.56825
   1     891.5      388.8002       66.5711      406.7891      473.3602      84.559977       1.71496
   0    1013.0      395.0970       72.9542      380.4702      453.4243      58.327325       1.82147



 Wavenumbers:  2600. -  3250. cm-1, ATM      1
 LEVEL PRESSURE   UPWARD FLUX   DIFDOWN FLUX  DIRDOWN FLUX  DOWNWARD FLUX   NET FLUX    HEATING RATE
          mb          W/m2          W/m2          W/m2        W/m2          W/m2       degree/day
  51    .06700        0.0213        0.0000        5.4450        5.4450       5.423771       0.00000
  50    .07753        0.0213        0.0000        5.4450        5.4450       5.423763       0.00640
  49    .09103        0.0213        0.0000        5.4450        5.4450       5.423753       0.00627
  48    0.1069        0.0213        0.0000        5.4450        5.4450       5.423741       0.00613
  47    0.1255        0.0213        0.0000        5.4450        5.4450       5.423728       0.00599
  46    0.1487        0.0213        0.0000        5.4450        5.4450       5.423711       0.00608
  45    0.1794        0.0213        0.0000        5.4450        5.4450       5.423689       0.00625
  44    0.2165        0.0213        0.0000        5.4449        5.4449       5.423662       0.00612
  43    0.2613        0.0213        0.0000        5.4449        5.4449       5.423630       0.00600
  42    0.3336        0.0213        0.0000        5.4448        5.4448       5.423577       0.00617
  41    0.4307        0.0213        0.0000        5.4448        5.4448       5.423506       0.00620
  40    0.5894        0.0213        0.0000        5.4446        5.4446       5.423386       0.00637
  39     1.339        0.0213        0.0000        5.4439        5.4439       5.422678       0.00797
  38     1.782        0.0213        0.0000        5.4434        5.4434       5.422135       0.01034
  37     2.292        0.0213        0.0000        5.4427        5.4427       5.421420       0.01186
  36     2.964        0.0213        0.0000        5.4416        5.4416       5.420381       0.01304
  35     3.853        0.0213        0.0000        5.4402        5.4402       5.418904       0.01402
  34     5.035        0.0213        0.0000        5.4381        5.4381       5.416848       0.01468
  33     6.613        0.0213        0.0000        5.4353        5.4353       5.414067       0.01487
  32     8.786        0.0213        0.0000        5.4317        5.4317       5.410435       0.01411
  31     11.80        0.0213        0.0000        5.4269        5.4269       5.405655       0.01338
  30     15.07        0.0213        0.0000        5.4224        5.4224       5.401129       0.01169
  29     18.79        0.0213        0.0000        5.4180        5.4180       5.396718       0.01000
  28     23.16        0.0213        0.0000        5.4135        5.4135       5.392233       0.00867
  27     28.12        0.0213        0.0000        5.4088        5.4088       5.387586       0.00790
  26     33.73        0.0213        0.0000        5.4036        5.4036       5.382347       0.00788
  25     40.54        0.0212        0.0000        5.3966        5.3967       5.375408       0.00861
  24     48.69        0.0212        0.0000        5.3872        5.3872       5.365935       0.00980
  23     57.69        0.0212        0.0000        5.3754        5.3754       5.354156       0.01104
  22     68.43        0.0212        0.0000        5.3599        5.3599       5.338675       0.01217
  21     81.20        0.0212        0.0000        5.3401        5.3401       5.318852       0.01310
  20     96.49        0.0212        0.0000        5.3155        5.3155       5.294299       0.01355
  19     114.6        0.0212        0.0000        5.2851        5.2851       5.263907       0.01419
  18     136.5        0.0212        0.0000        5.2499        5.2500       5.228765       0.01351
  17     162.9        0.0212        0.0001        5.2102        5.2103       5.189086       0.01268
  16     196.4        0.0212        0.0001        5.1624        5.1625       5.141250       0.01204
  15     218.7        0.0212        0.0001        5.1299        5.1300       5.108787       0.01233
  14     243.0        0.0212        0.0001        5.0905        5.0906       5.069419       0.01365
  13     269.0        0.0212        0.0001        5.0415        5.0416       5.020425       0.01589
  12     297.5        0.0212        0.0001        4.9802        4.9803       4.959088       0.01819
  11     328.5        0.0212        0.0001        4.9068        4.9069       4.885660       0.01996
  10     361.9        0.0212        0.0001        4.8158        4.8159       4.794687       0.02302
   9     398.1        0.0213        0.0001        4.7002        4.7003       4.679051       0.02694
   8     437.6        0.0213        0.0001        4.5517        4.5518       4.530486       0.03176
   7     480.5        0.0214        0.0001        4.3724        4.3726       4.351156       0.03522
   6     533.0        0.0215        0.0002        4.1337        4.1339       4.112357       0.03842
   5     589.8        0.0217        0.0002        3.8659        3.8661       3.844400       0.03977
   4     651.6        0.0220        0.0002        3.5691        3.5693       3.547312       0.04063
   3     718.7        0.0224        0.0002        3.2430        3.2431       3.220696       0.04105
   2     792.3        0.0232        0.0002        2.8706        2.8708       2.847562       0.04279
   1     891.5        0.0250        0.0001        2.3766        2.3767       2.351710       0.04219
   0    1013.0        0.0294        0.0001        1.8746        1.8747       1.845271       0.03516



 Wavenumbers:  3250. -  4000. cm-1, ATM      1
 LEVEL PRESSURE   UPWARD FLUX   DIFDOWN FLUX  DIRDOWN FLUX  DOWNWARD FLUX   NET FLUX    HEATING RATE
          mb          W/m2          W/m2          W/m2        W/m2          W/m2       degree/day
  51    .06700        0.0004        0.0000        9.1795        9.1795       9.179087       0.00000
  50    .07753        0.0004        0.0000        9.1746        9.1746       9.174185       3.92888
  49    .09103        0.0004        0.0000        9.1712        9.1712       9.170735       2.15645
  48    0.1069        0.0004        0.0000        9.1686        9.1686       9.168142       1.37990
  47    0.1255        0.0004        0.0000        9.1663        9.1663       9.165812       1.05654
  46    0.1487        0.0004        0.0000        9.1637        9.1637       9.163296       0.91718
  45    0.1794        0.0004        0.0000        9.1608        9.1608       9.160325       0.81563
  44    0.2165        0.0004        0.0000        9.1577        9.1577       9.157304       0.68714
  43    0.2613        0.0004        0.0000        9.1547        9.1547       9.154216       0.58198
  42    0.3336        0.0004        0.0000        9.1503        9.1503       9.149848       0.50929
  41    0.4307        0.0004        0.0000        9.1453        9.1453       9.144837       0.43569
  40    0.5894        0.0004        0.0000        9.1379        9.1379       9.137439       0.39344
  39     1.339        0.0004        0.0000        9.1101        9.1101       9.109682       0.31250
  38     1.782        0.0004        0.0000        9.0982        9.0982       9.097744       0.22727
  37     2.292        0.0004        0.0000        9.0868        9.0868       9.086379       0.18823
  36     2.964        0.0004        0.0000        9.0740        9.0740       9.073597       0.16046
  35     3.853        0.0004        0.0000        9.0588        9.0588       9.058329       0.14490
  34     5.035        0.0004        0.0000        9.0393        9.0393       9.038907       0.13874
  33     6.613        0.0004        0.0000        9.0134        9.0134       9.012952       0.13876
  32     8.786        0.0004        0.0000        8.9773        8.9773       8.976854       0.14019
  31     11.80        0.0004        0.0000        8.9240        8.9240       8.923581       0.14915
  30     15.07        0.0004        0.0000        8.8656        8.8656       8.865193       0.15075
  29     18.79        0.0004        0.0000        8.7993        8.7993       8.798874       0.15037
  28     23.16        0.0004        0.0000        8.7236        8.7236       8.723222       0.14629
  27     28.12        0.0004        0.0000        8.6416        8.6417       8.641258       0.13933
  26     33.73        0.0004        0.0000        8.5577        8.5577       8.557331       0.12619
  25     40.54        0.0004        0.0001        8.4666        8.4667       8.466306       0.11293
  24     48.69        0.0004        0.0001        8.3687        8.3688       8.368396       0.10132
  23     57.69        0.0004        0.0001        8.2697        8.2697       8.269378       0.09281
  22     68.43        0.0004        0.0001        8.1567        8.1568       8.156417       0.08880
  21     81.20        0.0003        0.0001        8.0247        8.0248       8.024481       0.08718
  20     96.49        0.0003        0.0001        7.8709        7.8710       7.870696       0.08488
  19     114.6        0.0003        0.0001        7.6865        7.6866       7.686316       0.08609
  18     136.5        0.0003        0.0002        7.4832        7.4834       7.483136       0.07813
  17     162.9        0.0002        0.0002        7.2444        7.2446       7.244387       0.07631
  16     196.4        0.0002        0.0002        6.8905        6.8907       6.890513       0.08907
  15     218.7        0.0002        0.0002        6.5681        6.5683       6.568152       0.12239
  14     243.0        0.0002        0.0002        6.1338        6.1340       6.133832       0.15064
  13     269.0        0.0001        0.0002        5.5897        5.5899       5.589780       0.17649
  12     297.5        0.0001        0.0002        4.9566        4.9568       4.956692       0.18777
  11     328.5        0.0001        0.0002        4.3277        4.3280       4.327881       0.17097
  10     361.9        0.0001        0.0002        3.7396        3.7398       3.739756       0.14880
   9     398.1        0.0001        0.0002        3.2087        3.2090       3.208892       0.12368
   8     437.6        0.0001        0.0002        2.7303        2.7305       2.730440       0.10230
   7     480.5        0.0000        0.0002        2.2941        2.2943       2.294254       0.08567
   6     533.0        0.0000        0.0002        1.8327        1.8329       1.832838       0.07423
   5     589.8        0.0000        0.0001        1.3924        1.3925       1.392517       0.06536
   4     651.6        0.0000        0.0001        0.9456        0.9457       0.945669       0.06111
   3     718.7        0.0000        0.0001        0.5626        0.5626       0.562634       0.04814
   2     792.3        0.0000        0.0000        0.2633        0.2633       0.263342       0.03433
   1     891.5        0.0000        0.0000        0.0506        0.0506       0.050597       0.01810
   0    1013.0        0.0000        0.0000        0.0018        0.0018       0.001755       0.00339



 Wavenumbers:  4000. -  4650. cm-1, ATM      1
 LEVEL PRESSURE   UPWARD FLUX   DIFDOWN FLUX  DIRDOWN FLUX  DOWNWARD FLUX   NET FLUX    HEATING RATE
          mb          W/m2          W/m2          W/m2        W/m2          W/m2       degree/day
  51    .06700        1.0970        0.0000       10.7795       10.7795       9.682588       0.00000
  50    .07753        1.0970        0.0000       10.7795       10.7795       9.682587       0.00080
  49    .09103        1.0970        0.0000       10.7795       10.7795       9.682586       0.00078
  48    0.1069        1.0970        0.0000       10.7795       10.7795       9.682584       0.00076
  47    0.1255        1.0970        0.0000       10.7795       10.7795       9.682583       0.00075
  46    0.1487        1.0970        0.0000       10.7795       10.7795       9.682581       0.00076
  45    0.1794        1.0970        0.0000       10.7795       10.7795       9.682578       0.00078
  44    0.2165        1.0970        0.0000       10.7795       10.7795       9.682574       0.00076
  43    0.2613        1.0970        0.0000       10.7795       10.7795       9.682570       0.00075
  42    0.3336        1.0970        0.0000       10.7795       10.7795       9.682564       0.00077
  41    0.4307        1.0970        0.0000       10.7795       10.7795       9.682555       0.00077
  40    0.5894        1.0970        0.0000       10.7795       10.7795       9.682540       0.00079
  39     1.339        1.0969        0.0000       10.7794       10.7794       9.682451       0.00100
  38     1.782        1.0969        0.0000       10.7793       10.7793       9.682381       0.00133
  37     2.292        1.0969        0.0000       10.7792       10.7792       9.682288       0.00155
  36     2.964        1.0969        0.0000       10.7791       10.7791       9.682148       0.00176
  35     3.853        1.0969        0.0000       10.7789       10.7789       9.681941       0.00197
  34     5.035        1.0969        0.0000       10.7786       10.7786       9.681635       0.00218
  33     6.613        1.0969        0.0000       10.7781       10.7781       9.681185       0.00241
  32     8.786        1.0969        0.0000       10.7774       10.7774       9.680521       0.00258
  31     11.80        1.0969        0.0000       10.7763       10.7764       9.679477       0.00292
  30     15.07        1.0969        0.0001       10.7751       10.7752       9.678254       0.00316
  29     18.79        1.0969        0.0001       10.7736       10.7737       9.676776       0.00335
  28     23.16        1.0969        0.0001       10.7717       10.7718       9.674941       0.00355
  27     28.12        1.0969        0.0001       10.7695       10.7696       9.672722       0.00377
  26     33.73        1.0969        0.0001       10.7667       10.7668       9.669987       0.00411
  25     40.54        1.0968        0.0002       10.7630       10.7631       9.666281       0.00460
  24     48.69        1.0968        0.0002       10.7580       10.7582       9.661347       0.00511
  23     57.69        1.0968        0.0002       10.7521       10.7523       9.655506       0.00548
  22     68.43        1.0968        0.0003       10.7447       10.7450       9.648194       0.00575
  21     81.20        1.0967        0.0003       10.7356       10.7360       9.639206       0.00594
  20     96.49        1.0967        0.0004       10.7246       10.7250       9.628290       0.00603
  19     114.6        1.0967        0.0004       10.7108       10.7112       9.614517       0.00643
  18     136.5        1.0967        0.0005       10.6941       10.6946       9.597956       0.00637
  17     162.9        1.0967        0.0006       10.6737       10.6743       9.577640       0.00649
  16     196.4        1.0967        0.0007       10.6455       10.6463       9.549523       0.00708
  15     218.7        1.0968        0.0008       10.6236       10.6244       9.527635       0.00831
  14     243.0        1.0970        0.0009       10.5942       10.5951       9.498176       0.01022
  13     269.0        1.0972        0.0010       10.5539       10.5549       9.457695       0.01313
  12     297.5        1.0977        0.0011       10.4995       10.5006       9.402886       0.01626
  11     328.5        1.0983        0.0012       10.4289       10.4301       9.331772       0.01934
  10     361.9        1.0991        0.0013       10.3371       10.3384       9.239273       0.02340
   9     398.1        1.1002        0.0014       10.2200       10.2214       9.121223       0.02750
   8     437.6        1.1015        0.0015       10.0759       10.0775       8.975983       0.03105
   7     480.5        1.1031        0.0017        9.9122        9.9139       8.810726       0.03246
   6     533.0        1.1056        0.0018        9.7074        9.7092       8.603580       0.03332
   5     589.8        1.1092        0.0020        9.4708        9.4728       8.363549       0.03563
   4     651.6        1.1149        0.0021        9.1510        9.1531       8.038233       0.04449
   3     718.7        1.1239        0.0022        8.7274        8.7296       7.605741       0.05435
   2     792.3        1.1393        0.0023        8.2075        8.2098       7.070539       0.06138
   1     891.5        1.1759        0.0024        7.5109        7.5133       6.337390       0.06239
   0    1013.0        1.2651        0.0025        6.7307        6.7332       5.468139       0.06036



 Wavenumbers:  4650. -  5150. cm-1, ATM      1
 LEVEL PRESSURE   UPWARD FLUX   DIFDOWN FLUX  DIRDOWN FLUX  DOWNWARD FLUX   NET FLUX    HEATING RATE
          mb          W/m2          W/m2          W/m2        W/m2          W/m2       degree/day
  51    .06700        0.2867        0.0000       10.2033       10.2033       9.916614       0.00000
  50    .07753        0.2867        0.0000       10.2031       10.2031       9.916378       0.18911
  49    .09103        0.2867        0.0000       10.2028       10.2028       9.916083       0.18438
  48    0.1069        0.2867        0.0000       10.2025       10.2025       9.915746       0.17941
  47    0.1255        0.2867        0.0000       10.2021       10.2021       9.915362       0.17435
  46    0.1487        0.2867        0.0000       10.2016       10.2016       9.914880       0.17545
  45    0.1794        0.2867        0.0000       10.2010       10.2010       9.914230       0.17860
  44    0.2165        0.2867        0.0000       10.2002       10.2002       9.913470       0.17287
  43    0.2613        0.2867        0.0000       10.1993       10.1993       9.912584       0.16699
  42    0.3336        0.2867        0.0000       10.1979       10.1979       9.911151       0.16711
  41    0.4307        0.2867        0.0000       10.1960       10.1960       9.909309       0.16011
  40    0.5894        0.2867        0.0000       10.1932       10.1932       9.906434       0.15291
  39     1.339        0.2867        0.0000       10.1816       10.1816       9.894836       0.13057
  38     1.782        0.2867        0.0000       10.1760       10.1760       9.889304       0.10532
  37     2.292        0.2867        0.0000       10.1705       10.1706       9.883845       0.09042
  36     2.964        0.2867        0.0000       10.1646       10.1646       9.877919       0.07439
  35     3.853        0.2867        0.0000       10.1584       10.1584       9.871701       0.05900
  34     5.035        0.2867        0.0000       10.1520       10.1521       9.865363       0.04528
  33     6.613        0.2867        0.0000       10.1456       10.1456       9.858905       0.03453
  32     8.786        0.2867        0.0000       10.1385       10.1386       9.851893       0.02723
  31     11.80        0.2867        0.0001       10.1295       10.1295       9.842855       0.02531
  30     15.07        0.2867        0.0001       10.1195       10.1196       9.832980       0.02550
  29     18.79        0.2866        0.0001       10.1075       10.1076       9.820979       0.02721
  28     23.16        0.2866        0.0001       10.0922       10.0923       9.805684       0.02957
  27     28.12        0.2866        0.0002       10.0730       10.0732       9.786605       0.03243
  26     33.73        0.2866        0.0002       10.0499       10.0501       9.763532       0.03469
  25     40.54        0.2865        0.0002       10.0200       10.0202       9.733660       0.03706
  24     48.69        0.2865        0.0003        9.9818        9.9820       9.695536       0.03945
  23     57.69        0.2865        0.0003        9.9382        9.9385       9.652061       0.04075
  22     68.43        0.2864        0.0004        9.8855        9.8859       9.599422       0.04138
  21     81.20        0.2864        0.0004        9.8231        9.8236       9.537167       0.04114
  20     96.49        0.2863        0.0005        9.7514        9.7519       9.465547       0.03953
  19     114.6        0.2863        0.0006        9.6714        9.6720       9.385752       0.03726
  18     136.5        0.2862        0.0007        9.5851        9.5859       9.299623       0.03312
  17     162.9        0.2862        0.0008        9.4933        9.4941       9.207926       0.02931
  16     196.4        0.2861        0.0010        9.3872        9.3882       9.102090       0.02664
  15     218.7        0.2861        0.0011        9.3214        9.3225       9.036397       0.02494
  14     243.0        0.2861        0.0012        9.2493        9.2505       8.964393       0.02497
  13     269.0        0.2862        0.0014        9.1663        9.1676       8.881440       0.02691
  12     297.5        0.2863        0.0015        9.0667        9.0682       8.781866       0.02953
  11     328.5        0.2865        0.0016        8.9501        8.9517       8.665175       0.03173
  10     361.9        0.2868        0.0018        8.8120        8.8138       8.527004       0.03496
   9     398.1        0.2872        0.0019        8.6496        8.6515       8.364288       0.03791
   8     437.6        0.2877        0.0020        8.4571        8.4592       8.171452       0.04123
   7     480.5        0.2885        0.0022        8.2339        8.2360       7.947556       0.04397
   6     533.0        0.2897        0.0023        7.9393        7.9417       7.652004       0.04754
   5     589.8        0.2914        0.0025        7.6016        7.6041       7.312625       0.05038
   4     651.6        0.2941        0.0026        7.2132        7.2158       6.921741       0.05345
   3     718.7        0.2982        0.0027        6.7887        6.7914       6.493243       0.05385
   2     792.3        0.3046        0.0028        6.3339        6.3367       6.032171       0.05288
   1     891.5        0.3182        0.0029        5.7343        5.7372       5.418925       0.05218
   0    1013.0        0.3460        0.0029        5.0863        5.0892       4.743169       0.04692



 Wavenumbers:  5150. -  6150. cm-1, ATM      1
 LEVEL PRESSURE   UPWARD FLUX   DIFDOWN FLUX  DIRDOWN FLUX  DOWNWARD FLUX   NET FLUX    HEATING RATE
          mb          W/m2          W/m2          W/m2        W/m2          W/m2       degree/day
  51    .06700        2.4486        0.0000       25.5798       25.5798      23.131248       0.00000
  50    .07753        2.4486        0.0000       25.5798       25.5798      23.131196       0.04145
  49    .09103        2.4486        0.0000       25.5797       25.5797      23.131129       0.04209
  48    0.1069        2.4486        0.0000       25.5796       25.5796      23.131049       0.04275
  47    0.1255        2.4486        0.0000       25.5795       25.5795      23.130953       0.04341
  46    0.1487        2.4486        0.0000       25.5794       25.5794      23.130828       0.04573
  45    0.1794        2.4486        0.0000       25.5792       25.5792      23.130650       0.04867
  44    0.2165        2.4486        0.0000       25.5790       25.5790      23.130433       0.04940
  43    0.2613        2.4486        0.0000       25.5787       25.5787      23.130167       0.05015
  42    0.3336        2.4486        0.0000       25.5783       25.5783      23.129713       0.05298
  41    0.4307        2.4486        0.0000       25.5777       25.5777      23.129095       0.05366
  40    0.5894        2.4486        0.0000       25.5766       25.5766      23.128062       0.05495
  39     1.339        2.4485        0.0000       25.5716       25.5716      23.123100       0.05586
  38     1.782        2.4485        0.0000       25.5687       25.5688      23.120224       0.05476
  37     2.292        2.4485        0.0001       25.5654       25.5655      23.116979       0.05374
  36     2.964        2.4485        0.0001       25.5613       25.5614      23.112873       0.05154
  35     3.853        2.4485        0.0001       25.5561       25.5562      23.107681       0.04928
  34     5.035        2.4485        0.0001       25.5494       25.5495      23.101035       0.04747
  33     6.613        2.4484        0.0002       25.5407       25.5409      23.092483       0.04572
  32     8.786        2.4484        0.0002       25.5297       25.5299      23.081513       0.04260
  31     11.80        2.4483        0.0003       25.5149       25.5152      23.066847       0.04106
  30     15.07        2.4483        0.0004       25.5003       25.5007      23.052413       0.03727
  29     18.79        2.4482        0.0005       25.4852       25.4857      23.037525       0.03376
  28     23.16        2.4481        0.0006       25.4693       25.4699      23.021774       0.03046
  27     28.12        2.4481        0.0007       25.4528       25.4536      23.005500       0.02766
  26     33.73        2.4480        0.0009       25.4364       25.4373      22.989295       0.02437
  25     40.54        2.4479        0.0011       25.4188       25.4199      22.971999       0.02146
  24     48.69        2.4478        0.0013       25.4003       25.4016      22.953837       0.01879
  23     57.69        2.4476        0.0015       25.3823       25.3838      22.936151       0.01658
  22     68.43        2.4475        0.0018       25.3629       25.3647      22.917238       0.01487
  21     81.20        2.4473        0.0021       25.3419       25.3440      22.896703       0.01357
  20     96.49        2.4472        0.0025       25.3184       25.3210      22.873816       0.01263
  19     114.6        2.4469        0.0030       25.2916       25.2946      22.847701       0.01219
  18     136.5        2.4467        0.0036       25.2603       25.2639      22.817181       0.01174
  17     162.9        2.4464        0.0042       25.2135       25.2177      22.771337       0.01465
  16     196.4        2.4461        0.0051       25.1106       25.1157      22.669633       0.02560
  15     218.7        2.4459        0.0056       24.9397       24.9453      22.499445       0.06461
  14     243.0        2.4457        0.0062       24.5672       24.5734      22.127727       0.12892
  13     269.0        2.4455        0.0067       23.9433       23.9500      21.504454       0.20219
  12     297.5        2.4455        0.0072       23.1843       23.1915      20.746063       0.22493
  11     328.5        2.4455        0.0077       22.3882       22.3959      19.950403       0.21634
  10     361.9        2.4456        0.0082       21.4763       21.4845      19.038824       0.23064
   9     398.1        2.4460        0.0086       20.4746       20.4832      18.037235       0.23335
   8     437.6        2.4465        0.0090       19.4145       19.4235      16.976977       0.22669
   7     480.5        2.4474        0.0094       18.3532       18.3626      15.915226       0.20852
   6     533.0        2.4489        0.0098       17.1980       17.2078      14.758886       0.18602
   5     589.8        2.4516        0.0102       16.1468       16.1570      13.705466       0.15636
   4     651.6        2.4565        0.0107       15.1946       15.2053      12.748801       0.13083
   3     718.7        2.4651        0.0112       14.4069       14.4181      11.953058       0.10000
   2     792.3        2.4808        0.0118       13.6656       13.6774      11.196575       0.08676
   1     891.5        2.5202        0.0124       12.6530       12.6654      10.145270       0.08946
   0    1013.0        2.6271        0.0131       11.6295       11.6426       9.015497       0.07845



 Wavenumbers:  6150. -  7700. cm-1, ATM      1
 LEVEL PRESSURE   UPWARD FLUX   DIFDOWN FLUX  DIRDOWN FLUX  DOWNWARD FLUX   NET FLUX    HEATING RATE
          mb          W/m2          W/m2          W/m2        W/m2          W/m2       degree/day
  51    .06700        3.6981        0.0000       47.3109       47.3109      43.612785       0.00000
  50    .07753        3.6981        0.0000       47.3108       47.3108      43.612715       0.05577
  49    .09103        3.6981        0.0000       47.3107       47.3107      43.612625       0.05624
  48    0.1069        3.6981        0.0000       47.3106       47.3106      43.612519       0.05673
  47    0.1255        3.6981        0.0000       47.3105       47.3105      43.612392       0.05722
  46    0.1487        3.6981        0.0000       47.3103       47.3103      43.612228       0.05989
  45    0.1794        3.6981        0.0000       47.3100       47.3101      43.611997       0.06338
  44    0.2165        3.6981        0.0000       47.3098       47.3098      43.611716       0.06399
  43    0.2613        3.6981        0.0000       47.3094       47.3094      43.611373       0.06462
  42    0.3336        3.6980        0.0000       47.3088       47.3088      43.610790       0.06795
  41    0.4307        3.6980        0.0000       47.3080       47.3080      43.610001       0.06864
  40    0.5894        3.6980        0.0001       47.3066       47.3067      43.608682       0.07011
  39     1.339        3.6979        0.0001       47.3002       47.3003      43.602347       0.07133
  38     1.782        3.6979        0.0002       47.2964       47.2966      43.598658       0.07023
  37     2.292        3.6979        0.0002       47.2921       47.2923      43.594474       0.06930
  36     2.964        3.6978        0.0003       47.2866       47.2869      43.589137       0.06700
  35     3.853        3.6977        0.0004       47.2796       47.2800      43.582320       0.06469
  34     5.035        3.6976        0.0006       47.2705       47.2711      43.573507       0.06295
  33     6.613        3.6974        0.0007       47.2587       47.2595      43.562032       0.06134
  32     8.786        3.6972        0.0010       47.2433       47.2443      43.547079       0.05807
  31     11.80        3.6969        0.0013       47.2223       47.2236      43.526679       0.05711
  30     15.07        3.6966        0.0017       47.2009       47.2026      43.505993       0.05341
  29     18.79        3.6962        0.0021       47.1782       47.1803      43.484082       0.04968
  28     23.16        3.6958        0.0025       47.1534       47.1559      43.460135       0.04631
  27     28.12        3.6953        0.0031       47.1268       47.1299      43.434560       0.04348
  26     33.73        3.6948        0.0037       47.0992       47.1029      43.408146       0.03971
  25     40.54        3.6941        0.0044       47.0686       47.0730      43.378904       0.03628
  24     48.69        3.6933        0.0053       47.0351       47.0405      43.347181       0.03283
  23     57.69        3.6924        0.0063       47.0014       47.0077      43.315254       0.02993
  22     68.43        3.6914        0.0075       46.9641       46.9716      43.280256       0.02751
  21     81.20        3.6901        0.0089       46.9227       46.9316      43.241476       0.02562
  20     96.49        3.6886        0.0106       46.8756       46.8861      43.197501       0.02427
  19     114.6        3.6869        0.0125       46.8212       46.8337      43.146874       0.02364
  18     136.5        3.6848        0.0149       46.7576       46.7725      43.087693       0.02276
  17     162.9        3.6823        0.0177       46.6664       46.6841      43.001817       0.02745
  16     196.4        3.6790        0.0213       46.4837       46.5049      42.825878       0.04429
  15     218.7        3.6770        0.0235       46.2326       46.2561      42.579149       0.09367
  14     243.0        3.6748        0.0259       45.7387       45.7646      42.089827       0.16971
  13     269.0        3.6725        0.0282       44.8300       44.8582      41.185660       0.29331
  12     297.5        3.6703        0.0304       43.5177       43.5481      39.877751       0.38791
  11     328.5        3.6682        0.0325       42.1209       42.1534      38.485227       0.37862
  10     361.9        3.6663        0.0347       40.6082       40.6429      36.976585       0.38170
   9     398.1        3.6646        0.0367       38.8744       38.9111      35.246422       0.40309
   8     437.6        3.6636        0.0384       36.9299       36.9683      33.304755       0.41514
   7     480.5        3.6633        0.0400       34.9019       34.9420      31.278701       0.39791
   6     533.0        3.6646        0.0416       32.5415       32.5832      28.918601       0.37967
   5     589.8        3.6690        0.0430       30.1468       30.1898      26.520794       0.35591
   4     651.6        3.6798        0.0439       27.6329       27.6768      23.996935       0.34514
   3     718.7        3.7018        0.0445       25.1892       25.2337      21.531983       0.30978
   2     792.3        3.7447        0.0449       22.8217       22.8665      19.121856       0.27641
   1     891.5        3.8563        0.0451       20.1101       20.1551      16.298842       0.24022
   0    1013.0        4.1556        0.0453       17.5632       17.6085      13.452893       0.19761



 Wavenumbers:  7700. -  8050. cm-1, ATM      1
 LEVEL PRESSURE   UPWARD FLUX   DIFDOWN FLUX  DIRDOWN FLUX  DOWNWARD FLUX   NET FLUX    HEATING RATE
          mb          W/m2          W/m2          W/m2        W/m2          W/m2       degree/day
  51    .06700        5.4857        0.0000       11.1810       11.1810       5.695235       0.00000
  50    .07753        5.4857        0.0000       11.1809       11.1809       5.695214       0.01706
  49    .09103        5.4857        0.0000       11.1809       11.1809       5.695187       0.01672
  48    0.1069        5.4857        0.0000       11.1809       11.1809       5.695157       0.01637
  47    0.1255        5.4857        0.0000       11.1809       11.1809       5.695121       0.01602
  46    0.1487        5.4858        0.0000       11.1808       11.1808       5.695077       0.01626
  45    0.1794        5.4858        0.0000       11.1808       11.1808       5.695016       0.01673
  44    0.2165        5.4858        0.0000       11.1807       11.1807       5.694944       0.01641
  43    0.2613        5.4858        0.0000       11.1806       11.1806       5.694858       0.01610
  42    0.3336        5.4858        0.0000       11.1805       11.1805       5.694717       0.01648
  41    0.4307        5.4858        0.0000       11.1803       11.1804       5.694529       0.01630
  40    0.5894        5.4859        0.0000       11.1801       11.1801       5.694223       0.01628
  39     1.339        5.4861        0.0001       11.1788       11.1789       5.692775       0.01630
  38     1.782        5.4862        0.0001       11.1781       11.1782       5.691924       0.01620
  37     2.292        5.4864        0.0001       11.1772       11.1773       5.690940       0.01631
  36     2.964        5.4866        0.0002       11.1761       11.1762       5.689647       0.01623
  35     3.853        5.4869        0.0002       11.1746       11.1748       5.687939       0.01621
  34     5.035        5.4872        0.0003       11.1726       11.1729       5.685671       0.01620
  33     6.613        5.4877        0.0004       11.1700       11.1703       5.682641       0.01620
  32     8.786        5.4883        0.0005       11.1664       11.1669       5.678560       0.01585
  31     11.80        5.4892        0.0006       11.1613       11.1619       5.672726       0.01633
  30     15.07        5.4902        0.0008       11.1558       11.1567       5.666469       0.01616
  29     18.79        5.4913        0.0010       11.1497       11.1507       5.659407       0.01601
  28     23.16        5.4926        0.0012       11.1425       11.1438       5.651171       0.01593
  27     28.12        5.4941        0.0015       11.1343       11.1358       5.641769       0.01598
  26     33.73        5.4957        0.0018       11.1252       11.1270       5.631269       0.01579
  25     40.54        5.4978        0.0022       11.1142       11.1164       5.618615       0.01570
  24     48.69        5.5002        0.0026       11.1010       11.1036       5.603407       0.01574
  23     57.69        5.5029        0.0031       11.0866       11.0897       5.586764       0.01560
  22     68.43        5.5062        0.0037       11.0695       11.0732       5.567027       0.01552
  21     81.20        5.5101        0.0044       11.0494       11.0537       5.543635       0.01546
  20     96.49        5.5148        0.0052       11.0255       11.0307       5.515933       0.01529
  19     114.6        5.5204        0.0061       10.9975       11.0037       5.483281       0.01525
  18     136.5        5.5271        0.0073       10.9648       10.9720       5.444908       0.01476
  17     162.9        5.5353        0.0086       10.9263       10.9349       5.399655       0.01446
  16     196.4        5.5460        0.0104       10.8773       10.8876       5.341642       0.01460
  15     218.7        5.5532        0.0115       10.8455       10.8571       5.303897       0.01433
  14     243.0        5.5611        0.0128       10.8114       10.8242       5.263115       0.01414
  13     269.0        5.5698        0.0141       10.7748       10.7889       5.219107       0.01428
  12     297.5        5.5795        0.0156       10.7355       10.7511       5.171608       0.01409
  11     328.5        5.5902        0.0172       10.6934       10.7105       5.120285       0.01395
  10     361.9        5.6022        0.0189       10.6482       10.6670       5.064858       0.01402
   9     398.1        5.6155        0.0207       10.5996       10.6203       5.004745       0.01400
   8     437.6        5.6306        0.0226       10.5472       10.5699       4.939290       0.01399
   7     480.5        5.6475        0.0247       10.4906       10.5153       4.867834       0.01403
   6     533.0        5.6698        0.0273       10.4197       10.4470       4.777246       0.01457
   5     589.8        5.6960        0.0300       10.3407       10.3707       4.674771       0.01521
   4     651.6        5.7280        0.0330       10.2498       10.2828       4.554845       0.01640
   3     718.7        5.7678        0.0361       10.1435       10.1796       4.411779       0.01798
   2     792.3        5.8194        0.0394       10.0153       10.0547       4.235314       0.02024
   1     891.5        5.9087        0.0437        9.8136        9.8573       3.948576       0.02440
   0    1013.0        6.0549        0.0486        9.5268        9.5754       3.520535       0.02972



 Wavenumbers:  8050. - 12850. cm-1, ATM      1
 LEVEL PRESSURE   UPWARD FLUX   DIFDOWN FLUX  DIRDOWN FLUX  DOWNWARD FLUX   NET FLUX    HEATING RATE
          mb          W/m2          W/m2          W/m2        W/m2          W/m2       degree/day
  51    .06700       88.7611        0.0000      156.5418      156.5418      67.780693       0.00000
  50    .07753       88.7610        0.0000      156.5417      156.5417      67.780693       0.00000
  49    .09103       88.7610        0.0001      156.5417      156.5417      67.780693      -0.00000
  48    0.1069       88.7610        0.0001      156.5416      156.5417      67.780693       0.00000
  47    0.1255       88.7610        0.0002      156.5415      156.5417      67.780693      -0.00000
  46    0.1487       88.7610        0.0002      156.5414      156.5417      67.780693       0.00000
  45    0.1794       88.7609        0.0003      156.5413      156.5416      67.780693       0.00000
  44    0.2165       88.7609        0.0004      156.5412      156.5416      67.780693      -0.00000
  43    0.2613       88.7608        0.0005      156.5410      156.5415      67.780693       0.00000
  42    0.3336       88.7607        0.0007      156.5407      156.5414      67.780693       0.00000
  41    0.4307       88.7606        0.0010      156.5403      156.5413      67.780693      -0.00000
  40    0.5894       88.7605        0.0015      156.5397      156.5412      67.780693       0.00000
  39     1.339       88.7596        0.0036      156.5367      156.5403      67.780693      -0.00000
  38     1.782       88.7591        0.0048      156.5350      156.5398      67.780693       0.00000
  37     2.292       88.7585        0.0062      156.5330      156.5392      67.780693       0.00000
  36     2.964       88.7577        0.0081      156.5303      156.5384      67.780693       0.00000
  35     3.853       88.7567        0.0106      156.5268      156.5374      67.780693       0.00000
  34     5.035       88.7554        0.0139      156.5222      156.5361      67.780693      -0.00000
  33     6.613       88.7536        0.0183      156.5160      156.5343      67.780693      -0.00000
  32     8.786       88.7511        0.0242      156.5076      156.5318      67.780693      -0.00000
  31     11.80       88.7477        0.0327      156.4957      156.5283      67.780693      -0.00000
  30     15.07       88.7439        0.0418      156.4828      156.5246      67.780693       0.00000
  29     18.79       88.7397        0.0521      156.4682      156.5204      67.780693      -0.00000
  28     23.16       88.7347        0.0642      156.4512      156.5154      67.780693       0.00000
  27     28.12       88.7290        0.0780      156.4317      156.5097      67.780693      -0.00000
  26     33.73       88.7227        0.0935      156.4099      156.5034      67.780693       0.00000
  25     40.54       88.7150        0.1123      156.3834      156.4957      67.780693       0.00000
  24     48.69       88.7057        0.1349      156.3515      156.4864      67.780693      -0.00000
  23     57.69       88.6955        0.1598      156.3164      156.4762      67.780693       0.00000
  22     68.43       88.6833        0.1895      156.2746      156.4640      67.780693       0.00000
  21     81.20       88.6688        0.2249      156.2246      156.4495      67.780693      -0.00000
  20     96.49       88.6514        0.2672      156.1649      156.4321      67.780693       0.00000
  19     114.6       88.6310        0.3175      156.0861      156.4035      67.772558       0.00380
  18     136.5       88.6067        0.3772      155.9919      156.3692      67.762480       0.00388
  17     162.9       88.5777        0.4485      155.8750      156.3235      67.745779       0.00534
  16     196.4       88.5402        0.5412      155.7021      156.2433      67.703127       0.01074
  15     218.7       88.5156        0.6021      155.5377      156.1398      67.624207       0.02996
  14     243.0       88.4894        0.6683      155.2629      155.9312      67.441783       0.06327
  13     269.0       88.4621        0.7398      154.8138      155.5537      67.091537       0.11362
  12     297.5       88.4349        0.8167      154.1727      154.9894      66.554485       0.15928
  11     328.5       88.4084        0.8996      153.4085      154.3081      65.899737       0.17802
  10     361.9       88.3840        0.9884      152.4756      153.4640      65.079938       0.20742
   9     398.1       88.3643        1.0830      151.2918      152.3749      64.010534       0.24915
   8     437.6       88.3536        1.1834      149.7819      150.9653      62.611692       0.29908
   7     480.5       88.3569        1.2894      147.9306      149.2200      60.863122       0.34341
   6     533.0       88.3888        1.4169      145.3346      146.7516      58.362779       0.40223
   5     589.8       88.4743        1.5501      142.0950      143.6451      55.170830       0.47379
   4     651.6       88.6729        1.6860      137.9093      139.5953      50.922405       0.58098
   3     718.7       89.0615        1.8231      132.9249      134.7480      45.686502       0.65801
   2     792.3       89.8102        1.9579      126.9723      128.9302      39.120013       0.75310
   1     891.5       91.7110        2.1184      118.4655      120.5839      28.872859       0.87198
   0    1013.0       96.3819        2.2892      108.9242      111.2135      14.831585       0.97496



 Wavenumbers: 12850. - 16000. cm-1, ATM      1
 LEVEL PRESSURE   UPWARD FLUX   DIFDOWN FLUX  DIRDOWN FLUX  DOWNWARD FLUX   NET FLUX    HEATING RATE
          mb          W/m2          W/m2          W/m2        W/m2          W/m2       degree/day
  51    .06700       78.1243        0.0000       98.0872       98.0872      19.962910       0.00000
  50    .07753       78.1243        0.0001       98.0864       98.0864      19.962119       0.63396
  49    .09103       78.1243        0.0002       98.0853       98.0854      19.961126       0.62081
  48    0.1069       78.1243        0.0003       98.0841       98.0843      19.959985       0.60740
  47    0.1255       78.1243        0.0004       98.0826       98.0830      19.958674       0.59427
  46    0.1487       78.1244        0.0005       98.0809       98.0814      19.957020       0.60292
  45    0.1794       78.1244        0.0007       98.0784       98.0792      19.954770       0.61759
  44    0.2165       78.1245        0.0010       98.0756       98.0766      19.952125       0.60186
  43    0.2613       78.1246        0.0012       98.0723       98.0736      19.949014       0.58633
  42    0.3336       78.1248        0.0017       98.0670       98.0687      19.943939       0.59173
  41    0.4307       78.1251        0.0023       98.0602       98.0625      19.937378       0.57044
  40    0.5894       78.1259        0.0033       98.0496       98.0529      19.927046       0.54945
  39     1.339       78.1321        0.0081       98.0043       98.0124      19.880331       0.52592
  38     1.782       78.1378        0.0109       97.9793       97.9902      19.852353       0.53265
  37     2.292       78.1464        0.0141       97.9498       97.9639      19.817554       0.57638
  36     2.964       78.1605        0.0184       97.9088       97.9272      19.766705       0.63830
  35     3.853       78.1833        0.0240       97.8503       97.8744      19.691037       0.71811
  34     5.035       78.2177        0.0315       97.7680       97.7995      19.581784       0.78046
  33     6.613       78.2657        0.0414       97.6562       97.6976      19.431965       0.80093
  32     8.786       78.3281        0.0548       97.5107       97.5655      19.237395       0.75564
  31     11.80       78.4094        0.0740       97.3179       97.3919      18.982436       0.71380
  30     15.07       78.4873        0.0946       97.1283       97.2229      18.735546       0.63742
  29     18.79       78.5669        0.1178       96.9300       97.0478      18.480864       0.57744
  28     23.16       78.6501        0.1448       96.7166       96.8614      18.211278       0.52129
  27     28.12       78.7339        0.1758       96.4935       96.6693      17.935357       0.46905
  26     33.73       78.8114        0.2104       96.2731       96.4835      17.672089       0.39583
  25     40.54       78.8862        0.2523       96.0408       96.2930      17.406815       0.32910
  24     48.69       78.9581        0.3027       95.7946       96.0973      17.139194       0.27695
  23     57.69       79.0192        0.3581       95.5573       95.9154      16.896146       0.22782
  22     68.43       79.0728        0.4242       95.3106       95.7348      16.661924       0.18413
  21     81.20       79.1103        0.5029       95.0643       95.5673      16.456956       0.13544
  20     96.49       79.1305        0.5969       94.8153       95.4122      16.281620       0.09677
  19     114.6       79.1576        0.7098       94.5410       95.2508      16.093167       0.08799
  18     136.5       79.1782        0.8436       94.2320       95.0755      15.897358       0.07529
  17     162.9       79.1920        1.0029       93.8752       94.8781      15.686076       0.06753
  16     196.4       79.1875        1.2095       93.4344       94.6439      15.456469       0.05779
  15     218.7       79.1763        1.3452       93.1508       94.4960      15.319628       0.05195
  14     243.0       79.1607        1.4927       92.8426       94.3353      15.174573       0.05031
  13     269.0       79.1406        1.6526       92.5079       94.1604      15.019836       0.05020
  12     297.5       79.1164        1.8253       92.1425       93.9679      14.851434       0.04995
  11     328.5       79.0902        2.0121       91.7426       93.7547      14.664469       0.05084
  10     361.9       79.0629        2.2131       91.3049       93.5181      14.455206       0.05295
   9     398.1       79.0358        2.4295       90.8239       93.2534      14.217652       0.05534
   8     437.6       79.0119        2.6618       90.2902       92.9520      13.940097       0.05934
   7     480.5       78.9941        2.9107       89.6960       92.6067      13.612534       0.06433
   6     533.0       78.9878        3.2168       88.9246       92.1414      13.153584       0.07383
   5     589.8       79.0103        3.5457       88.0258       91.5715      12.561213       0.08793
   4     651.6       79.0872        3.8961       86.9484       90.8445      11.757332       0.10993
   3     718.7       79.2462        4.2661       85.6662       89.9323      10.686085       0.13463
   2     792.3       79.5561        4.6517       84.1124       88.7641       9.207945       0.16953
   1     891.5       80.3118        5.1511       81.7282       86.8794       6.567582       0.22468
   0    1013.0       81.8927        5.7189       78.6329       84.3517       2.459068       0.28528



 Wavenumbers: 16000. - 22650. cm-1, ATM      1
 LEVEL PRESSURE   UPWARD FLUX   DIFDOWN FLUX  DIRDOWN FLUX  DOWNWARD FLUX   NET FLUX    HEATING RATE
          mb          W/m2          W/m2          W/m2        W/m2          W/m2       degree/day
  51    .06700      140.0450        0.0000      156.3892      156.3892      16.344275       0.00000
  50    .07753      140.0449        0.0004      156.3887      156.3891      16.344129       0.11766
  49    .09103      140.0449        0.0009      156.3879      156.3888      16.343915       0.13345
  48    0.1069      140.0449        0.0015      156.3871      156.3885      16.343629       0.15218
  47    0.1255      140.0449        0.0021      156.3861      156.3882      16.343247       0.17346
  46    0.1487      140.0450        0.0029      156.3847      156.3877      16.342683       0.20555
  45    0.1794      140.0451        0.0041      156.3828      156.3869      16.341801       0.24202
  44    0.2165      140.0453        0.0054      156.3805      156.3859      16.340605       0.27200
  43    0.2613      140.0456        0.0070      156.3776      156.3846      16.338983       0.30580
  42    0.3336      140.0464        0.0096      156.3726      156.3823      16.335899       0.35961
  41    0.4307      140.0476        0.0131      156.3657      156.3788      16.331249       0.40424
  40    0.5894      140.0501        0.0188      156.3537      156.3725      16.322382       0.47153
  39     1.339      140.0723        0.0457      156.2834      156.3292      16.256873       0.73752
  38     1.782      140.0929        0.0616      156.2324      156.2939      16.201067       1.06246
  37     2.292      140.1237        0.0799      156.1641      156.2440      16.120287       1.33792
  36     2.964      140.1750        0.1039      156.0605      156.1644      15.989424       1.64273
  35     3.853      140.2579        0.1356      155.9041      156.0397      15.781777       1.97060
  34     5.035      140.3831        0.1777      155.6774      155.8551      15.471989       2.21300
  33     6.613      140.5580        0.2339      155.3656      155.5995      15.041480       2.30150
  32     8.786      140.7858        0.3095      154.9577      155.2671      14.481305       2.17552
  31     11.80      141.0822        0.4174      154.4153      154.8327      13.750444       2.04618
  30     15.07      141.3662        0.5332      153.8804      154.4136      13.047403       1.81511
  29     18.79      141.6560        0.6638      153.3191      153.9828      12.326878       1.63365
  28     23.16      141.9588        0.8160      152.7126      153.5286      11.569819       1.46391
  27     28.12      142.2633        0.9899      152.0755      153.0654      10.802066       1.30513
  26     33.73      142.5443        1.1843      151.4409      152.6252      10.080943       1.08423
  25     40.54      142.8144        1.4189      150.7637      152.1826       9.368243       0.88419
  24     48.69      143.0727        1.7015      150.0338      151.7354       8.662688       0.73014
  23     57.69      143.2913        2.0115      149.3151      151.3267       8.035404       0.58798
  22     68.43      143.4814        2.3804      148.5476      150.9280       7.446572       0.46290
  21     81.20      143.6117        2.8195      147.7517      150.5712       6.959490       0.32186
  20     96.49      143.6776        3.3423      146.9126      150.2549       6.577267       0.21096
  19     114.6      143.7104        3.9611      145.9763      149.9374       6.227019       0.16354
  18     136.5      143.7181        4.6919      144.9088      149.6006       5.882474       0.13249
  17     162.9      143.6991        5.5580      143.6785      149.2365       5.537345       0.11032
  16     196.4      143.6135        6.6754      142.1650      148.8404       5.226921       0.07814
  15     218.7      143.5349        7.4057      141.2032      148.6089       5.073945       0.05808
  14     243.0      143.4393        8.1960      140.1751      148.3711       4.931768       0.04931
  13     269.0      143.3251        9.0487      139.0791      148.1278       4.802711       0.04187
  12     297.5      143.1916        9.9657      137.9129      147.8786       4.687004       0.03432
  11     328.5      143.0428       10.9513      136.6655      147.6168       4.574007       0.03072
  10     361.9      142.8785       12.0065      135.3357      147.3422       4.463719       0.02790
   9     398.1      142.6982       13.1353      133.9179      147.0532       4.355024       0.02532
   8     437.6      142.5029       14.3397      132.4076      146.7474       4.244432       0.02365
   7     480.5      142.2924       15.6219      130.8019      146.4237       4.131294       0.02222
   6     533.0      142.0339       17.1879      128.8402      146.0281       3.994184       0.02206
   5     589.8      141.7602       18.8612      126.7381      145.5993       3.839134       0.02301
   4     651.6      141.4785       20.6435      124.4815      145.1250       3.646582       0.02633
   3     718.7      141.1961       22.5366      122.0584      144.5950       3.398978       0.03112
   2     792.3      140.9333       24.5383      119.4478      143.9861       3.052742       0.03971
   1     891.5      140.6759       27.1948      115.8789      143.0737       2.397795       0.05573
   0    1013.0      140.5279       30.3160      111.5576      141.8735       1.345618       0.07306



 Wavenumbers: 22650. - 29000. cm-1, ATM      1
 LEVEL PRESSURE   UPWARD FLUX   DIFDOWN FLUX  DIRDOWN FLUX  DOWNWARD FLUX   NET FLUX    HEATING RATE
          mb          W/m2          W/m2          W/m2        W/m2          W/m2       degree/day
  51    .06700       58.6820        0.0000       59.0156       59.0156       0.333644       0.00000
  50    .07753       58.6819        0.0005       59.0151       59.0155       0.333644       0.00000
  49    .09103       58.6818        0.0010       59.0144       59.0154       0.333644       0.00000
  48    0.1069       58.6816        0.0017       59.0136       59.0153       0.333644       0.00000
  47    0.1255       58.6815        0.0025       59.0127       59.0151       0.333644       0.00000
  46    0.1487       58.6813        0.0035       59.0115       59.0149       0.333644      -0.00000
  45    0.1794       58.6810        0.0048       59.0099       59.0147       0.333644       0.00000
  44    0.2165       58.6807        0.0063       59.0080       59.0144       0.333644      -0.00000
  43    0.2613       58.6804        0.0082       59.0058       59.0140       0.333644       0.00000
  42    0.3336       58.6798        0.0113       59.0022       59.0134       0.333644       0.00000
  41    0.4307       58.6790        0.0154       58.9973       59.0127       0.333644       0.00000
  40    0.5894       58.6777        0.0220       58.9894       59.0114       0.333644       0.00000
  39     1.339       58.6717        0.0535       58.9518       59.0053       0.333644      -0.00000
  38     1.782       58.6681        0.0720       58.9297       59.0017       0.333644       0.00000
  37     2.292       58.6640        0.0934       58.9042       58.9976       0.333644      -0.00000
  36     2.964       58.6586        0.1216       58.8706       58.9922       0.333644       0.00000
  35     3.853       58.6514        0.1587       58.8264       58.9851       0.333644       0.00000
  34     5.035       58.6419        0.2080       58.7676       58.9756       0.333644      -0.00000
  33     6.613       58.6293        0.2738       58.6891       58.9629       0.333644       0.00000
  32     8.786       58.6122        0.3624       58.5834       58.9458       0.333644      -0.00000
  31     11.80       58.5878        0.4890       58.4324       58.9215       0.333644       0.00000
  30     15.07       58.5617        0.6247       58.2706       58.8953       0.333644      -0.00000
  29     18.79       58.5322        0.7777       58.0882       58.8659       0.333644       0.00000
  28     23.16       58.4979        0.9559       57.8757       58.8316       0.333644       0.00000
  27     28.12       58.4588        1.1591       57.6333       58.7924       0.333644       0.00000
  26     33.73       58.4151        1.3857       57.3631       58.7488       0.333644       0.00000
  25     40.54       58.3626        1.6584       57.0379       58.6963       0.333644      -0.00000
  24     48.69       58.2996        1.9854       56.6479       58.6333       0.333644      -0.00000
  23     57.69       58.2309        2.3424       56.2221       58.5645       0.333644       0.00000
  22     68.43       58.1495        2.7646       55.7186       58.4832       0.333644       0.00000
  21     81.20       58.0534        3.2632       55.1239       58.3871       0.333644      -0.00000
  20     96.49       57.9401        3.8510       54.4228       58.2738       0.333644      -0.00000
  19     114.6       57.8073        4.5400       53.6010       58.1410       0.333644       0.00000
  18     136.5       57.6522        5.3441       52.6418       57.9859       0.333644       0.00000
  17     162.9       57.4709        6.2842       51.5203       57.8045       0.333644      -0.00000
  16     196.4       57.2410        7.4752       50.0994       57.5747       0.333644       0.00000
  15     218.7       57.0932        8.2406       49.1863       57.4269       0.333644      -0.00000
  14     243.0       56.9354        9.0578       48.2112       57.2690       0.333644       0.00000
  13     269.0       56.7676        9.9264       47.1748       57.1012       0.333644       0.00000
  12     297.5       56.5899       10.8455       46.0781       56.9235       0.333644       0.00000
  11     328.5       56.4021       11.8165       44.9192       56.7357       0.333644       0.00000
  10     361.9       56.2046       12.8369       43.7014       56.5383       0.333644       0.00000
   9     398.1       55.9975       13.9068       42.4243       56.3311       0.333644      -0.00000
   8     437.6       55.7810       15.0241       41.0905       56.1146       0.333644       0.00000
   7     480.5       55.5556       16.1864       39.7029       55.8892       0.333644       0.00000
   6     533.0       55.2873       17.5689       38.0520       55.6209       0.333644      -0.00000
   5     589.8       55.0088       19.0023       36.3401       55.3424       0.333644      -0.00000
   4     651.6       54.7214       20.4796       34.5754       55.0550       0.333644       0.00000
   3     718.7       54.4261       21.9954       32.7643       54.7597       0.333644       0.00000
   2     792.3       54.1242       23.5422       30.9157       54.4579       0.333644      -0.00000
   1     891.5       53.7393       25.5108       28.5621       54.0729       0.333644       0.00000
   0    1013.0       53.3090       27.7047       25.9380       53.6427       0.333644       0.00000



 Wavenumbers: 29000. - 38000. cm-1, ATM      1
 LEVEL PRESSURE   UPWARD FLUX   DIFDOWN FLUX  DIRDOWN FLUX  DOWNWARD FLUX   NET FLUX    HEATING RATE
          mb          W/m2          W/m2          W/m2        W/m2          W/m2       degree/day
  51    .06700        8.7676        0.0000       20.8114       20.8114      12.043736       0.00000
  50    .07753        8.7674        0.0003       20.8070       20.8074      12.039929       3.05155
  49    .09103        8.7672        0.0007       20.8009       20.8016      12.034392       3.46085
  48    0.1069        8.7670        0.0012       20.7928       20.7939      12.026982       3.94429
  47    0.1255        8.7667        0.0017       20.7820       20.7837      12.017077       4.49034
  46    0.1487        8.7663        0.0024       20.7665       20.7688      12.002514       5.30844
  45    0.1794        8.7659        0.0033       20.7424       20.7457      11.979849       6.22204
  44    0.2165        8.7653        0.0044       20.7103       20.7147      11.949326       6.94340
  43    0.2613        8.7648        0.0056       20.6675       20.6731      11.908332       7.72732
  42    0.3336        8.7639        0.0077       20.5880       20.5957      11.831771       8.92625
  41    0.4307        8.7628        0.0104       20.4722       20.4826      11.719818       9.73402
  40    0.5894        8.7612        0.0147       20.2637       20.2784      11.517134      10.77846
  39     1.339        8.7578        0.0331       19.0984       19.1315      10.373657      12.87348
  38     1.782        8.7583        0.0427       18.4394       18.4821       9.723733      12.37351
  37     2.292        8.7610        0.0530       17.7714       17.8244       9.063388      10.93703
  36     2.964        8.7676        0.0657       17.0421       17.1078       8.340264       9.07739
  35     3.853        8.7804        0.0816       16.2678       16.3495       7.569085       7.31863
  34     5.035        8.8015        0.1018       15.4803       15.5821       6.780591       5.63267
  33     6.613        8.8323        0.1276       14.7157       14.8433       6.011009       4.11419
  32     8.786        8.8729        0.1614       13.9936       14.1549       5.282062       2.83097
  31     11.80        8.9259        0.2084       13.2835       13.4920       4.566102       2.00446
  30     15.07        8.9770        0.2573       12.7394       12.9966       4.019631       1.41088
  29     18.79        9.0298        0.3114       12.2666       12.5780       3.548188       1.06891
  28     23.16        9.0859        0.3729       11.8300       12.2029       3.117050       0.83368
  27     28.12        9.1433        0.4418       11.4279       11.8697       2.726358       0.66415
  26     33.73        9.1964        0.5178       11.0695       11.5872       2.390851       0.50444
  25     40.54        9.2467        0.6085       10.7209       11.3294       2.082682       0.38232
  24     48.69        9.2943        0.7162       10.3742       11.0904       1.796123       0.29654
  23     57.69        9.3333        0.8328       10.0549       10.8877       1.554358       0.22662
  22     68.43        9.3649        0.9695        9.7327       10.7022       1.337315       0.17062
  21     81.20        9.3801        1.1309        9.4134       10.5443       1.164243       0.11436
  20     96.49        9.3770        1.3207        9.0887       10.4095       1.032494       0.07272
  19     114.6        9.3636        1.5400        8.7388       10.2788       0.915218       0.05476
  18     136.5        9.3429        1.7907        8.3549       10.1456       0.802688       0.04327
  17     162.9        9.3151        2.0765        7.9311       10.0076       0.692507       0.03522
  16     196.4        9.2683        2.4305        7.4333        9.8638       0.595525       0.02441
  15     218.7        9.2345        2.6532        7.1295        9.7828       0.548223       0.01796
  14     243.0        9.1975        2.8860        6.8161        9.7021       0.504544       0.01515
  13     269.0        9.1571        3.1281        6.4943        9.6224       0.465324       0.01272
  12     297.5        9.1133        3.3783        6.1657        9.5440       0.430749       0.01025
  11     328.5        9.0676        3.6358        5.8294        9.4652       0.397646       0.00900
  10     361.9        9.0204        3.8980        5.4885        9.3865       0.366164       0.00797
   9     398.1        8.9718        4.1643        5.1438        9.3082       0.336328       0.00695
   8     437.6        8.9225        4.4333        4.7968        9.2301       0.307566       0.00615
   7     480.5        8.8727        4.7027        4.4503        9.1530       0.280263       0.00536
   6     533.0        8.8157        5.0100        4.0562        9.0662       0.250500       0.00479
   5     589.8        8.7594        5.3130        3.6681        8.9811       0.221682       0.00428
   4     651.6        8.7049        5.6088        3.2895        8.8983       0.193484       0.00386
   3     718.7        8.6526        5.8945        2.9240        8.8185       0.165866       0.00347
   2     792.3        8.6034        6.1678        2.5744        8.7422       0.138831       0.00310
   1     891.5        8.5470        6.4893        2.1631        8.6524       0.105451       0.00284
   0    1013.0        8.4931        6.8128        1.7488        8.5617       0.068614       0.00256



 Wavenumbers: 38000. - 50000. cm-1, ATM      1
 LEVEL PRESSURE   UPWARD FLUX   DIFDOWN FLUX  DIRDOWN FLUX  DOWNWARD FLUX   NET FLUX    HEATING RATE
          mb          W/m2          W/m2          W/m2        W/m2          W/m2       degree/day
  51    .06700        0.0061        0.0000        1.2836        1.2836       1.277518       0.00000
  50    .07753        0.0061        0.0001        1.2812        1.2812       1.275183       1.87150
  49    .09103        0.0060        0.0002        1.2777        1.2778       1.271851       2.08247
  48    0.1069        0.0059        0.0002        1.2731        1.2734       1.267473       2.33059
  47    0.1255        0.0058        0.0004        1.2672        1.2675       1.261717       2.60908
  46    0.1487        0.0057        0.0005        1.2586        1.2591       1.253391       3.03499
  45    0.1794        0.0055        0.0007        1.2455        1.2462       1.240623       3.50520
  44    0.2165        0.0054        0.0009        1.2282        1.2291       1.223697       3.85037
  43    0.2613        0.0052        0.0011        1.2054        1.2065       1.201348       4.21261
  42    0.3336        0.0049        0.0015        1.1639        1.1654       1.160524       4.75970
  41    0.4307        0.0045        0.0020        1.1051        1.1070       1.102565       5.03943
  40    0.5894        0.0039        0.0026        1.0039        1.0064       1.002524       5.32007
  39     1.339        0.0022        0.0035        0.5438        0.5473       0.545104       5.14971
  38     1.782        0.0016        0.0032        0.3635        0.3666       0.365006       3.42879
  37     2.292        0.0012        0.0027        0.2356        0.2383       0.237058       2.11916
  36     2.964        0.0009        0.0022        0.1455        0.1477       0.146786       1.13318
  35     3.853        0.0006        0.0017        0.0858        0.0875       0.086906       0.56828
  34     5.035        0.0004        0.0013        0.0488        0.0501       0.049701       0.26578
  33     6.613        0.0003        0.0010        0.0273        0.0282       0.027974       0.11615
  32     8.786        0.0002        0.0007        0.0144        0.0151       0.014928       0.05067
  31     11.80        0.0001        0.0004        0.0065        0.0070       0.006903       0.02247
  30     15.07        0.0000        0.0003        0.0031        0.0034       0.003329       0.00923
  29     18.79        0.0000        0.0002        0.0014        0.0016       0.001583       0.00396
  28     23.16        0.0000        0.0001        0.0006        0.0007       0.000720       0.00167
  27     28.12        0.0000        0.0001        0.0003        0.0003       0.000317       0.00069
  26     33.73        0.0000        0.0000        0.0001        0.0001       0.000140       0.00027
  25     40.54        0.0000        0.0000        0.0000        0.0001       0.000057       0.00010
  24     48.69        0.0000        0.0000        0.0000        0.0000       0.000021       0.00004
  23     57.69        0.0000        0.0000        0.0000        0.0000       0.000008       0.00001
  22     68.43        0.0000        0.0000        0.0000        0.0000       0.000003       0.00000
  21     81.20        0.0000        0.0000        0.0000        0.0000       0.000001       0.00000
  20     96.49        0.0000        0.0000        0.0000        0.0000       0.000000       0.00000
  19     114.6        0.0000        0.0000        0.0000        0.0000       0.000000       0.00000
  18     136.5        0.0000        0.0000        0.0000        0.0000       0.000000       0.00000
  17     162.9        0.0000        0.0000        0.0000        0.0000       0.000000       0.00000
  16     196.4        0.0000        0.0000        0.0000        0.0000       0.000000       0.00000
  15     218.7        0.0000        0.0000        0.0000        0.0000       0.000000       0.00000
  14     243.0        0.0000        0.0000        0.0000        0.0000       0.000000       0.00000
  13     269.0        0.0000        0.0000        0.0000        0.0000       0.000000       0.00000
  12     297.5        0.0000        0.0000        0.0000        0.0000       0.000000       0.00000
  11     328.5        0.0000        0.0000        0.0000        0.0000       0.000000       0.00000
  10     361.9        0.0000        0.0000        0.0000        0.0000       0.000000       0.00000
   9     398.1        0.0000        0.0000        0.0000        0.0000       0.000000       0.00000
   8     437.6        0.0000        0.0000        0.0000        0.0000       0.000000       0.00000
   7     480.5        0.0000        0.0000        0.0000        0.0000       0.000000       0.00000
   6     533.0        0.0000        0.0000        0.0000        0.0000       0.000000       0.00000
   5     589.8        0.0000        0.0000        0.0000        0.0000       0.000000       0.00000
   4     651.6        0.0000        0.0000        0.0000        0.0000       0.000000       0.00000
   3     718.7        0.0000        0.0000        0.0000        0.0000       0.000000       0.00000
   2     792.3        0.0000        0.0000        0.0000        0.0000       0.000000       0.00000
   1     891.5        0.0000        0.0000        0.0000        0.0000       0.000000       0.00000
   0    1013.0        0.0000        0.0000        0.0000        0.0000       0.000000       0.00000



 Wavenumbers:   820. -  2600. cm-1, ATM      1
 LEVEL PRESSURE   UPWARD FLUX   DIFDOWN FLUX  DIRDOWN FLUX  DOWNWARD FLUX   NET FLUX    HEATING RATE
          mb          W/m2          W/m2          W/m2        W/m2          W/m2       degree/day
  51    .06700        0.0088        0.0000        6.0047        6.0047       5.995875       0.00000
  50    .07753        0.0088        0.0000        6.0008        6.0008       5.991999       3.10672
  49    .09103        0.0088        0.0000        5.9999        5.9999       5.991084       0.57238
  48    0.1069        0.0088        0.0000        5.9988        5.9988       5.990059       0.54564
  47    0.1255        0.0088        0.0000        5.9977        5.9977       5.988898       0.52592
  46    0.1487        0.0088        0.0000        5.9963        5.9963       5.987486       0.51504
  45    0.1794        0.0088        0.0000        5.9945        5.9945       5.985687       0.49379
  44    0.2165        0.0088        0.0000        5.9925        5.9925       5.983747       0.44122
  43    0.2613        0.0088        0.0000        5.9904        5.9904       5.981669       0.39178
  42    0.3336        0.0088        0.0000        5.9874        5.9874       5.978587       0.35924
  41    0.4307        0.0088        0.0000        5.9836        5.9836       5.974843       0.32559
  40    0.5894        0.0088        0.0000        5.9777        5.9777       5.968879       0.31717
  39     1.339        0.0088        0.0000        5.9500        5.9500       5.941245       0.31110
  38     1.782        0.0088        0.0000        5.9347        5.9347       5.925905       0.29205
  37     2.292        0.0088        0.0000        5.9176        5.9176       5.908867       0.28219
  36     2.964        0.0088        0.0000        5.8963        5.8963       5.887557       0.26751
  35     3.853        0.0088        0.0000        5.8699        5.8699       5.861135       0.25075
  34     5.035        0.0088        0.0000        5.8375        5.8375       5.828692       0.23176
  33     6.613        0.0088        0.0000        5.7975        5.7975       5.788759       0.21348
  32     8.786        0.0088        0.0000        5.7483        5.7483       5.739498       0.19131
  31     11.80        0.0088        0.0000        5.6880        5.6880       5.679226       0.16874
  30     15.07        0.0088        0.0000        5.6377        5.6377       5.628903       0.12993
  29     18.79        0.0088        0.0000        5.5962        5.5962       5.587449       0.09399
  28     23.16        0.0088        0.0000        5.5619        5.5619       5.553161       0.06630
  27     28.12        0.0088        0.0000        5.5326        5.5326       5.523838       0.04985
  26     33.73        0.0088        0.0000        5.5052        5.5052       5.496441       0.04119
  25     40.54        0.0088        0.0000        5.4750        5.4750       5.466187       0.03753
  24     48.69        0.0088        0.0000        5.4404        5.4404       5.431649       0.03574
  23     57.69        0.0088        0.0000        5.4038        5.4038       5.395020       0.03433
  22     68.43        0.0088        0.0000        5.3616        5.3616       5.352872       0.03313
  21     81.20        0.0088        0.0000        5.3137        5.3138       5.304987       0.03164
  20     96.49        0.0088        0.0000        5.2591        5.2591       5.250360       0.03015
  19     114.6        0.0088        0.0000        5.1964        5.1964       5.187685       0.02926
  18     136.5        0.0088        0.0000        5.1254        5.1254       5.116625       0.02732
  17     162.9        0.0088        0.0000        5.0371        5.0371       5.028348       0.02822
  16     196.4        0.0088        0.0000        4.9043        4.9044       4.895605       0.03341
  15     218.7        0.0088        0.0000        4.7863        4.7863       4.777550       0.04482
  14     243.0        0.0088        0.0000        4.6267        4.6268       4.618003       0.05534
  13     269.0        0.0088        0.0000        4.4475        4.4475       4.438729       0.05816
  12     297.5        0.0088        0.0000        4.2352        4.2353       4.226500       0.06294
  11     328.5        0.0088        0.0000        3.9885        3.9885       3.979715       0.06710
  10     361.9        0.0088        0.0000        3.7144        3.7144       3.705654       0.06934
   9     398.1        0.0088        0.0000        3.4513        3.4513       3.442494       0.06131
   8     437.6        0.0088        0.0000        3.2351        3.2351       3.226284       0.04623
   7     480.5        0.0088        0.0000        3.0810        3.0810       3.072175       0.03027
   6     533.0        0.0089        0.0000        2.9362        2.9363       2.927385       0.02329
   5     589.8        0.0090        0.0000        2.7749        2.7749       2.765998       0.02396
   4     651.6        0.0091        0.0000        2.5715        2.5715       2.562456       0.02783
   3     718.7        0.0093        0.0000        2.3465        2.3466       2.337239       0.02830
   2     792.3        0.0098        0.0000        2.1027        2.1027       2.092923       0.02802
   1     891.5        0.0110        0.0000        1.7423        1.7424       1.731337       0.03077
   0    1013.0        0.0143        0.0000        1.2558        1.2559       1.241536       0.03401

  Modules and versions used in this calculation:

       rrtmg_sw.1col.f90:  $Revision$                    rrtmg_sw_init.f90:  $Revision$        
     rrtmgsw_cldprop.f90:  $Revision$                  rrtmgsw_cldprmc.f90:  NOT USED          
     rrtmg_sw_reftra.f90:  $Revision$                  rrtmg_sw_spcvrt.f90:  NOT USED          
     rrtmg_sw_spcvmc.f90:  NOT USED                    rrtmgsw_setcoef.f90:  NOT USED          
     rrtmg_sw_taumol.f90:  $Revision$                  rrtmg_sw_vrtqdr.f90:  NOT USED          
                rrtatm.f:  NOT USED                             util_xxx.f:  NOT USED          
                 extra.f:  NOT USED                       rrtmg_sw_k_g.f90:  $Revision$        

