

 Wavenumbers:   820. - 50000. cm-1, ATM      1
 LEVEL PRESSURE   UPWARD FLUX   DIFDOWN FLUX  DIRDOWN FLUX  DOWNWARD FLUX   NET FLUX    HEATING RATE
          mb          W/m2          W/m2          W/m2        W/m2          W/m2       degree/day
  51    .06700      438.3970        0.0000      617.8126      617.8126     179.415549       0.00000
  50    .07753      438.3966        0.0014      617.7950      617.7964     179.399725      12.68322
  49    .09103      438.3962        0.0030      617.7785      617.7815     179.385296       9.01813
  48    0.1069      438.3957        0.0050      617.7592      617.7642     179.368456       8.96403
  47    0.1255      438.3952        0.0072      617.7356      617.7428     179.347583       9.46283
  46    0.1487      438.3946        0.0101      617.7031      617.7131     179.318483      10.60750
  45    0.1794      438.3939        0.0139      617.6551      617.6690     179.275029      11.92898
  44    0.2165      438.3932        0.0184      617.5934      617.6118     179.218616      12.83306
  43    0.2613      438.3925        0.0238      617.5139      617.5377     179.145182      13.84193
  42    0.3336      438.3917        0.0326      617.3710      617.4036     179.011910      15.53828
  41    0.4307      438.3911        0.0443      617.1685      617.2128     178.821724      16.53620
  40    0.5894      438.3910        0.0631      616.8140      616.8770     178.486033      17.85163
  39     1.339      438.4093        0.1480      614.9755      615.1235     176.714213      19.94747
  38     1.782      438.4329        0.1957      614.0074      614.2032     175.770283      17.97091
  37     2.292      438.4719        0.2501      613.0561      613.3062     174.834309      15.50217
  36     2.964      438.5408        0.3208      612.0199      612.3407     173.799893      12.98504
  35     3.853      438.6562        0.4134      610.8793      611.2928     172.636523      11.04060
  34     5.035      438.8338        0.5357      609.6278      610.1636     171.329794       9.33473
  33     6.613      439.0838        0.6980      608.2637      608.9617     169.877970       7.76145
  32     8.786      439.4095        0.9158      606.7684      607.6842     168.274716       6.22646
  31     11.80      439.8313        1.2258      605.0231      606.2489     166.417595       5.19935
  30     15.07      440.2329        1.5567      603.4463      605.0030     164.770067       4.25360
  29     18.79      440.6407        1.9289      601.8816      603.8105     163.169763       3.62838
  28     23.16      441.0642        2.3614      600.2540      602.6154     161.551215       3.12975
  27     28.12      441.4866        2.8538      598.5831      601.4369     159.950256       2.72152
  26     33.73      441.8689        3.4026      596.9249      600.3275     158.458625       2.24271
  25     40.54      442.2254        4.0634      595.1405      599.2039     156.978497       1.83627
  24     48.69      442.5532        4.8564      593.1949      598.0513     155.498110       1.53197
  23     57.69      442.8144        5.7232      591.2454      596.9686     154.154221       1.25969
  22     68.43      443.0182        6.7501      589.1142      595.8643     152.846168       1.02830
  21     81.20      443.1119        7.9677      586.8147      594.7824     151.670445       0.77690
  20     96.49      443.0856        9.4093      584.2977      593.7070     150.621474       0.57896
  19     114.6      442.9937       11.1051      581.4502      592.5553     149.561570       0.49490
  18     136.5      442.8407       13.0908      578.2061      591.2969     148.456149       0.42506
  17     162.9      442.6213       15.4211      574.4819      589.9030     147.281723       0.37539
  16     196.4      442.2499       18.3931      569.8685      588.2615     146.011604       0.31970
  15     218.7      441.9775       20.3147      566.8821      587.1968     145.219329       0.30080
  14     243.0      441.6720       22.3761      563.5906      585.9667     144.294786       0.32066
  13     269.0      441.3323       24.5789      559.9229      584.5018     143.169449       0.36505
  12     297.5      440.9596       26.9238      555.8438      582.7675     141.807925       0.40381
  11     328.5      440.5615       29.4173      551.4329      580.8501     140.288629       0.41309
  10     361.9      440.1410       32.0556      546.6393      578.6949     138.553973       0.43889
   9     398.1      439.7006       34.8438      541.3790      576.2229     136.522215       0.47335
   8     437.6      439.2480       37.7811      535.5828      573.3639     134.115939       0.51448
   7     480.5      438.7890       40.8660      529.2800      570.1460     131.356977       0.54185
   6     533.0      438.2710       44.5767      521.4351      566.0118     127.740812       0.58173
   5     589.8      437.7907       48.4739      512.7844      561.2583     123.467666       0.63427
   4     651.6      437.4156       52.5507      502.9327      555.4834     118.067854       0.73844
   3     718.7      437.2265       56.7988      491.9875      548.7863     111.559769       0.81789
   2     792.3      437.3905       61.2059      479.9557      541.1616     103.771115       0.89327
   1     891.5      438.5095       66.9264      463.7800      530.7064      92.196909       0.98491
   0    1013.0      442.0666       73.4776      445.1813      518.6590      76.592341       1.08351



 Wavenumbers:  2600. -  3250. cm-1, ATM      1
 LEVEL PRESSURE   UPWARD FLUX   DIFDOWN FLUX  DIRDOWN FLUX  DOWNWARD FLUX   NET FLUX    HEATING RATE
          mb          W/m2          W/m2          W/m2        W/m2          W/m2       degree/day
  51    .06700        2.2861        0.0000        5.4450        5.4450       3.158913       0.00000
  50    .07753        2.2861        0.0000        5.4450        5.4450       3.158905       0.00640
  49    .09103        2.2861        0.0000        5.4450        5.4450       3.158895       0.00627
  48    0.1069        2.2861        0.0000        5.4450        5.4450       3.158883       0.00613
  47    0.1255        2.2861        0.0000        5.4450        5.4450       3.158870       0.00600
  46    0.1487        2.2861        0.0000        5.4450        5.4450       3.158854       0.00608
  45    0.1794        2.2861        0.0000        5.4450        5.4450       3.158831       0.00625
  44    0.2165        2.2861        0.0000        5.4449        5.4449       3.158804       0.00612
  43    0.2613        2.2861        0.0000        5.4449        5.4449       3.158772       0.00600
  42    0.3336        2.2861        0.0000        5.4448        5.4448       3.158719       0.00617
  41    0.4307        2.2861        0.0000        5.4448        5.4448       3.158648       0.00620
  40    0.5894        2.2861        0.0000        5.4446        5.4446       3.158528       0.00637
  39     1.339        2.2861        0.0000        5.4439        5.4439       3.157820       0.00797
  38     1.782        2.2861        0.0000        5.4434        5.4434       3.157277       0.01034
  37     2.292        2.2861        0.0000        5.4427        5.4427       3.156561       0.01186
  36     2.964        2.2861        0.0000        5.4416        5.4416       3.155522       0.01304
  35     3.853        2.2861        0.0000        5.4402        5.4402       3.154045       0.01402
  34     5.035        2.2861        0.0000        5.4381        5.4381       3.151988       0.01469
  33     6.613        2.2861        0.0000        5.4353        5.4353       3.149206       0.01488
  32     8.786        2.2861        0.0000        5.4317        5.4317       3.145571       0.01412
  31     11.80        2.2861        0.0000        5.4269        5.4269       3.140786       0.01340
  30     15.07        2.2861        0.0000        5.4224        5.4224       3.136252       0.01171
  29     18.79        2.2861        0.0000        5.4180        5.4180       3.131829       0.01003
  28     23.16        2.2862        0.0000        5.4135        5.4135       3.127328       0.00870
  27     28.12        2.2862        0.0000        5.4088        5.4088       3.122658       0.00794
  26     33.73        2.2862        0.0000        5.4036        5.4036       3.117387       0.00793
  25     40.54        2.2863        0.0000        5.3966        5.3967       3.110399       0.00867
  24     48.69        2.2863        0.0000        5.3872        5.3872       3.100851       0.00988
  23     57.69        2.2864        0.0000        5.3754        5.3754       3.088970       0.01114
  22     68.43        2.2866        0.0000        5.3599        5.3599       3.073345       0.01228
  21     81.20        2.2868        0.0000        5.3401        5.3401       3.053319       0.01323
  20     96.49        2.2871        0.0000        5.3155        5.3155       3.028485       0.01371
  19     114.6        2.2874        0.0001        5.2860        5.2861       2.998653       0.01393
  18     136.5        2.2879        0.0001        5.2519        5.2519       2.964034       0.01331
  17     162.9        2.2886        0.0001        5.2136        5.2136       2.925027       0.01247
  16     196.4        2.2897        0.0001        5.1689        5.1690       2.879363       0.01149
  15     218.7        2.2905        0.0001        5.1426        5.1427       2.852229       0.01030
  14     243.0        2.2914        0.0001        5.1161        5.1162       2.824769       0.00952
  13     269.0        2.2927        0.0001        5.0892        5.0893       2.796626       0.00913
  12     297.5        2.2944        0.0001        5.0613        5.0614       2.766995       0.00879
  11     328.5        2.2966        0.0001        5.0318        5.0320       2.735357       0.00860
  10     361.9        2.2995        0.0002        4.9999        5.0000       2.700540       0.00881
   9     398.1        2.3033        0.0002        4.9635        4.9637       2.660381       0.00936
   8     437.6        2.3082        0.0002        4.9209        4.9211       2.612892       0.01015
   7     480.5        2.3145        0.0002        4.8709        4.8712       2.556664       0.01104
   6     533.0        2.3239        0.0002        4.8013        4.8015       2.477608       0.01272
   5     589.8        2.3366        0.0003        4.7134        4.7137       2.377116       0.01492
   4     651.6        2.3547        0.0003        4.5976        4.5979       2.243178       0.01832
   3     718.7        2.3806        0.0003        4.4507        4.4510       2.070348       0.02172
   2     792.3        2.4189        0.0003        4.2689        4.2692       1.850321       0.02523
   1     891.5        2.4952        0.0003        4.0014        4.0017       1.506506       0.02926
   0    1013.0        2.6462        0.0004        3.6846        3.6850       1.038765       0.03248



 Wavenumbers:  3250. -  4000. cm-1, ATM      1
 LEVEL PRESSURE   UPWARD FLUX   DIFDOWN FLUX  DIRDOWN FLUX  DOWNWARD FLUX   NET FLUX    HEATING RATE
          mb          W/m2          W/m2          W/m2        W/m2          W/m2       degree/day
  51    .06700        0.5517        0.0000        9.1795        9.1795       8.627868       0.00000
  50    .07753        0.5517        0.0000        9.1749        9.1749       8.623196       3.74525
  49    .09103        0.5517        0.0000        9.1717        9.1717       8.619999       1.99767
  48    0.1069        0.5517        0.0000        9.1693        9.1693       8.617670       1.23977
  47    0.1255        0.5517        0.0000        9.1673        9.1673       8.615615       0.93192
  46    0.1487        0.5517        0.0000        9.1651        9.1651       8.613408       0.80426
  45    0.1794        0.5517        0.0000        9.1625        9.1625       8.610815       0.71196
  44    0.2165        0.5517        0.0000        9.1599        9.1599       8.608201       0.59464
  43    0.2613        0.5517        0.0000        9.1572        9.1572       8.605573       0.49539
  42    0.3336        0.5517        0.0000        9.1536        9.1536       8.601959       0.42137
  41    0.4307        0.5517        0.0000        9.1496        9.1496       8.597943       0.34917
  40    0.5894        0.5517        0.0000        9.1438        9.1438       8.592137       0.30874
  39     1.339        0.5517        0.0000        9.1210        9.1210       8.569338       0.25668
  38     1.782        0.5517        0.0000        9.1106        9.1106       8.558956       0.19766
  37     2.292        0.5517        0.0000        9.1005        9.1005       8.548885       0.16679
  36     2.964        0.5517        0.0000        9.0892        9.0892       8.537530       0.14255
  35     3.853        0.5517        0.0000        9.0758        9.0758       8.524113       0.12732
  34     5.035        0.5517        0.0000        9.0590        9.0590       8.507357       0.11970
  33     6.613        0.5517        0.0000        9.0368        9.0369       8.485201       0.11845
  32     8.786        0.5516        0.0000        9.0059        9.0059       8.454261       0.12016
  31     11.80        0.5516        0.0000        8.9595        8.9595       8.407860       0.12991
  30     15.07        0.5516        0.0000        8.9075        8.9076       8.355911       0.13412
  29     18.79        0.5516        0.0000        8.8474        8.8474       8.295745       0.13642
  28     23.16        0.5516        0.0000        8.7769        8.7770       8.225351       0.13612
  27     28.12        0.5516        0.0000        8.6988        8.6988       8.147180       0.13288
  26     33.73        0.5516        0.0000        8.6168        8.6168       8.065208       0.12325
  25     40.54        0.5516        0.0001        8.5269        8.5270       7.975397       0.11142
  24     48.69        0.5516        0.0001        8.4310        8.4311       7.879484       0.09926
  23     57.69        0.5516        0.0001        8.3363        8.3364       7.784817       0.08874
  22     68.43        0.5516        0.0001        8.2309        8.2310       7.679396       0.08287
  21     81.20        0.5516        0.0001        8.1093        8.1094       7.557881       0.08030
  20     96.49        0.5515        0.0001        7.9680        7.9682       7.416624       0.07796
  19     114.6        0.5515        0.0002        7.8069        7.8070       7.255504       0.07523
  18     136.5        0.5515        0.0002        7.6300        7.6302       7.078703       0.06798
  17     162.9        0.5515        0.0002        7.4385        7.4388       6.887277       0.06119
  16     196.4        0.5514        0.0002        7.2131        7.2134       6.661941       0.05672
  15     218.7        0.5514        0.0003        7.0643        7.0646       6.513145       0.05649
  14     243.0        0.5514        0.0003        6.8878        6.8881       6.336636       0.06122
  13     269.0        0.5515        0.0003        6.6672        6.6675       6.116033       0.07156
  12     297.5        0.5516        0.0003        6.3933        6.3936       5.841972       0.08128
  11     328.5        0.5519        0.0003        6.1199        6.1203       5.568437       0.07437
  10     361.9        0.5522        0.0004        5.8401        5.8405       5.288240       0.07089
   9     398.1        0.5529        0.0004        5.5379        5.5383       4.985441       0.07055
   8     437.6        0.5539        0.0004        5.1934        5.1938       4.639872       0.07388
   7     480.5        0.5555        0.0004        4.8108        4.8113       4.255738       0.07544
   6     533.0        0.5585        0.0004        4.3421        4.3425       3.784068       0.07588
   5     589.8        0.5634        0.0004        3.8589        3.8593       3.295966       0.07245
   4     651.6        0.5724        0.0004        3.3492        3.3496       2.777200       0.07094
   3     718.7        0.5885        0.0004        2.8480        2.8484       2.259915       0.06501
   2     792.3        0.6181        0.0004        2.3596        2.3599       1.741795       0.05942
   1     891.5        0.6934        0.0003        1.7919        1.7922       1.098842       0.05471
   0    1013.0        0.8959        0.0003        1.2473        1.2476       0.351669       0.05188



 Wavenumbers:  4000. -  4650. cm-1, ATM      1
 LEVEL PRESSURE   UPWARD FLUX   DIFDOWN FLUX  DIRDOWN FLUX  DOWNWARD FLUX   NET FLUX    HEATING RATE
          mb          W/m2          W/m2          W/m2        W/m2          W/m2       degree/day
  51    .06700        6.0451        0.0000       10.7795       10.7795       4.734431       0.00000
  50    .07753        6.0451        0.0000       10.7795       10.7795       4.734430       0.00084
  49    .09103        6.0451        0.0000       10.7795       10.7795       4.734429       0.00082
  48    0.1069        6.0451        0.0000       10.7795       10.7795       4.734427       0.00080
  47    0.1255        6.0451        0.0000       10.7795       10.7795       4.734426       0.00079
  46    0.1487        6.0451        0.0000       10.7795       10.7795       4.734423       0.00080
  45    0.1794        6.0451        0.0000       10.7795       10.7795       4.734420       0.00082
  44    0.2165        6.0451        0.0000       10.7795       10.7795       4.734417       0.00080
  43    0.2613        6.0451        0.0000       10.7795       10.7795       4.734413       0.00079
  42    0.3336        6.0451        0.0000       10.7795       10.7795       4.734406       0.00081
  41    0.4307        6.0451        0.0000       10.7795       10.7795       4.734396       0.00082
  40    0.5894        6.0451        0.0000       10.7795       10.7795       4.734380       0.00084
  39     1.339        6.0451        0.0000       10.7794       10.7794       4.734286       0.00107
  38     1.782        6.0451        0.0000       10.7793       10.7793       4.734212       0.00141
  37     2.292        6.0451        0.0000       10.7792       10.7792       4.734112       0.00165
  36     2.964        6.0451        0.0000       10.7791       10.7791       4.733964       0.00186
  35     3.853        6.0451        0.0000       10.7788       10.7789       4.733744       0.00209
  34     5.035        6.0451        0.0000       10.7785       10.7785       4.733419       0.00232
  33     6.613        6.0451        0.0000       10.7780       10.7781       4.732941       0.00256
  32     8.786        6.0451        0.0000       10.7773       10.7774       4.732234       0.00274
  31     11.80        6.0451        0.0001       10.7762       10.7763       4.731123       0.00311
  30     15.07        6.0452        0.0001       10.7749       10.7750       4.729816       0.00337
  29     18.79        6.0452        0.0001       10.7733       10.7734       4.728232       0.00359
  28     23.16        6.0452        0.0001       10.7714       10.7715       4.726261       0.00381
  27     28.12        6.0453        0.0001       10.7690       10.7692       4.723868       0.00407
  26     33.73        6.0454        0.0002       10.7661       10.7663       4.720909       0.00445
  25     40.54        6.0455        0.0002       10.7622       10.7624       4.716882       0.00500
  24     48.69        6.0457        0.0002       10.7570       10.7572       4.711496       0.00557
  23     57.69        6.0460        0.0003       10.7508       10.7511       4.705085       0.00601
  22     68.43        6.0464        0.0003       10.7431       10.7434       4.697011       0.00635
  21     81.20        6.0470        0.0004       10.7336       10.7340       4.687018       0.00660
  20     96.49        6.0478        0.0005       10.7221       10.7225       4.674789       0.00675
  19     114.6        6.0488        0.0006       10.7082       10.7087       4.659955       0.00693
  18     136.5        6.0502        0.0007       10.6915       10.6921       4.641969       0.00692
  17     162.9        6.0521        0.0008       10.6714       10.6722       4.620066       0.00700
  16     196.4        6.0549        0.0009       10.6449       10.6458       4.590920       0.00734
  15     218.7        6.0570        0.0011       10.6271       10.6281       4.571098       0.00753
  14     243.0        6.0597        0.0012       10.6070       10.6082       4.548491       0.00784
  13     269.0        6.0630        0.0013       10.5838       10.5851       4.522141       0.00855
  12     297.5        6.0672        0.0014       10.5569       10.5584       4.491204       0.00918
  11     328.5        6.0723        0.0016       10.5260       10.5275       4.455267       0.00977
  10     361.9        6.0785        0.0017       10.4905       10.4923       4.413745       0.01051
   9     398.1        6.0861        0.0019       10.4499       10.4518       4.365697       0.01119
   8     437.6        6.0955        0.0021       10.4028       10.4049       4.309425       0.01203
   7     480.5        6.1070        0.0023       10.3482       10.3505       4.243464       0.01295
   6     533.0        6.1236        0.0025       10.2743       10.2768       4.153223       0.01452
   5     589.8        6.1450        0.0027       10.1833       10.1861       4.041058       0.01665
   4     651.6        6.1738        0.0030       10.0649       10.0679       3.894144       0.02009
   3     718.7        6.2129        0.0033        9.9141        9.9174       3.704537       0.02383
   2     792.3        6.2669        0.0036        9.7271        9.7306       3.463725       0.02762
   1     891.5        6.3662        0.0039        9.4525        9.4564       3.090150       0.03179
   0    1013.0        6.5463        0.0043        9.1113        9.1156       2.569371       0.03616



 Wavenumbers:  4650. -  5150. cm-1, ATM      1
 LEVEL PRESSURE   UPWARD FLUX   DIFDOWN FLUX  DIRDOWN FLUX  DOWNWARD FLUX   NET FLUX    HEATING RATE
          mb          W/m2          W/m2          W/m2        W/m2          W/m2       degree/day
  51    .06700        4.1655        0.0000       10.2033       10.2033       6.037809       0.00000
  50    .07753        4.1655        0.0000       10.2031       10.2031       6.037580       0.18369
  49    .09103        4.1655        0.0000       10.2028       10.2028       6.037293       0.17911
  48    0.1069        4.1655        0.0000       10.2025       10.2025       6.036966       0.17429
  47    0.1255        4.1655        0.0000       10.2021       10.2021       6.036592       0.16940
  46    0.1487        4.1655        0.0000       10.2017       10.2017       6.036124       0.17048
  45    0.1794        4.1655        0.0000       10.2010       10.2010       6.035492       0.17356
  44    0.2165        4.1655        0.0000       10.2003       10.2003       6.034754       0.16800
  43    0.2613        4.1655        0.0000       10.1994       10.1994       6.033893       0.16231
  42    0.3336        4.1655        0.0000       10.1980       10.1980       6.032499       0.16245
  41    0.4307        4.1655        0.0000       10.1962       10.1962       6.030709       0.15567
  40    0.5894        4.1655        0.0000       10.1934       10.1934       6.027912       0.14871
  39     1.339        4.1655        0.0000       10.1821       10.1822       6.016626       0.12706
  38     1.782        4.1655        0.0000       10.1768       10.1768       6.011239       0.10256
  37     2.292        4.1655        0.0000       10.1714       10.1714       6.005920       0.08811
  36     2.964        4.1655        0.0000       10.1656       10.1657       6.000140       0.07255
  35     3.853        4.1655        0.0000       10.1596       10.1596       5.994068       0.05762
  34     5.035        4.1655        0.0000       10.1534       10.1534       5.987864       0.04432
  33     6.613        4.1655        0.0000       10.1470       10.1471       5.981521       0.03391
  32     8.786        4.1655        0.0001       10.1401       10.1402       5.974605       0.02686
  31     11.80        4.1656        0.0001       10.1311       10.1312       5.965654       0.02506
  30     15.07        4.1656        0.0001       10.1214       10.1215       5.955853       0.02530
  29     18.79        4.1657        0.0001       10.1095       10.1096       5.943929       0.02704
  28     23.16        4.1657        0.0002       10.0943       10.0945       5.928720       0.02941
  27     28.12        4.1659        0.0002       10.0754       10.0756       5.909736       0.03227
  26     33.73        4.1660        0.0002       10.0525       10.0528       5.886763       0.03454
  25     40.54        4.1662        0.0003       10.0229       10.0232       5.856997       0.03693
  24     48.69        4.1665        0.0003        9.9852        9.9855       5.818973       0.03935
  23     57.69        4.1669        0.0004        9.9421        9.9425       5.775562       0.04069
  22     68.43        4.1675        0.0005        9.8900        9.8904       5.722921       0.04138
  21     81.20        4.1683        0.0006        9.8283        9.8288       5.660537       0.04122
  20     96.49        4.1694        0.0007        9.7573        9.7580       5.588566       0.03972
  19     114.6        4.1709        0.0008        9.6784        9.6791       5.508257       0.03750
  18     136.5        4.1730        0.0009        9.5931        9.5940       5.421063       0.03353
  17     162.9        4.1758        0.0011        9.5024        9.5034       5.327619       0.02987
  16     196.4        4.1802        0.0013        9.3979        9.3992       5.219025       0.02733
  15     218.7        4.1835        0.0014        9.3342        9.3357       5.152148       0.02539
  14     243.0        4.1876        0.0016        9.2670        9.2686       5.081011       0.02467
  13     269.0        4.1925        0.0017        9.1949        9.1967       5.004154       0.02493
  12     297.5        4.1985        0.0019        9.1161        9.1180       4.919512       0.02510
  11     328.5        4.2058        0.0021        9.0292        9.0313       4.825469       0.02557
  10     361.9        4.2147        0.0023        8.9326        8.9349       4.720207       0.02663
   9     398.1        4.2254        0.0025        8.8250        8.8275       4.602090       0.02752
   8     437.6        4.2386        0.0027        8.7048        8.7076       4.468961       0.02846
   7     480.5        4.2548        0.0030        8.5715        8.5744       4.319657       0.02932
   6     533.0        4.2779        0.0032        8.4014        8.4046       4.126697       0.03104
   5     589.8        4.3079        0.0035        8.2109        8.2144       3.906508       0.03268
   4     651.6        4.3483        0.0038        7.9938        7.9976       3.649257       0.03518
   3     718.7        4.4014        0.0041        7.7543        7.7584       3.356911       0.03674
   2     792.3        4.4732        0.0044        7.4897        7.4941       3.020845       0.03854
   1     891.5        4.6010        0.0048        7.1292        7.1340       2.532917       0.04152
   0    1013.0        4.8207        0.0052        6.7075        6.7126       1.891899       0.04451



 Wavenumbers:  5150. -  6150. cm-1, ATM      1
 LEVEL PRESSURE   UPWARD FLUX   DIFDOWN FLUX  DIRDOWN FLUX  DOWNWARD FLUX   NET FLUX    HEATING RATE
          mb          W/m2          W/m2          W/m2        W/m2          W/m2       degree/day
  51    .06700       10.5632        0.0000       25.5798       25.5798      15.016591       0.00000
  50    .07753       10.5632        0.0000       25.5798       25.5798      15.016588       0.00256
  49    .09103       10.5632        0.0000       25.5798       25.5798      15.016583       0.00259
  48    0.1069       10.5632        0.0000       25.5798       25.5798      15.016579       0.00262
  47    0.1255       10.5632        0.0000       25.5798       25.5798      15.016573       0.00265
  46    0.1487       10.5632        0.0000       25.5798       25.5798      15.016565       0.00279
  45    0.1794       10.5632        0.0000       25.5798       25.5798      15.016554       0.00296
  44    0.2165       10.5632        0.0000       25.5798       25.5798      15.016541       0.00300
  43    0.2613       10.5632        0.0000       25.5797       25.5798      15.016525       0.00304
  42    0.3336       10.5632        0.0000       25.5797       25.5797      15.016498       0.00320
  41    0.4307       10.5632        0.0000       25.5797       25.5797      15.016460       0.00325
  40    0.5894       10.5632        0.0000       25.5796       25.5796      15.016397       0.00334
  39     1.339       10.5632        0.0000       25.5793       25.5793      15.016087       0.00349
  38     1.782       10.5632        0.0001       25.5791       25.5791      15.015899       0.00358
  37     2.292       10.5632        0.0001       25.5788       25.5789      15.015680       0.00363
  36     2.964       10.5632        0.0001       25.5785       25.5786      15.015393       0.00360
  35     3.853       10.5632        0.0001       25.5781       25.5783      15.015016       0.00359
  34     5.035       10.5633        0.0002       25.5776       25.5778      15.014510       0.00361
  33     6.613       10.5633        0.0002       25.5769       25.5771      15.013826       0.00366
  32     8.786       10.5633        0.0003       25.5759       25.5762      15.012895       0.00362
  31     11.80       10.5634        0.0004       25.5746       25.5749      15.011552       0.00376
  30     15.07       10.5635        0.0005       25.5731       25.5736      15.010103       0.00374
  29     18.79       10.5636        0.0006       25.5714       25.5720      15.008472       0.00370
  28     23.16       10.5637        0.0007       25.5695       25.5703      15.006573       0.00367
  27     28.12       10.5639        0.0009       25.5674       25.5683      15.004404       0.00369
  26     33.73       10.5641        0.0011       25.5650       25.5661      15.001960       0.00367
  25     40.54       10.5644        0.0013       25.5621       25.5634      14.998956       0.00373
  24     48.69       10.5649        0.0015       25.5586       25.5602      14.995298       0.00378
  23     57.69       10.5654        0.0018       25.5548       25.5566      14.991221       0.00382
  22     68.43       10.5661        0.0022       25.5503       25.5524      14.986315       0.00386
  21     81.20       10.5670        0.0026       25.5448       25.5474      14.980406       0.00390
  20     96.49       10.5681        0.0031       25.5383       25.5414      14.973245       0.00395
  19     114.6       10.5695        0.0036       25.5304       25.5340      14.964519       0.00407
  18     136.5       10.5712        0.0043       25.5207       25.5250      14.953815       0.00412
  17     162.9       10.5733        0.0051       25.5068       25.5120      14.938720       0.00483
  16     196.4       10.5760        0.0062       25.4792       25.4854      14.909316       0.00740
  15     218.7       10.5779        0.0069       25.4385       25.4454      14.867428       0.01590
  14     243.0       10.5801        0.0076       25.3557       25.3633      14.783226       0.02920
  13     269.0       10.5826        0.0084       25.2173       25.2257      14.643135       0.04545
  12     297.5       10.5854        0.0093       25.0305       25.0398      14.454362       0.05599
  11     328.5       10.5888        0.0102       24.8083       24.8185      14.229691       0.06109
  10     361.9       10.5927        0.0111       24.5230       24.5342      13.941442       0.07293
   9     398.1       10.5974        0.0121       24.1627       24.1748      13.577357       0.08482
   8     437.6       10.6032        0.0131       23.7339       23.7470      13.143797       0.09270
   7     480.5       10.6105        0.0142       23.2614       23.2756      12.665115       0.09401
   6     533.0       10.6214        0.0154       22.6584       22.6738      12.052358       0.09857
   5     589.8       10.6369        0.0166       21.9272       21.9439      11.306917       0.11065
   4     651.6       10.6616        0.0178       20.9759       20.9937      10.332116       0.13331
   3     718.7       10.7018        0.0189       19.8787       19.8975       9.195755       0.14281
   2     792.3       10.7715        0.0199       18.6812       18.7010       7.929530       0.14522
   1     891.5       10.9425        0.0210       17.2076       17.2286       6.286150       0.13984
   0    1013.0       11.4029        0.0225       15.8544       15.8769       4.473985       0.12583



 Wavenumbers:  6150. -  7700. cm-1, ATM      1
 LEVEL PRESSURE   UPWARD FLUX   DIFDOWN FLUX  DIRDOWN FLUX  DOWNWARD FLUX   NET FLUX    HEATING RATE
          mb          W/m2          W/m2          W/m2        W/m2          W/m2       degree/day
  51    .06700       19.4948        0.0000       47.3108       47.3108      27.815996       0.00000
  50    .07753       19.4948        0.0000       47.3108       47.3108      27.815976       0.01540
  49    .09103       19.4948        0.0000       47.3108       47.3108      27.815952       0.01518
  48    0.1069       19.4948        0.0000       47.3108       47.3108      27.815924       0.01496
  47    0.1255       19.4948        0.0000       47.3107       47.3107      27.815891       0.01473
  46    0.1487       19.4948        0.0000       47.3107       47.3107      27.815850       0.01505
  45    0.1794       19.4948        0.0000       47.3106       47.3106      27.815793       0.01558
  44    0.2165       19.4948        0.0000       47.3105       47.3106      27.815726       0.01538
  43    0.2613       19.4948        0.0000       47.3105       47.3105      27.815645       0.01519
  42    0.3336       19.4948        0.0000       47.3103       47.3103      27.815511       0.01565
  41    0.4307       19.4948        0.0000       47.3101       47.3102      27.815332       0.01555
  40    0.5894       19.4948        0.0001       47.3098       47.3098      27.815038       0.01562
  39     1.339       19.4948        0.0002       47.3082       47.3084      27.813643       0.01571
  38     1.782       19.4947        0.0002       47.3073       47.3075      27.812825       0.01558
  37     2.292       19.4947        0.0003       47.3063       47.3066      27.811882       0.01562
  36     2.964       19.4946        0.0004       47.3049       47.3053      27.810652       0.01544
  35     3.853       19.4946        0.0005       47.3031       47.3036      27.809040       0.01530
  34     5.035       19.4945        0.0007       47.3007       47.3014      27.806911       0.01521
  33     6.613       19.4944        0.0009       47.2976       47.2984      27.804082       0.01512
  32     8.786       19.4942        0.0012       47.2933       47.2945      27.800299       0.01469
  31     11.80       19.4940        0.0016       47.2873       47.2889      27.794944       0.01499
  30     15.07       19.4937        0.0020       47.2810       47.2830      27.789270       0.01465
  29     18.79       19.4934        0.0025       47.2739       47.2764      27.782957       0.01431
  28     23.16       19.4931        0.0031       47.2657       47.2688      27.775700       0.01403
  27     28.12       19.4927        0.0038       47.2565       47.2603      27.767542       0.01387
  26     33.73       19.4923        0.0045       47.2464       47.2509      27.758598       0.01345
  25     40.54       19.4918        0.0054       47.2344       47.2399      27.748038       0.01310
  24     48.69       19.4912        0.0065       47.2204       47.2269      27.735655       0.01281
  23     57.69       19.4906        0.0077       47.2052       47.2130      27.722405       0.01242
  22     68.43       19.4898        0.0092       47.1876       47.1968      27.707041       0.01208
  21     81.20       19.4888        0.0109       47.1672       47.1780      27.689227       0.01177
  20     96.49       19.4877        0.0129       47.1433       47.1562      27.668546       0.01141
  19     114.6       19.4864        0.0153       47.1155       47.1308      27.644475       0.01124
  18     136.5       19.4848        0.0182       47.0831       47.1014      27.616586       0.01072
  17     162.9       19.4829        0.0217       47.0436       47.0652      27.582327       0.01095
  16     196.4       19.4806        0.0261       46.9851       47.0112      27.530645       0.01301
  15     218.7       19.4792        0.0291       46.9270       46.9560      27.476837       0.02043
  14     243.0       19.4780        0.0322       46.8255       46.8577      27.379716       0.03368
  13     269.0       19.4772        0.0356       46.6521       46.6877      27.210521       0.05489
  12     297.5       19.4770        0.0393       46.3932       46.4325      26.955511       0.07563
  11     328.5       19.4775        0.0431       46.0756       46.1188      26.641286       0.08544
  10     361.9       19.4791        0.0472       45.6840       45.7312      26.252082       0.09847
   9     398.1       19.4824        0.0515       45.1791       45.2307      25.748227       0.11739
   8     437.6       19.4885        0.0560       44.5266       44.5826      25.094044       0.13987
   7     480.5       19.4986        0.0606       43.7374       43.7980      24.299323       0.15608
   6     533.0       19.5179        0.0660       42.6866       42.7525      23.234671       0.17127
   5     589.8       19.5509        0.0714       41.4541       41.5255      21.974564       0.18704
   4     651.6       19.6121        0.0767       39.8904       39.9671      20.355010       0.22148
   3     718.7       19.7204        0.0816       38.0051       38.0867      18.366365       0.24992
   2     792.3       19.9161        0.0859       35.8310       35.9169      16.000772       0.27131
   1     891.5       20.3948        0.0908       32.9593       33.0501      12.655241       0.28469
   0    1013.0       21.5841        0.0959       29.9513       30.0471       8.463012       0.29109



 Wavenumbers:  7700. -  8050. cm-1, ATM      1
 LEVEL PRESSURE   UPWARD FLUX   DIFDOWN FLUX  DIRDOWN FLUX  DOWNWARD FLUX   NET FLUX    HEATING RATE
          mb          W/m2          W/m2          W/m2        W/m2          W/m2       degree/day
  51    .06700        6.6204        0.0000       11.1810       11.1810       4.560538       0.00000
  50    .07753        6.6204        0.0000       11.1809       11.1809       4.560515       0.01793
  49    .09103        6.6204        0.0000       11.1809       11.1809       4.560487       0.01757
  48    0.1069        6.6204        0.0000       11.1809       11.1809       4.560455       0.01720
  47    0.1255        6.6205        0.0000       11.1809       11.1809       4.560418       0.01684
  46    0.1487        6.6205        0.0000       11.1808       11.1808       4.560371       0.01708
  45    0.1794        6.6205        0.0000       11.1808       11.1808       4.560307       0.01758
  44    0.2165        6.6205        0.0000       11.1807       11.1807       4.560231       0.01724
  43    0.2613        6.6205        0.0000       11.1806       11.1806       4.560141       0.01692
  42    0.3336        6.6205        0.0000       11.1805       11.1805       4.559993       0.01731
  41    0.4307        6.6206        0.0000       11.1803       11.1804       4.559796       0.01712
  40    0.5894        6.6206        0.0000       11.1801       11.1801       4.559474       0.01711
  39     1.339        6.6209        0.0001       11.1788       11.1789       4.557953       0.01713
  38     1.782        6.6211        0.0001       11.1781       11.1782       4.557059       0.01702
  37     2.292        6.6213        0.0001       11.1772       11.1773       4.556024       0.01714
  36     2.964        6.6216        0.0002       11.1761       11.1762       4.554665       0.01706
  35     3.853        6.6219        0.0002       11.1746       11.1748       4.552870       0.01703
  34     5.035        6.6224        0.0003       11.1726       11.1729       4.550486       0.01703
  33     6.613        6.6230        0.0004       11.1699       11.1703       4.547302       0.01702
  32     8.786        6.6239        0.0005       11.1664       11.1669       4.543012       0.01666
  31     11.80        6.6251        0.0007       11.1613       11.1619       4.536878       0.01717
  30     15.07        6.6264        0.0009       11.1558       11.1566       4.530297       0.01699
  29     18.79        6.6278        0.0011       11.1496       11.1507       4.522869       0.01684
  28     23.16        6.6295        0.0013       11.1424       11.1438       4.514204       0.01676
  27     28.12        6.6315        0.0016       11.1342       11.1358       4.504309       0.01682
  26     33.73        6.6337        0.0019       11.1251       11.1270       4.493256       0.01662
  25     40.54        6.6364        0.0023       11.1141       11.1164       4.479929       0.01653
  24     48.69        6.6397        0.0028       11.1009       11.1036       4.463907       0.01658
  23     57.69        6.6433        0.0033       11.0864       11.0897       4.446362       0.01645
  22     68.43        6.6477        0.0039       11.0693       11.0732       4.425544       0.01637
  21     81.20        6.6528        0.0046       11.0491       11.0537       4.400852       0.01632
  20     96.49        6.6591        0.0054       11.0253       11.0307       4.371586       0.01615
  19     114.6        6.6666        0.0064       10.9972       11.0037       4.337059       0.01612
  18     136.5        6.6756        0.0076       10.9644       10.9720       4.296431       0.01562
  17     162.9        6.6865        0.0091       10.9259       10.9349       4.248451       0.01534
  16     196.4        6.7008        0.0109       10.8768       10.8877       4.186840       0.01551
  15     218.7        6.7104        0.0121       10.8450       10.8571       4.146715       0.01523
  14     243.0        6.7210        0.0135       10.8109       10.8244       4.103374       0.01503
  13     269.0        6.7326        0.0149       10.7745       10.7893       4.056701       0.01514
  12     297.5        6.7454        0.0164       10.7356       10.7520       4.006561       0.01487
  11     328.5        6.7595        0.0181       10.6941       10.7122       3.952683       0.01465
  10     361.9        6.7750        0.0199       10.6501       10.6699       3.894963       0.01460
   9     398.1        6.7920        0.0218       10.6033       10.6251       3.833116       0.01441
   8     437.6        6.8107        0.0239       10.5537       10.5776       3.766908       0.01416
   7     480.5        6.8312        0.0261       10.5012       10.5273       3.696083       0.01391
   6     533.0        6.8573        0.0288       10.4374       10.4662       3.608887       0.01403
   5     589.8        6.8865        0.0317       10.3694       10.4012       3.514618       0.01399
   4     651.6        6.9193        0.0349       10.2969       10.3318       3.412480       0.01397
   3     718.7        6.9562        0.0383       10.2193       10.2576       3.301405       0.01396
   2     792.3        6.9981        0.0419       10.1361       10.1780       3.179937       0.01393
   1     891.5        7.0589        0.0468       10.0226       10.0693       3.010437       0.01442
   0    1013.0        7.1391        0.0526        9.8835        9.9362       2.797010       0.01482



 Wavenumbers:  8050. - 12850. cm-1, ATM      1
 LEVEL PRESSURE   UPWARD FLUX   DIFDOWN FLUX  DIRDOWN FLUX  DOWNWARD FLUX   NET FLUX    HEATING RATE
          mb          W/m2          W/m2          W/m2        W/m2          W/m2       degree/day
  51    .06700      101.0008        0.0000      156.5418      156.5418      55.540920       0.00000
  50    .07753      101.0008        0.0000      156.5417      156.5417      55.540920       0.00000
  49    .09103      101.0008        0.0001      156.5417      156.5417      55.540920      -0.00000
  48    0.1069      101.0008        0.0001      156.5416      156.5417      55.540920      -0.00000
  47    0.1255      101.0008        0.0002      156.5415      156.5417      55.540920      -0.00000
  46    0.1487      101.0007        0.0002      156.5414      156.5417      55.540920       0.00000
  45    0.1794      101.0007        0.0003      156.5413      156.5416      55.540920      -0.00000
  44    0.2165      101.0007        0.0004      156.5412      156.5416      55.540920      -0.00000
  43    0.2613      101.0006        0.0006      156.5410      156.5415      55.540920       0.00000
  42    0.3336      101.0005        0.0008      156.5407      156.5415      55.540920      -0.00000
  41    0.4307      101.0004        0.0010      156.5403      156.5414      55.540920       0.00000
  40    0.5894      101.0003        0.0015      156.5397      156.5412      55.540920       0.00000
  39     1.339      100.9995        0.0036      156.5367      156.5404      55.540920      -0.00000
  38     1.782      100.9990        0.0049      156.5350      156.5399      55.540920       0.00000
  37     2.292      100.9984        0.0064      156.5330      156.5393      55.540920      -0.00000
  36     2.964      100.9977        0.0083      156.5303      156.5386      55.540920       0.00000
  35     3.853      100.9967        0.0108      156.5268      156.5377      55.540920       0.00000
  34     5.035      100.9955        0.0142      156.5222      156.5364      55.540920      -0.00000
  33     6.613      100.9938        0.0187      156.5160      156.5347      55.540920       0.00000
  32     8.786      100.9915        0.0248      156.5076      156.5324      55.540920      -0.00000
  31     11.80      100.9882        0.0335      156.4957      156.5291      55.540920       0.00000
  30     15.07      100.9847        0.0428      156.4828      156.5256      55.540920       0.00000
  29     18.79      100.9807        0.0534      156.4682      156.5216      55.540920      -0.00000
  28     23.16      100.9760        0.0657      156.4512      156.5169      55.540920       0.00000
  27     28.12      100.9707        0.0799      156.4317      156.5116      55.540920       0.00000
  26     33.73      100.9647        0.0957      156.4099      156.5056      55.540920      -0.00000
  25     40.54      100.9574        0.1149      156.3834      156.4983      55.540920       0.00000
  24     48.69      100.9487        0.1381      156.3515      156.4896      55.540920       0.00000
  23     57.69      100.9390        0.1635      156.3164      156.4800      55.540920      -0.00000
  22     68.43      100.9275        0.1939      156.2746      156.4685      55.540920       0.00000
  21     81.20      100.9138        0.2302      156.2246      156.4548      55.540920       0.00000
  20     96.49      100.8975        0.2735      156.1649      156.4384      55.540920       0.00000
  19     114.6      100.8780        0.3249      156.0935      156.4185      55.540455       0.00022
  18     136.5      100.8549        0.3861      156.0087      156.3948      55.539876       0.00022
  17     162.9      100.8273        0.4591      155.9071      156.3662      55.538906       0.00031
  16     196.4      100.7914        0.5540      155.7738      156.3278      55.536384       0.00063
  15     218.7      100.7680        0.6165      155.6829      156.2995      55.531517       0.00185
  14     243.0      100.7426        0.6846      155.5773      156.2620      55.519312       0.00423
  13     269.0      100.7158        0.7586      155.4491      156.2077      55.491860       0.00891
  12     297.5      100.6879        0.8386      155.2875      156.1262      55.438209       0.01591
  11     328.5      100.6593        0.9253      155.0893      156.0146      55.355298       0.02254
  10     361.9      100.6305        1.0189      154.8474      155.8663      55.235738       0.03025
   9     398.1      100.6029        1.1197      154.5512      155.6709      55.068063       0.03906
   8     437.6      100.5784        1.2282      154.1869      155.4151      54.836739       0.04946
   7     480.5      100.5596        1.3447      153.7477      155.0924      54.532844       0.05968
   6     533.0      100.5501        1.4882      153.1398      154.6280      54.077909       0.07318
   5     589.8      100.5648        1.6430      152.3817      154.0247      53.459936       0.09173
   4     651.6      100.6317        1.8086      151.3700      153.1785      52.546853       0.12487
   3     718.7      100.7854        1.9848      150.0431      152.0279      51.242457       0.16393
   2     792.3      101.0974        2.1706      148.2785      150.4491      49.351633       0.21686
   1     891.5      101.8820        2.4145      145.3695      147.7840      45.901934       0.29355
   0    1013.0      103.6443        2.6974      141.3487      144.0461      40.401865       0.38190



 Wavenumbers: 12850. - 16000. cm-1, ATM      1
 LEVEL PRESSURE   UPWARD FLUX   DIFDOWN FLUX  DIRDOWN FLUX  DOWNWARD FLUX   NET FLUX    HEATING RATE
          mb          W/m2          W/m2          W/m2        W/m2          W/m2       degree/day
  51    .06700       76.9060        0.0000       98.0872       98.0872      21.181235       0.00000
  50    .07753       76.9060        0.0001       98.0864       98.0864      21.180442       0.63539
  49    .09103       76.9060        0.0002       98.0853       98.0855      21.179446       0.62244
  48    0.1069       76.9060        0.0003       98.0841       98.0843      21.178301       0.60926
  47    0.1255       76.9060        0.0004       98.0826       98.0830      21.176986       0.59639
  46    0.1487       76.9061        0.0005       98.0809       98.0814      21.175325       0.60543
  45    0.1794       76.9061        0.0007       98.0784       98.0792      21.173065       0.62055
  44    0.2165       76.9062        0.0010       98.0756       98.0766      21.170404       0.60518
  43    0.2613       76.9063        0.0012       98.0723       98.0736      21.167274       0.59007
  42    0.3336       76.9066        0.0017       98.0670       98.0687      21.162161       0.59612
  41    0.4307       76.9070        0.0023       98.0602       98.0625      21.155543       0.57538
  40    0.5894       76.9078        0.0033       98.0496       98.0529      21.145103       0.55521
  39     1.339       76.9149        0.0081       98.0043       98.0125      21.097587       0.53494
  38     1.782       76.9213        0.0109       97.9793       97.9902      21.068928       0.54563
  37     2.292       76.9308        0.0142       97.9498       97.9640      21.033141       0.59272
  36     2.964       76.9466        0.0185       97.9088       97.9273      20.980694       0.65837
  35     3.853       76.9720        0.0241       97.8503       97.8745      20.902484       0.74222
  34     5.035       77.0102        0.0316       97.7680       97.7996      20.789433       0.80759
  33     6.613       77.0635        0.0416       97.6562       97.6978      20.634322       0.82922
  32     8.786       77.1329        0.0551       97.5107       97.5658      20.432842       0.78247
  31     11.80       77.2234        0.0743       97.3179       97.3922      20.168827       0.73916
  30     15.07       77.3101        0.0950       97.1283       97.2233      19.913182       0.66003
  29     18.79       77.3988        0.1183       96.9300       97.0483      19.649481       0.59789
  28     23.16       77.4917        0.1455       96.7166       96.8620      19.370361       0.53973
  27     28.12       77.5853        0.1765       96.4935       96.6700      19.084709       0.48559
  26     33.73       77.6722        0.2113       96.2731       96.4844      18.812237       0.40967
  25     40.54       77.7564        0.2533       96.0408       96.2941      18.537782       0.34049
  24     48.69       77.8377        0.3040       95.7946       96.0986      18.260931       0.28650
  23     57.69       77.9075        0.3597       95.5573       95.9170      18.009450       0.23573
  22     68.43       77.9697        0.4260       95.3106       95.7367      17.766973       0.19062
  21     81.20       78.0149        0.5052       95.0644       95.5696      17.554680       0.14028
  20     96.49       78.0421        0.5996       94.8153       95.4149      17.372856       0.10035
  19     114.6       78.0690        0.7126       94.5412       95.2538      17.184751       0.08783
  18     136.5       78.0904        0.8465       94.2324       95.0789      16.988488       0.07547
  17     162.9       78.1064        1.0059       93.8760       94.8819      16.775510       0.06808
  16     196.4       78.1066        1.2127       93.4358       94.6485      16.541863       0.05881
  15     218.7       78.0996        1.3484       93.1535       94.5019      16.402294       0.05299
  14     243.0       78.0890        1.4960       92.8485       94.3445      16.255499       0.05091
  13     269.0       78.0744        1.6559       92.5212       94.1771      16.102656       0.04958
  12     297.5       78.0560        1.8286       92.1704       93.9990      15.943045       0.04734
  11     328.5       78.0355        2.0153       91.7933       93.8086      15.773101       0.04621
  10     361.9       78.0132        2.2163       91.3893       93.6055      15.592336       0.04574
   9     398.1       77.9895        2.4325       90.9575       93.3900      15.400525       0.04469
   8     437.6       77.9654        2.6648       90.4956       93.1604      15.195073       0.04393
   7     480.5       77.9414        2.9139       90.0028       92.9166      14.975189       0.04318
   6     533.0       77.9161        3.2205       89.3969       92.6174      14.701291       0.04406
   5     589.8       77.8959        3.5511       88.7423       92.2934      14.397536       0.04509
   4     651.6       77.8863        3.9065       88.0312       91.9377      14.051385       0.04734
   3     718.7       77.8934        4.2878       87.2573       91.5452      13.651816       0.05021
   2     792.3       77.9290        4.6953       86.4108       91.1061      13.177133       0.05444
   1     891.5       78.0389        5.2429       85.2373       90.4802      12.441279       0.06262
   0    1013.0       78.2881        5.8966       83.7928       89.6894      11.401323       0.07221



 Wavenumbers: 16000. - 22650. cm-1, ATM      1
 LEVEL PRESSURE   UPWARD FLUX   DIFDOWN FLUX  DIRDOWN FLUX  DOWNWARD FLUX   NET FLUX    HEATING RATE
          mb          W/m2          W/m2          W/m2        W/m2          W/m2       degree/day
  51    .06700      141.6678        0.0000      156.3892      156.3892      14.721403       0.00000
  50    .07753      141.6678        0.0004      156.3887      156.3891      14.721254       0.11906
  49    .09103      141.6678        0.0009      156.3879      156.3888      14.721038       0.13503
  48    0.1069      141.6678        0.0015      156.3871      156.3885      14.720749       0.15398
  47    0.1255      141.6678        0.0021      156.3861      156.3882      14.720362       0.17552
  46    0.1487      141.6679        0.0030      156.3847      156.3877      14.719791       0.20799
  45    0.1794      141.6680        0.0041      156.3828      156.3869      14.718899       0.24489
  44    0.2165      141.6682        0.0054      156.3805      156.3859      14.717689       0.27523
  43    0.2613      141.6686        0.0070      156.3776      156.3846      14.716048       0.30942
  42    0.3336      141.6694        0.0097      156.3726      156.3823      14.712927       0.36388
  41    0.4307      141.6707        0.0132      156.3657      156.3789      14.708222       0.40904
  40    0.5894      141.6733        0.0189      156.3537      156.3726      14.699250       0.47713
  39     1.339      141.6963        0.0459      156.2834      156.3293      14.632963       0.74627
  38     1.782      141.7176        0.0617      156.2324      156.2941      14.576494       1.07508
  37     2.292      141.7494        0.0801      156.1641      156.2442      14.494754       1.35382
  36     2.964      141.8023        0.1042      156.0605      156.1647      14.362334       1.66227
  35     3.853      141.8878        0.1360      155.9041      156.0401      14.152213       1.99408
  34     5.035      142.0168        0.1782      155.6774      155.8556      13.838726       2.23943
  33     6.613      142.1971        0.2345      155.3656      155.6001      13.403060       2.32907
  32     8.786      142.4318        0.3103      154.9577      155.2680      12.836145       2.20169
  31     11.80      142.7374        0.4186      154.4153      154.8338      12.096442       2.07094
  30     15.07      143.0302        0.5347      153.8804      154.4150      11.384842       1.83721
  29     18.79      143.3292        0.6656      153.3191      153.9847      10.655490       1.65367
  28     23.16      143.6418        0.8183      152.7126      153.5309       9.889097       1.48196
  27     28.12      143.9563        0.9927      152.0755      153.0682       9.111812       1.32133
  26     33.73      144.2469        1.1876      151.4409      152.6285       8.381676       1.09778
  25     40.54      144.5266        1.4229      150.7637      152.1866       7.660008       0.89531
  24     48.69      144.7946        1.7063      150.0339      151.7402       6.945514       0.73939
  23     57.69      145.0222        2.0172      149.3151      151.3324       6.310229       0.59548
  22     68.43      145.2209        2.3872      148.5476      150.9348       5.713839       0.46884
  21     81.20      145.3588        2.8276      147.7517      150.5793       5.220464       0.32601
  20     96.49      145.4313        3.3519      146.9127      150.2646       4.833276       0.21370
  19     114.6      145.4696        3.9727      145.9763      149.9490       4.479422       0.16522
  18     136.5      145.4832        4.7057      144.9088      149.6145       4.131320       0.13385
  17     162.9      145.4705        5.5745      143.6786      149.2531       3.782632       0.11145
  16     196.4      145.3916        6.6955      142.1652      148.8607       3.469097       0.07892
  15     218.7      145.3169        7.4280      141.2037      148.6317       3.314808       0.05858
  14     243.0      145.2251        8.2209      140.1761      148.3969       3.171868       0.04958
  13     269.0      145.1144        9.0762      139.0813      148.1575       3.043069       0.04178
  12     297.5      144.9842        9.9960      137.9175      147.9135       2.929340       0.03373
  11     328.5      144.8382       10.9846      136.6738      147.6584       2.820206       0.02967
  10     361.9      144.6762       12.0429      135.3496      147.3925       2.716333       0.02628
   9     398.1      144.4972       13.1749      133.9400      147.1149       2.617701       0.02298
   8     437.6      144.3018       14.3826      132.4417      146.8243       2.522524       0.02035
   7     480.5      144.0890       15.6682      130.8527      146.5209       2.431894       0.01780
   6     533.0      143.8240       17.2382      128.9184      146.1566       2.332605       0.01597
   5     589.8      143.5370       18.9155      126.8569      145.7724       2.235366       0.01443
   4     651.6      143.2288       20.7014      124.6654      145.3668       2.138008       0.01331
   3     718.7      142.8996       22.5980      122.3408      144.9387       2.039183       0.01242
   2     792.3      142.5510       24.6035      119.8835      144.4870       1.936090       0.01182
   1     891.5      142.0904       27.2686      116.6159      143.8845       1.794117       0.01208
   0    1013.0      141.5546       30.4056      112.7642      143.1698       1.615281       0.01242



 Wavenumbers: 22650. - 29000. cm-1, ATM      1
 LEVEL PRESSURE   UPWARD FLUX   DIFDOWN FLUX  DIRDOWN FLUX  DOWNWARD FLUX   NET FLUX    HEATING RATE
          mb          W/m2          W/m2          W/m2        W/m2          W/m2       degree/day
  51    .06700       58.3821        0.0000       59.0156       59.0156       0.633511       0.00000
  50    .07753       58.3820        0.0005       59.0151       59.0155       0.633511      -0.00000
  49    .09103       58.3819        0.0010       59.0144       59.0154       0.633511       0.00000
  48    0.1069       58.3818        0.0017       59.0136       59.0153       0.633511       0.00000
  47    0.1255       58.3816        0.0025       59.0127       59.0151       0.633511      -0.00000
  46    0.1487       58.3814        0.0034       59.0115       59.0149       0.633511      -0.00000
  45    0.1794       58.3812        0.0048       59.0099       59.0147       0.633511       0.00000
  44    0.2165       58.3809        0.0063       59.0080       59.0144       0.633511      -0.00000
  43    0.2613       58.3805        0.0082       59.0058       59.0140       0.633511       0.00000
  42    0.3336       58.3799        0.0113       59.0022       59.0134       0.633511      -0.00000
  41    0.4307       58.3791        0.0153       58.9973       59.0126       0.633511       0.00000
  40    0.5894       58.3778        0.0220       58.9894       59.0113       0.633511      -0.00000
  39     1.339       58.3717        0.0534       58.9518       59.0052       0.633511       0.00000
  38     1.782       58.3681        0.0719       58.9297       59.0016       0.633511       0.00000
  37     2.292       58.3639        0.0933       58.9042       58.9974       0.633511       0.00000
  36     2.964       58.3584        0.1213       58.8706       58.9920       0.633511      -0.00000
  35     3.853       58.3512        0.1584       58.8264       58.9847       0.633511       0.00000
  34     5.035       58.3416        0.2076       58.7676       58.9751       0.633511       0.00000
  33     6.613       58.3288        0.2732       58.6891       58.9623       0.633511       0.00000
  32     8.786       58.3116        0.3617       58.5834       58.9451       0.633511       0.00000
  31     11.80       58.2869        0.4880       58.4325       58.9205       0.633511       0.00000
  30     15.07       58.2605        0.6234       58.2706       58.8940       0.633511      -0.00000
  29     18.79       58.2308        0.7760       58.0882       58.8643       0.633511       0.00000
  28     23.16       58.1961        0.9539       57.8757       58.8296       0.633511      -0.00000
  27     28.12       58.1565        1.1567       57.6333       58.7900       0.633511      -0.00000
  26     33.73       58.1124        1.3828       57.3631       58.7459       0.633511       0.00000
  25     40.54       58.0593        1.6549       57.0379       58.6928       0.633511       0.00000
  24     48.69       57.9956        1.9812       56.6479       58.6291       0.633511       0.00000
  23     57.69       57.9260        2.3375       56.2221       58.5596       0.633511       0.00000
  22     68.43       57.8438        2.7587       55.7186       58.4773       0.633511      -0.00000
  21     81.20       57.7466        3.2562       55.1239       58.3801       0.633511       0.00000
  20     96.49       57.6320        3.8427       54.4228       58.2655       0.633511       0.00000
  19     114.6       57.4976        4.5301       53.6010       58.1311       0.633511       0.00000
  18     136.5       57.3407        5.3324       52.6418       57.9742       0.633511      -0.00000
  17     162.9       57.1571        6.2703       51.5204       57.7906       0.633511       0.00000
  16     196.4       56.9244        7.4584       50.0995       57.5579       0.633511       0.00000
  15     218.7       56.7747        8.2219       49.1863       57.4082       0.633511       0.00000
  14     243.0       56.6148        9.0369       48.2114       57.2483       0.633511       0.00000
  13     269.0       56.4447        9.9031       47.1752       57.0782       0.633511      -0.00000
  12     297.5       56.2647       10.8194       46.0787       56.8982       0.633511       0.00000
  11     328.5       56.0743       11.7874       44.9204       56.7078       0.633511       0.00000
  10     361.9       55.8741       12.8043       43.7032       56.5076       0.633511       0.00000
   9     398.1       55.6640       13.8703       42.4272       56.2975       0.633511      -0.00000
   8     437.6       55.4444       14.9830       41.0949       56.0779       0.633511       0.00000
   7     480.5       55.2157       16.1400       39.7093       55.8492       0.633511      -0.00000
   6     533.0       54.9435       17.5148       38.0622       55.5770       0.633511       0.00000
   5     589.8       54.6611       18.9384       36.3562       55.2946       0.633511       0.00000
   4     651.6       54.3696       20.4044       34.5987       55.0031       0.633511      -0.00000
   3     718.7       54.0702       21.9060       32.7978       54.7038       0.633511      -0.00000
   2     792.3       53.7645       23.4351       30.9629       54.3980       0.633511       0.00000
   1     891.5       53.3758       25.3714       28.6379       54.0093       0.633511      -0.00000
   0    1013.0       52.9424       27.5185       26.0574       53.5759       0.633511       0.00000



 Wavenumbers: 29000. - 38000. cm-1, ATM      1
 LEVEL PRESSURE   UPWARD FLUX   DIFDOWN FLUX  DIRDOWN FLUX  DOWNWARD FLUX   NET FLUX    HEATING RATE
          mb          W/m2          W/m2          W/m2        W/m2          W/m2       degree/day
  51    .06700        8.7365        0.0000       20.8114       20.8114      12.074865       0.00000
  50    .07753        8.7363        0.0003       20.8070       20.8074      12.071058       3.05152
  49    .09103        8.7361        0.0007       20.8009       20.8016      12.065521       3.46081
  48    0.1069        8.7358        0.0012       20.7928       20.7939      12.058111       3.94425
  47    0.1255        8.7355        0.0017       20.7820       20.7837      12.048207       4.49029
  46    0.1487        8.7352        0.0024       20.7665       20.7688      12.033643       5.30838
  45    0.1794        8.7347        0.0033       20.7424       20.7457      12.010979       6.22197
  44    0.2165        8.7342        0.0044       20.7103       20.7147      11.980457       6.94332
  43    0.2613        8.7336        0.0056       20.6675       20.6731      11.939462       7.72723
  42    0.3336        8.7327        0.0077       20.5880       20.5956      11.862902       8.92613
  41    0.4307        8.7317        0.0104       20.4722       20.4826      11.750951       9.73389
  40    0.5894        8.7301        0.0147       20.2637       20.2784      11.548271      10.77831
  39     1.339        8.7267        0.0331       19.0984       19.1315      10.404816      12.87322
  38     1.782        8.7271        0.0427       18.4394       18.4820       9.754910      12.37315
  37     2.292        8.7298        0.0530       17.7714       17.8244       9.094593      10.93659
  36     2.964        8.7363        0.0656       17.0421       17.1078       8.371511       9.07685
  35     3.853        8.7490        0.0816       16.2679       16.3494       7.600399       7.31799
  34     5.035        8.7700        0.1017       15.4803       15.5820       6.812004       5.63197
  33     6.613        8.8006        0.1275       14.7157       14.8432       6.042559       4.11346
  32     8.786        8.8410        0.1612       13.9936       14.1548       5.313790       2.83027
  31     11.80        8.8937        0.2082       13.2835       13.4918       4.598066       2.00380
  30     15.07        8.9445        0.2570       12.7394       12.9963       4.051824       1.41029
  29     18.79        8.9970        0.3110       12.2666       12.5776       3.580621       1.06836
  28     23.16        9.0528        0.3725       11.8300       12.2025       3.149742       0.83318
  27     28.12        9.1099        0.4413       11.4279       11.8692       2.759320       0.66369
  26     33.73        9.1625        0.5172       11.0695       11.5866       2.424077       0.50405
  25     40.54        9.2125        0.6078       10.7209       11.3287       2.116176       0.38199
  24     48.69        9.2596        0.7153       10.3742       11.0895       1.829892       0.29626
  23     57.69        9.2982        0.8317       10.0549       10.8866       1.588382       0.22638
  22     68.43        9.3294        0.9682        9.7327       10.7009       1.371586       0.17043
  21     81.20        9.3441        1.1294        9.4134       10.5428       1.198727       0.11422
  20     96.49        9.3405        1.3189        9.0887       10.4076       1.067151       0.07262
  19     114.6        9.3265        1.5378        8.7388       10.2766       0.950040       0.05468
  18     136.5        9.3053        1.7881        8.3549       10.1430       0.837678       0.04321
  17     162.9        9.2768        2.0733        7.9311       10.0045       0.727673       0.03516
  16     196.4        9.2291        2.4267        7.4333        9.8600       0.630858       0.02437
  15     218.7        9.1948        2.6489        7.1296        9.7785       0.583643       0.01793
  14     243.0        9.1572        2.8812        6.8161        9.6973       0.540049       0.01512
  13     269.0        9.1162        3.1227        6.4944        9.6171       0.500907       0.01270
  12     297.5        9.0717        3.3723        6.1659        9.5381       0.466406       0.01023
  11     328.5        9.0253        3.6290        5.8296        9.4587       0.433375       0.00898
  10     361.9        8.9774        3.8904        5.4889        9.3793       0.401964       0.00795
   9     398.1        8.9280        4.1559        5.1444        9.3002       0.372200       0.00693
   8     437.6        8.8778        4.4240        4.7974        9.2214       0.343512       0.00613
   7     480.5        8.8271        4.6926        4.4508        9.1434       0.316280       0.00535
   6     533.0        8.7689        4.9984        4.0571        9.0555       0.286605       0.00477
   5     589.8        8.7116        5.2992        3.6704        8.9695       0.257876       0.00426
   4     651.6        8.6559        5.5928        3.2928        8.8856       0.229768       0.00384
   3     718.7        8.6026        5.8753        2.9295        8.8048       0.202245       0.00346
   2     792.3        8.5522        6.1450        2.5825        8.7275       0.175307       0.00309
   1     891.5        8.4943        6.4610        2.1753        8.6363       0.142053       0.00283
   0    1013.0        8.4385        6.7783        1.7655        8.5438       0.105329       0.00255



 Wavenumbers: 38000. - 50000. cm-1, ATM      1
 LEVEL PRESSURE   UPWARD FLUX   DIFDOWN FLUX  DIRDOWN FLUX  DOWNWARD FLUX   NET FLUX    HEATING RATE
          mb          W/m2          W/m2          W/m2        W/m2          W/m2       degree/day
  51    .06700        0.0061        0.0000        1.2836        1.2836       1.277518       0.00000
  50    .07753        0.0061        0.0001        1.2812        1.2812       1.275183       1.87150
  49    .09103        0.0060        0.0002        1.2777        1.2778       1.271851       2.08247
  48    0.1069        0.0059        0.0002        1.2731        1.2734       1.267473       2.33059
  47    0.1255        0.0058        0.0004        1.2672        1.2675       1.261717       2.60908
  46    0.1487        0.0057        0.0005        1.2586        1.2591       1.253391       3.03499
  45    0.1794        0.0055        0.0007        1.2455        1.2462       1.240623       3.50520
  44    0.2165        0.0054        0.0009        1.2282        1.2291       1.223697       3.85037
  43    0.2613        0.0052        0.0011        1.2054        1.2065       1.201348       4.21261
  42    0.3336        0.0049        0.0015        1.1639        1.1654       1.160524       4.75970
  41    0.4307        0.0045        0.0020        1.1051        1.1070       1.102565       5.03943
  40    0.5894        0.0039        0.0026        1.0039        1.0064       1.002524       5.32007
  39     1.339        0.0022        0.0035        0.5438        0.5473       0.545105       5.14971
  38     1.782        0.0016        0.0032        0.3635        0.3666       0.365006       3.42879
  37     2.292        0.0012        0.0027        0.2356        0.2383       0.237058       2.11916
  36     2.964        0.0009        0.0022        0.1455        0.1477       0.146786       1.13318
  35     3.853        0.0006        0.0017        0.0858        0.0875       0.086906       0.56828
  34     5.035        0.0004        0.0013        0.0488        0.0501       0.049701       0.26578
  33     6.613        0.0003        0.0010        0.0273        0.0282       0.027974       0.11615
  32     8.786        0.0002        0.0007        0.0144        0.0151       0.014928       0.05067
  31     11.80        0.0001        0.0004        0.0065        0.0070       0.006903       0.02247
  30     15.07        0.0000        0.0003        0.0031        0.0034       0.003329       0.00923
  29     18.79        0.0000        0.0002        0.0014        0.0016       0.001583       0.00396
  28     23.16        0.0000        0.0001        0.0006        0.0007       0.000720       0.00167
  27     28.12        0.0000        0.0001        0.0003        0.0003       0.000317       0.00069
  26     33.73        0.0000        0.0000        0.0001        0.0001       0.000140       0.00027
  25     40.54        0.0000        0.0000        0.0000        0.0001       0.000057       0.00010
  24     48.69        0.0000        0.0000        0.0000        0.0000       0.000021       0.00004
  23     57.69        0.0000        0.0000        0.0000        0.0000       0.000008       0.00001
  22     68.43        0.0000        0.0000        0.0000        0.0000       0.000003       0.00000
  21     81.20        0.0000        0.0000        0.0000        0.0000       0.000001       0.00000
  20     96.49        0.0000        0.0000        0.0000        0.0000       0.000000       0.00000
  19     114.6        0.0000        0.0000        0.0000        0.0000       0.000000       0.00000
  18     136.5        0.0000        0.0000        0.0000        0.0000       0.000000       0.00000
  17     162.9        0.0000        0.0000        0.0000        0.0000       0.000000       0.00000
  16     196.4        0.0000        0.0000        0.0000        0.0000       0.000000       0.00000
  15     218.7        0.0000        0.0000        0.0000        0.0000       0.000000       0.00000
  14     243.0        0.0000        0.0000        0.0000        0.0000       0.000000       0.00000
  13     269.0        0.0000        0.0000        0.0000        0.0000       0.000000       0.00000
  12     297.5        0.0000        0.0000        0.0000        0.0000       0.000000       0.00000
  11     328.5        0.0000        0.0000        0.0000        0.0000       0.000000       0.00000
  10     361.9        0.0000        0.0000        0.0000        0.0000       0.000000       0.00000
   9     398.1        0.0000        0.0000        0.0000        0.0000       0.000000       0.00000
   8     437.6        0.0000        0.0000        0.0000        0.0000       0.000000       0.00000
   7     480.5        0.0000        0.0000        0.0000        0.0000       0.000000       0.00000
   6     533.0        0.0000        0.0000        0.0000        0.0000       0.000000       0.00000
   5     589.8        0.0000        0.0000        0.0000        0.0000       0.000000       0.00000
   4     651.6        0.0000        0.0000        0.0000        0.0000       0.000000       0.00000
   3     718.7        0.0000        0.0000        0.0000        0.0000       0.000000       0.00000
   2     792.3        0.0000        0.0000        0.0000        0.0000       0.000000       0.00000
   1     891.5        0.0000        0.0000        0.0000        0.0000       0.000000       0.00000
   0    1013.0        0.0000        0.0000        0.0000        0.0000       0.000000       0.00000



 Wavenumbers:   820. -  2600. cm-1, ATM      1
 LEVEL PRESSURE   UPWARD FLUX   DIFDOWN FLUX  DIRDOWN FLUX  DOWNWARD FLUX   NET FLUX    HEATING RATE
          mb          W/m2          W/m2          W/m2        W/m2          W/m2       degree/day
  51    .06700        1.9707        0.0000        6.0047        6.0047       4.033952       0.00000
  50    .07753        1.9707        0.0000        6.0009        6.0009       4.030167       3.03368
  49    .09103        1.9707        0.0000        6.0001        6.0001       4.029370       0.49816
  48    0.1069        1.9707        0.0000        5.9992        5.9992       4.028487       0.47018
  47    0.1255        1.9707        0.0000        5.9982        5.9982       4.027496       0.44923
  46    0.1487        1.9707        0.0000        5.9970        5.9970       4.026305       0.43418
  45    0.1794        1.9707        0.0000        5.9955        5.9955       4.024820       0.40768
  44    0.2165        1.9707        0.0000        5.9940        5.9940       4.023265       0.35377
  43    0.2613        1.9707        0.0000        5.9924        5.9924       4.021657       0.30297
  42    0.3336        1.9707        0.0000        5.9901        5.9901       4.019380       0.26548
  41    0.4307        1.9707        0.0000        5.9874        5.9874       4.016727       0.23067
  40    0.5894        1.9707        0.0000        5.9833        5.9833       4.012587       0.22020
  39     1.339        1.9707        0.0000        5.9643        5.9643       3.993559       0.21422
  38     1.782        1.9707        0.0000        5.9537        5.9537       3.983047       0.20012
  37     2.292        1.9707        0.0000        5.9420        5.9420       3.971267       0.19510
  36     2.964        1.9707        0.0000        5.9270        5.9270       3.956270       0.18826
  35     3.853        1.9707        0.0000        5.9079        5.9079       3.937193       0.18105
  34     5.035        1.9707        0.0000        5.8837        5.8837       3.912963       0.17309
  33     6.613        1.9707        0.0000        5.8523        5.8523       3.881545       0.16796
  32     8.786        1.9707        0.0000        5.8104        5.8104       3.839703       0.16250
  31     11.80        1.9707        0.0000        5.7549        5.7549       3.784131       0.15558
  30     15.07        1.9708        0.0000        5.7057        5.7057       3.734956       0.12696
  29     18.79        1.9708        0.0000        5.6649        5.6649       3.694123       0.09258
  28     23.16        1.9708        0.0000        5.6335        5.6335       3.662726       0.06071
  27     28.12        1.9708        0.0000        5.6108        5.6108       3.639969       0.03869
  26     33.73        1.9709        0.0000        5.5929        5.5929       3.621984       0.02704
  25     40.54        1.9709        0.0000        5.5744        5.5744       3.603446       0.02300
  24     48.69        1.9710        0.0000        5.5527        5.5527       3.581658       0.02255
  23     57.69        1.9711        0.0000        5.5284        5.5284       3.557301       0.02283
  22     68.43        1.9712        0.0000        5.4990        5.4990       3.527762       0.02322
  21     81.20        1.9714        0.0000        5.4643        5.4643       3.492903       0.02303
  20     96.49        1.9716        0.0000        5.4235        5.4235       3.451919       0.02262
  19     114.6        1.9719        0.0000        5.3768        5.3768       3.404970       0.02192
  18     136.5        1.9722        0.0000        5.3248        5.3249       3.352675       0.02011
  17     162.9        1.9726        0.0000        5.2665        5.2666       3.294005       0.01875
  16     196.4        1.9731        0.0000        5.1949        5.1950       3.221840       0.01816
  15     218.7        1.9735        0.0000        5.1475        5.1475       3.173956       0.01818
  14     243.0        1.9740        0.0000        5.0913        5.0914       3.117325       0.01964
  13     269.0        1.9747        0.0000        5.0228        5.0228       3.048136       0.02244
  12     297.5        1.9756        0.0000        4.9368        4.9369       2.961298       0.02576
  11     328.5        1.9766        0.0000        4.8415        4.8416       2.864948       0.02620
  10     361.9        1.9780        0.0000        4.7408        4.7408       2.762869       0.02583
   9     398.1        1.9796        0.0001        4.6374        4.6375       2.657906       0.02445
   8     437.6        1.9816        0.0001        4.5302        4.5303       2.548680       0.02335
   7     480.5        1.9841        0.0001        4.4152        4.4153       2.431215       0.02307
   6     533.0        1.9878        0.0001        4.2591        4.2592       2.271378       0.02571
   5     589.8        1.9930        0.0001        4.0596        4.0597       2.066693       0.03038
   4     651.6        2.0011        0.0001        3.8060        3.8060       1.804944       0.03579
   3     718.7        2.0136        0.0001        3.5489        3.5489       1.535321       0.03388
   2     792.3        2.0336        0.0001        3.3440        3.3441       1.310516       0.02578
   1     891.5        2.0760        0.0001        3.1797        3.1798       1.103773       0.01759
   0    1013.0        2.1635        0.0001        3.0128        3.0129       0.849321       0.01767

  Modules and versions used in this calculation:

       rrtmg_sw.1col.f90:  $Revision$                    rrtmg_sw_init.f90:  $Revision$        
     rrtmgsw_cldprop.f90:  $Revision$                  rrtmgsw_cldprmc.f90:  NOT USED          
     rrtmg_sw_reftra.f90:  $Revision$                  rrtmg_sw_spcvrt.f90:  NOT USED          
     rrtmg_sw_spcvmc.f90:  NOT USED                    rrtmgsw_setcoef.f90:  NOT USED          
     rrtmg_sw_taumol.f90:  $Revision$                  rrtmg_sw_vrtqdr.f90:  NOT USED          
                rrtatm.f:  NOT USED                             util_xxx.f:  NOT USED          
                 extra.f:  NOT USED                       rrtmg_sw_k_g.f90:  $Revision$        

