

 Wavenumbers:   820. - 50000. cm-1, ATM      1
 LEVEL PRESSURE   UPWARD FLUX   DIFDOWN FLUX  DIRDOWN FLUX  DOWNWARD FLUX   NET FLUX    HEATING RATE
          mb          W/m2          W/m2          W/m2        W/m2          W/m2       degree/day
  51    .06700      394.6045        0.0000      617.8126      617.8126     223.208031       0.00000
  50    .07753      394.6042        0.0013      617.7948      617.7961     223.191936      12.90057
  49    .09103      394.6037        0.0030      617.7779      617.7809     223.177178       9.22394
  48    0.1069      394.6032        0.0050      617.7582      617.7632     223.159977       9.15634
  47    0.1255      394.6027        0.0072      617.7342      617.7414     223.138698       9.64676
  46    0.1487      394.6021        0.0100      617.7012      617.7112     223.109098      10.78954
  45    0.1794      394.6013        0.0138      617.6525      617.6663     223.064980      12.11142
  44    0.2165      394.6006        0.0184      617.5900      617.6084     223.007795      13.00871
  43    0.2613      394.5998        0.0237      617.5096      617.5333     222.933445      14.01472
  42    0.3336      394.5989        0.0325      617.3650      617.3975     222.798639      15.71701
  41    0.4307      394.5981        0.0441      617.1604      617.2045     222.606398      16.71489
  40    0.5894      394.5977        0.0628      616.8022      616.8651     222.267350      18.03013
  39     1.339      394.6139        0.1474      614.9483      615.0957     220.481807      20.10197
  38     1.782      394.6358        0.1950      613.9722      614.1672     219.531394      18.09434
  37     2.292      394.6724        0.2491      613.0123      613.2615     218.589019      15.60818
  36     2.964      394.7375        0.3195      611.9656      612.2851     217.547659      13.07222
  35     3.853      394.8470        0.4118      610.8122      611.2240     216.376987      11.10988
  34     5.035      395.0157        0.5335      609.5448      610.0784     215.062708       9.38866
  33     6.613      395.2534        0.6951      608.1613      608.8565     213.603098       7.80308
  32     8.786      395.5630        0.9120      606.6431      607.5551     211.992098       6.25654
  31     11.80      395.9636        1.2206      604.8706      606.0912     210.127621       5.21995
  30     15.07      396.3445        1.5501      603.2691      604.8192     208.474723       4.26746
  29     18.79      396.7307        1.9207      601.6795      603.6002     206.869447       3.63965
  28     23.16      397.1312        2.3513      600.0245      602.3758     205.244636       3.14186
  27     28.12      397.5298        2.8414      598.3236      601.1650     203.635256       2.73584
  26     33.73      397.8890        3.3878      596.6343      600.0221     202.133143       2.25847
  25     40.54      398.2217        4.0456      594.8158      598.8614     200.639691       1.85280
  24     48.69      398.5248        4.8350      592.8337      597.6687     199.143867       1.54794
  23     57.69      398.7627        5.6978      590.8470      596.5448     197.782115       1.27644
  22     68.43      398.9426        6.7200      588.6746      595.3945     196.451914       1.04572
  21     81.20      399.0135        7.9318      586.3292      594.2610     195.247488       0.79587
  20     96.49      398.9649        9.3666      583.7610      593.1275     194.162576       0.59879
  19     114.6      398.8541       11.0544      580.8425      591.8970     193.042844       0.52284
  18     136.5      398.6788       13.0307      577.5156      590.5464     191.867554       0.45193
  17     162.9      398.4325       15.3498      573.6564      589.0062     190.573728       0.41356
  16     196.4      398.0266       18.3071      568.7180      587.0252     188.998586       0.39648
  15     218.7      397.7312       20.2190      565.2284      585.4474     187.716205       0.48687
  14     243.0      397.4006       22.2695      561.0170      583.2866     185.886013       0.63477
  13     269.0      397.0339       24.4601      555.8195      580.2796     183.245706       0.85650
  12     297.5      396.6332       26.7913      549.5949      576.3862     179.753007       1.03590
  11     328.5      396.2062       29.2696      542.8559      572.1255     175.919344       1.04236
  10     361.9      395.7564       31.8911      535.5831      567.4742     171.717811       1.06303
   9     398.1      395.2874       34.6604      527.6013      562.2617     166.974366       1.10512
   8     437.6      394.8089       37.5762      518.7884      556.3646     161.555658       1.15855
   7     480.5      394.3298       40.6365      509.3182      549.9547     155.624913       1.16478
   6     533.0      393.8015       44.3155      497.7201      542.0357     148.234143       1.18894
   5     589.8      393.3403       48.1754      485.1275      533.3028     139.962513       1.22778
   4     651.6      393.0545       52.2044      470.9796      523.1840     130.129466       1.34470
   3     718.7      393.0693       56.3945      455.7511      512.1456     119.076313       1.38908
   2     792.3      393.6636       60.7262      439.3189      500.0450     106.381427       1.45596
   1     891.5      395.9519       66.3223      417.2157      483.5380      87.586154       1.59939
   0    1013.0      402.4661       72.6925      392.0869      464.7795      62.313348       1.75482



 Wavenumbers:  2600. -  3250. cm-1, ATM      1
 LEVEL PRESSURE   UPWARD FLUX   DIFDOWN FLUX  DIRDOWN FLUX  DOWNWARD FLUX   NET FLUX    HEATING RATE
          mb          W/m2          W/m2          W/m2        W/m2          W/m2       degree/day
  51    .06700        1.1714        0.0000        5.4450        5.4450       4.273616       0.00000
  50    .07753        1.1714        0.0000        5.4450        5.4450       4.273608       0.00640
  49    .09103        1.1714        0.0000        5.4450        5.4450       4.273598       0.00627
  48    0.1069        1.1714        0.0000        5.4450        5.4450       4.273586       0.00613
  47    0.1255        1.1714        0.0000        5.4450        5.4450       4.273573       0.00599
  46    0.1487        1.1714        0.0000        5.4450        5.4450       4.273556       0.00608
  45    0.1794        1.1714        0.0000        5.4450        5.4450       4.273533       0.00625
  44    0.2165        1.1714        0.0000        5.4449        5.4449       4.273507       0.00612
  43    0.2613        1.1714        0.0000        5.4449        5.4449       4.273475       0.00600
  42    0.3336        1.1714        0.0000        5.4448        5.4448       4.273422       0.00617
  41    0.4307        1.1714        0.0000        5.4448        5.4448       4.273350       0.00620
  40    0.5894        1.1714        0.0000        5.4446        5.4446       4.273231       0.00637
  39     1.339        1.1714        0.0000        5.4439        5.4439       4.272523       0.00797
  38     1.782        1.1714        0.0000        5.4434        5.4434       4.271980       0.01034
  37     2.292        1.1714        0.0000        5.4427        5.4427       4.271264       0.01186
  36     2.964        1.1714        0.0000        5.4416        5.4416       4.270226       0.01304
  35     3.853        1.1714        0.0000        5.4402        5.4402       4.268748       0.01402
  34     5.035        1.1714        0.0000        5.4381        5.4381       4.266693       0.01468
  33     6.613        1.1714        0.0000        5.4353        5.4353       4.263912       0.01487
  32     8.786        1.1714        0.0000        5.4317        5.4317       4.260279       0.01411
  31     11.80        1.1714        0.0000        5.4269        5.4269       4.255499       0.01338
  30     15.07        1.1714        0.0000        5.4224        5.4224       4.250971       0.01169
  29     18.79        1.1714        0.0000        5.4180        5.4180       4.246558       0.01001
  28     23.16        1.1714        0.0000        5.4135        5.4135       4.242071       0.00868
  27     28.12        1.1714        0.0000        5.4088        5.4088       4.237421       0.00790
  26     33.73        1.1714        0.0000        5.4036        5.4036       4.232177       0.00788
  25     40.54        1.1714        0.0000        5.3966        5.3967       4.225231       0.00862
  24     48.69        1.1714        0.0000        5.3872        5.3872       4.215746       0.00982
  23     57.69        1.1715        0.0000        5.3754        5.3754       4.203951       0.01106
  22     68.43        1.1715        0.0000        5.3599        5.3599       4.188446       0.01219
  21     81.20        1.1715        0.0000        5.3401        5.3401       4.168589       0.01312
  20     96.49        1.1715        0.0000        5.3155        5.3155       4.143989       0.01358
  19     114.6        1.1716        0.0000        5.2854        5.2855       4.113845       0.01408
  18     136.5        1.1717        0.0001        5.2506        5.2507       4.078959       0.01341
  17     162.9        1.1718        0.0001        5.2114        5.2114       4.039614       0.01258
  16     196.4        1.1720        0.0001        5.1647        5.1648       3.992709       0.01181
  15     218.7        1.1723        0.0001        5.1343        5.1344       3.962156       0.01160
  14     243.0        1.1727        0.0001        5.0984        5.0985       3.925873       0.01258
  13     269.0        1.1733        0.0001        5.0551        5.0552       3.881960       0.01425
  12     297.5        1.1742        0.0001        5.0022        5.0024       3.828175       0.01595
  11     328.5        1.1754        0.0001        4.9404        4.9406       3.765143       0.01714
  10     361.9        1.1771        0.0001        4.8657        4.8658       3.688714       0.01934
   9     398.1        1.1794        0.0002        4.7719        4.7720       3.592638       0.02238
   8     437.6        1.1825        0.0002        4.6516        4.6518       3.469319       0.02637
   7     480.5        1.1867        0.0002        4.5021        4.5023       3.315638       0.03018
   6     533.0        1.1933        0.0002        4.2960        4.2962       3.102888       0.03422
   5     589.8        1.2030        0.0002        4.0545        4.0547       2.851703       0.03728
   4     651.6        1.2184        0.0002        3.7722        3.7724       2.553996       0.04071
   3     718.7        1.2421        0.0002        3.4726        3.4728       2.230656       0.04063
   2     792.3        1.2805        0.0002        3.1393        3.1395       1.859021       0.04262
   1     891.5        1.3666        0.0002        2.6781        2.6783       1.311708       0.04657
   0    1013.0        1.5676        0.0002        2.1828        2.1830       0.615380       0.04835



 Wavenumbers:  3250. -  4000. cm-1, ATM      1
 LEVEL PRESSURE   UPWARD FLUX   DIFDOWN FLUX  DIRDOWN FLUX  DOWNWARD FLUX   NET FLUX    HEATING RATE
          mb          W/m2          W/m2          W/m2        W/m2          W/m2       degree/day
  51    .06700        0.0007        0.0000        9.1795        9.1795       9.178808       0.00000
  50    .07753        0.0007        0.0000        9.1747        9.1747       9.173989       3.86239
  49    .09103        0.0007        0.0000        9.1713        9.1713       9.170626       2.10221
  48    0.1069        0.0007        0.0000        9.1689        9.1689       9.168128       1.32975
  47    0.1255        0.0007        0.0000        9.1666        9.1666       9.165894       1.01257
  46    0.1487        0.0007        0.0000        9.1642        9.1642       9.163485       0.87820
  45    0.1794        0.0007        0.0000        9.1614        9.1614       9.160643       0.78008
  44    0.2165        0.0007        0.0000        9.1585        9.1585       9.157764       0.65508
  43    0.2613        0.0007        0.0000        9.1556        9.1556       9.154835       0.55212
  42    0.3336        0.0007        0.0000        9.1515        9.1515       9.150729       0.47866
  41    0.4307        0.0007        0.0000        9.1468        9.1468       9.146059       0.40608
  40    0.5894        0.0007        0.0000        9.1399        9.1399       9.139208       0.36434
  39     1.339        0.0007        0.0000        9.1138        9.1138       9.113061       0.29436
  38     1.782        0.0007        0.0000        9.1023        9.1023       9.101615       0.21791
  37     2.292        0.0007        0.0000        9.0914        9.0914       9.090671       0.18126
  36     2.964        0.0007        0.0000        9.0791        9.0791       9.078374       0.15437
  35     3.853        0.0007        0.0000        9.0645        9.0645       9.063769       0.13860
  34     5.035        0.0007        0.0000        9.0460        9.0460       9.045298       0.13195
  33     6.613        0.0007        0.0000        9.0214        9.0214       9.020674       0.13164
  32     8.786        0.0007        0.0000        8.9871        8.9871       8.986372       0.13322
  31     11.80        0.0007        0.0000        8.9362        8.9362       8.935509       0.14240
  30     15.07        0.0007        0.0000        8.8799        8.8800       8.879269       0.14520
  29     18.79        0.0007        0.0000        8.8156        8.8157       8.814980       0.14576
  28     23.16        0.0007        0.0000        8.7417        8.7417       8.741020       0.14301
  27     28.12        0.0007        0.0000        8.6609        8.6609       8.660261       0.13728
  26     33.73        0.0007        0.0000        8.5776        8.5776       8.576936       0.12528
  25     40.54        0.0007        0.0001        8.4870        8.4870       8.486374       0.11235
  24     48.69        0.0007        0.0001        8.3900        8.3900       8.389372       0.10038
  23     57.69        0.0006        0.0001        8.2926        8.2927       8.292073       0.09120
  22     68.43        0.0006        0.0001        8.1825        8.1826       8.181942       0.08658
  21     81.20        0.0006        0.0001        8.0541        8.0543       8.053639       0.08478
  20     96.49        0.0006        0.0001        7.9046        7.9047       7.904091       0.08254
  19     114.6        0.0006        0.0001        7.7277        7.7279       7.727277       0.08256
  18     136.5        0.0006        0.0002        7.5331        7.5332       7.532698       0.07482
  17     162.9        0.0005        0.0002        7.3099        7.3101       7.309574       0.07132
  16     196.4        0.0005        0.0002        6.9965        6.9967       6.996256       0.07887
  15     218.7        0.0005        0.0002        6.7044        6.7047       6.704209       0.11088
  14     243.0        0.0004        0.0002        6.3166        6.3168       6.316367       0.13452
  13     269.0        0.0004        0.0003        5.8318        5.8320       5.831620       0.15725
  12     297.5        0.0004        0.0003        5.2669        5.2671       5.266739       0.16754
  11     328.5        0.0004        0.0003        4.6906        4.6908       4.690443       0.15669
  10     361.9        0.0004        0.0002        4.1219        4.1222       4.121793       0.14387
   9     398.1        0.0003        0.0002        3.5884        3.5886       3.588267       0.12430
   8     437.6        0.0003        0.0002        3.0927        3.0929       3.092556       0.10599
   7     480.5        0.0003        0.0002        2.6452        2.6454       2.645128       0.08787
   6     533.0        0.0003        0.0002        2.1724        2.1726       2.172242       0.07607
   5     589.8        0.0003        0.0002        1.7223        1.7224       1.722127       0.06681
   4     651.6        0.0004        0.0001        1.2609        1.2611       1.260727       0.06310
   3     718.7        0.0004        0.0001        0.8305        0.8306       0.830204       0.05410
   2     792.3        0.0007        0.0001        0.4709        0.4709       0.470276       0.04128
   1     891.5        0.0018        0.0000        0.1560        0.1561       0.154298       0.02689
   0    1013.0        0.0127        0.0000        0.0177        0.0177       0.004995       0.01037



 Wavenumbers:  4000. -  4650. cm-1, ATM      1
 LEVEL PRESSURE   UPWARD FLUX   DIFDOWN FLUX  DIRDOWN FLUX  DOWNWARD FLUX   NET FLUX    HEATING RATE
          mb          W/m2          W/m2          W/m2        W/m2          W/m2       degree/day
  51    .06700        4.5786        0.0000       10.7795       10.7795       6.200983       0.00000
  50    .07753        4.5786        0.0000       10.7795       10.7795       6.200982       0.00080
  49    .09103        4.5786        0.0000       10.7795       10.7795       6.200981       0.00078
  48    0.1069        4.5786        0.0000       10.7795       10.7795       6.200980       0.00077
  47    0.1255        4.5786        0.0000       10.7795       10.7795       6.200978       0.00075
  46    0.1487        4.5786        0.0000       10.7795       10.7795       6.200976       0.00076
  45    0.1794        4.5786        0.0000       10.7795       10.7795       6.200973       0.00078
  44    0.2165        4.5786        0.0000       10.7795       10.7795       6.200970       0.00076
  43    0.2613        4.5786        0.0000       10.7795       10.7795       6.200966       0.00075
  42    0.3336        4.5786        0.0000       10.7795       10.7795       6.200959       0.00077
  41    0.4307        4.5786        0.0000       10.7795       10.7795       6.200950       0.00077
  40    0.5894        4.5786        0.0000       10.7795       10.7795       6.200935       0.00080
  39     1.339        4.5786        0.0000       10.7794       10.7794       6.200846       0.00101
  38     1.782        4.5786        0.0000       10.7793       10.7793       6.200776       0.00133
  37     2.292        4.5786        0.0000       10.7792       10.7792       6.200682       0.00156
  36     2.964        4.5786        0.0000       10.7791       10.7791       6.200541       0.00176
  35     3.853        4.5786        0.0000       10.7789       10.7789       6.200333       0.00198
  34     5.035        4.5785        0.0000       10.7786       10.7786       6.200026       0.00220
  33     6.613        4.5785        0.0000       10.7781       10.7781       6.199573       0.00242
  32     8.786        4.5785        0.0000       10.7774       10.7774       6.198905       0.00259
  31     11.80        4.5785        0.0001       10.7763       10.7764       6.197856       0.00294
  30     15.07        4.5785        0.0001       10.7751       10.7752       6.196626       0.00318
  29     18.79        4.5785        0.0001       10.7736       10.7737       6.195137       0.00337
  28     23.16        4.5785        0.0001       10.7717       10.7718       6.193290       0.00357
  27     28.12        4.5785        0.0001       10.7694       10.7696       6.191053       0.00380
  26     33.73        4.5785        0.0002       10.7667       10.7668       6.188295       0.00415
  25     40.54        4.5785        0.0002       10.7629       10.7631       6.184554       0.00464
  24     48.69        4.5785        0.0002       10.7579       10.7581       6.179570       0.00516
  23     57.69        4.5786        0.0003       10.7520       10.7522       6.173661       0.00554
  22     68.43        4.5786        0.0003       10.7445       10.7449       6.166256       0.00582
  21     81.20        4.5787        0.0004       10.7354       10.7358       6.157139       0.00602
  20     96.49        4.5788        0.0004       10.7244       10.7248       6.146046       0.00612
  19     114.6        4.5789        0.0005       10.7106       10.7112       6.132239       0.00645
  18     136.5        4.5792        0.0006       10.6942       10.6948       6.115606       0.00640
  17     162.9        4.5795        0.0007       10.6741       10.6748       6.095246       0.00651
  16     196.4        4.5802        0.0009       10.6466       10.6475       6.067250       0.00705
  15     218.7        4.5809        0.0010       10.6261       10.6271       6.046191       0.00800
  14     243.0        4.5818        0.0011       10.5995       10.6006       6.018741       0.00952
  13     269.0        4.5833        0.0012       10.5639       10.5651       5.981828       0.01197
  12     297.5        4.5855        0.0013       10.5170       10.5183       5.932793       0.01454
  11     328.5        4.5885        0.0015       10.4584       10.4599       5.871387       0.01670
  10     361.9        4.5925        0.0016       10.3836       10.3852       5.792697       0.01991
   9     398.1        4.5975        0.0017       10.2877       10.2895       5.691940       0.02347
   8     437.6        4.6038        0.0019       10.1661       10.1680       5.564225       0.02731
   7     480.5        4.6115        0.0021       10.0213       10.0233       5.411821       0.02993
   6     533.0        4.6230        0.0023        9.8331        9.8354       5.212440       0.03207
   5     589.8        4.6387        0.0025        9.6210        9.6235       4.984834       0.03378
   4     651.6        4.6622        0.0027        9.3564        9.3590       4.696858       0.03938
   3     718.7        4.6981        0.0028        9.0116        9.0145       4.316349       0.04782
   2     792.3        4.7565        0.0030        8.5633        8.5663       3.809764       0.05810
   1     891.5        4.8883        0.0032        7.9218        7.9250       3.036702       0.06578
   0    1013.0        5.1902        0.0034        7.2239        7.2273       2.037108       0.06941



 Wavenumbers:  4650. -  5150. cm-1, ATM      1
 LEVEL PRESSURE   UPWARD FLUX   DIFDOWN FLUX  DIRDOWN FLUX  DOWNWARD FLUX   NET FLUX    HEATING RATE
          mb          W/m2          W/m2          W/m2        W/m2          W/m2       degree/day
  51    .06700        3.2061        0.0000       10.2033       10.2033       6.997284       0.00000
  50    .07753        3.2061        0.0000       10.2031       10.2031       6.997049       0.18885
  49    .09103        3.2061        0.0000       10.2028       10.2028       6.996754       0.18412
  48    0.1069        3.2061        0.0000       10.2025       10.2025       6.996418       0.17915
  47    0.1255        3.2061        0.0000       10.2021       10.2021       6.996034       0.17411
  46    0.1487        3.2061        0.0000       10.2016       10.2016       6.995553       0.17521
  45    0.1794        3.2061        0.0000       10.2010       10.2010       6.994903       0.17835
  44    0.2165        3.2061        0.0000       10.2002       10.2002       6.994144       0.17262
  43    0.2613        3.2061        0.0000       10.1993       10.1993       6.993260       0.16676
  42    0.3336        3.2061        0.0000       10.1979       10.1979       6.991828       0.16688
  41    0.4307        3.2061        0.0000       10.1960       10.1960       6.989990       0.15989
  40    0.5894        3.2061        0.0000       10.1932       10.1932       6.987118       0.15270
  39     1.339        3.2061        0.0000       10.1816       10.1816       6.975536       0.13039
  38     1.782        3.2061        0.0000       10.1761       10.1761       6.970012       0.10517
  37     2.292        3.2060        0.0000       10.1706       10.1706       6.964560       0.09030
  36     2.964        3.2060        0.0000       10.1647       10.1647       6.958641       0.07429
  35     3.853        3.2060        0.0000       10.1585       10.1585       6.952432       0.05893
  34     5.035        3.2060        0.0000       10.1521       10.1521       6.946101       0.04523
  33     6.613        3.2060        0.0000       10.1456       10.1457       6.939648       0.03450
  32     8.786        3.2060        0.0001       10.1386       10.1387       6.932641       0.02721
  31     11.80        3.2060        0.0001       10.1296       10.1296       6.923605       0.02530
  30     15.07        3.2060        0.0001       10.1197       10.1198       6.913730       0.02550
  29     18.79        3.2060        0.0001       10.1076       10.1078       6.901726       0.02722
  28     23.16        3.2061        0.0002       10.0923       10.0925       6.886425       0.02959
  27     28.12        3.2061        0.0002       10.0732       10.0734       6.867333       0.03245
  26     33.73        3.2061        0.0002       10.0501       10.0504       6.844241       0.03472
  25     40.54        3.2062        0.0003       10.0202       10.0205       6.814337       0.03710
  24     48.69        3.2063        0.0003        9.9821        9.9824       6.776161       0.03951
  23     57.69        3.2064        0.0004        9.9386        9.9390       6.732611       0.04082
  22     68.43        3.2065        0.0004        9.8859        9.8864       6.679857       0.04147
  21     81.20        3.2068        0.0005        9.8237        9.8242       6.617428       0.04125
  20     96.49        3.2071        0.0006        9.7520        9.7526       6.545545       0.03967
  19     114.6        3.2076        0.0007        9.6722        9.6730       6.465399       0.03742
  18     136.5        3.2082        0.0009        9.5862        9.5870       6.378810       0.03330
  17     162.9        3.2091        0.0010        9.4945        9.4955       6.286395       0.02954
  16     196.4        3.2106        0.0012        9.3888        9.3901       6.179490       0.02691
  15     218.7        3.2117        0.0014        9.3237        9.3250       6.113301       0.02513
  14     243.0        3.2132        0.0015        9.2532        9.2547       6.041449       0.02492
  13     269.0        3.2153        0.0016        9.1739        9.1756       5.960291       0.02633
  12     297.5        3.2182        0.0018        9.0807        9.0825       5.864340       0.02846
  11     328.5        3.2220        0.0020        8.9718        8.9738       5.751783       0.03060
  10     361.9        3.2270        0.0022        8.8453        8.8474       5.620446       0.03323
   9     398.1        3.2334        0.0023        8.6967        8.6990       5.465597       0.03608
   8     437.6        3.2418        0.0025        8.5228        8.5253       5.283549       0.03892
   7     480.5        3.2525        0.0027        8.3216        8.3243       5.071786       0.04159
   6     533.0        3.2687        0.0029        8.0567        8.0596       4.790929       0.04518
   5     589.8        3.2910        0.0032        7.7517        7.7549       4.463897       0.04854
   4     651.6        3.3231        0.0034        7.3970        7.4004       4.077258       0.05287
   3     718.7        3.3698        0.0036        7.0063        7.0098       3.640010       0.05495
   2     792.3        3.4404        0.0037        6.5838        6.5875       3.147099       0.05653
   1     891.5        3.5848        0.0039        6.0288        6.0328       2.447984       0.05949
   0    1013.0        3.8803        0.0041        5.3990        5.4031       1.522827       0.06424



 Wavenumbers:  5150. -  6150. cm-1, ATM      1
 LEVEL PRESSURE   UPWARD FLUX   DIFDOWN FLUX  DIRDOWN FLUX  DOWNWARD FLUX   NET FLUX    HEATING RATE
          mb          W/m2          W/m2          W/m2        W/m2          W/m2       degree/day
  51    .06700        8.1410        0.0000       25.5798       25.5798      17.438831       0.00000
  50    .07753        8.1410        0.0000       25.5798       25.5798      17.438797       0.02772
  49    .09103        8.1410        0.0000       25.5797       25.5797      17.438752       0.02815
  48    0.1069        8.1410        0.0000       25.5797       25.5797      17.438698       0.02859
  47    0.1255        8.1410        0.0000       25.5796       25.5796      17.438634       0.02903
  46    0.1487        8.1410        0.0000       25.5795       25.5795      17.438550       0.03059
  45    0.1794        8.1410        0.0000       25.5794       25.5794      17.438431       0.03256
  44    0.2165        8.1410        0.0000       25.5793       25.5793      17.438286       0.03305
  43    0.2613        8.1410        0.0000       25.5791       25.5791      17.438108       0.03356
  42    0.3336        8.1410        0.0000       25.5788       25.5788      17.437804       0.03546
  41    0.4307        8.1410        0.0000       25.5784       25.5784      17.437390       0.03595
  40    0.5894        8.1410        0.0000       25.5777       25.5777      17.436698       0.03684
  39     1.339        8.1410        0.0000       25.5743       25.5743      17.433356       0.03762
  38     1.782        8.1410        0.0001       25.5723       25.5724      17.431407       0.03710
  37     2.292        8.1410        0.0001       25.5701       25.5702      17.429199       0.03658
  36     2.964        8.1410        0.0001       25.5673       25.5673      17.426389       0.03527
  35     3.853        8.1409        0.0001       25.5636       25.5638      17.422811       0.03396
  34     5.035        8.1409        0.0002       25.5590       25.5591      17.418191       0.03300
  33     6.613        8.1409        0.0002       25.5529       25.5531      17.412181       0.03213
  32     8.786        8.1409        0.0003       25.5450       25.5453      17.404361       0.03037
  31     11.80        8.1409        0.0004       25.5343       25.5346      17.393728       0.02977
  30     15.07        8.1409        0.0005       25.5235       25.5239      17.382998       0.02770
  29     18.79        8.1409        0.0006       25.5121       25.5126      17.371708       0.02560
  28     23.16        8.1409        0.0007       25.4997       25.5004      17.359457       0.02369
  27     28.12        8.1409        0.0008       25.4866       25.4874      17.346476       0.02207
  26     33.73        8.1410        0.0010       25.4732       25.4742      17.333197       0.01997
  25     40.54        8.1410        0.0012       25.4584       25.4596      17.318539       0.01818
  24     48.69        8.1411        0.0015       25.4424       25.4439      17.302764       0.01633
  23     57.69        8.1413        0.0017       25.4265       25.4282      17.286927       0.01484
  22     68.43        8.1414        0.0021       25.4090       25.4111      17.269619       0.01361
  21     81.20        8.1417        0.0024       25.3897       25.3921      17.250458       0.01266
  20     96.49        8.1420        0.0029       25.3679       25.3708      17.228790       0.01196
  19     114.6        8.1424        0.0034       25.3428       25.3463      17.203893       0.01163
  18     136.5        8.1429        0.0041       25.3136       25.3177      17.174842       0.01117
  17     162.9        8.1435        0.0048       25.2707       25.2756      17.132080       0.01367
  16     196.4        8.1443        0.0058       25.1814       25.1873      17.042945       0.02244
  15     218.7        8.1449        0.0065       25.0478       25.0543      16.909342       0.05072
  14     243.0        8.1457        0.0071       24.7684       24.7756      16.629879       0.09693
  13     269.0        8.1466        0.0078       24.2595       24.2673      16.120646       0.16519
  12     297.5        8.1479        0.0084       23.5788       23.5872      15.439319       0.20207
  11     328.5        8.1495        0.0091       22.8889       22.8980      14.748532       0.18782
  10     361.9        8.1515        0.0097       22.1216       22.1313      13.979862       0.19448
   9     398.1        8.1541        0.0104       21.2326       21.2430      13.088898       0.20757
   8     437.6        8.1574        0.0110       20.2484       20.2593      12.101900       0.21103
   7     480.5        8.1619        0.0116       19.2307       19.2423      11.080450       0.20061
   6     533.0        8.1689        0.0122       18.0642       18.0764       9.907521       0.18869
   5     589.8        8.1795        0.0129       16.9371       16.9500       8.770518       0.16877
   4     651.6        8.1974        0.0136       15.8608       15.8744       7.676968       0.14955
   3     718.7        8.2278        0.0143       14.9592       14.9735       6.745650       0.11704
   2     792.3        8.2826        0.0151       14.1978       14.2129       5.930363       0.09350
   1     891.5        8.4210        0.0162       13.2781       13.2943       4.873347       0.08995
   0    1013.0        8.8034        0.0174       12.2400       12.2574       3.454047       0.09855



 Wavenumbers:  6150. -  7700. cm-1, ATM      1
 LEVEL PRESSURE   UPWARD FLUX   DIFDOWN FLUX  DIRDOWN FLUX  DOWNWARD FLUX   NET FLUX    HEATING RATE
          mb          W/m2          W/m2          W/m2        W/m2          W/m2       degree/day
  51    .06700       12.1495        0.0000       47.3109       47.3109      35.161340       0.00000
  50    .07753       12.1495        0.0000       47.3108       47.3108      35.161288       0.04152
  49    .09103       12.1495        0.0000       47.3107       47.3107      35.161221       0.04175
  48    0.1069       12.1495        0.0000       47.3107       47.3107      35.161142       0.04199
  47    0.1255       12.1495        0.0000       47.3106       47.3106      35.161049       0.04223
  46    0.1487       12.1495        0.0000       47.3104       47.3104      35.160928       0.04407
  45    0.1794       12.1495        0.0000       47.3103       47.3103      35.160759       0.04652
  44    0.2165       12.1495        0.0000       47.3100       47.3101      35.160553       0.04685
  43    0.2613       12.1495        0.0000       47.3098       47.3098      35.160302       0.04720
  42    0.3336       12.1495        0.0000       47.3093       47.3094      35.159877       0.04952
  41    0.4307       12.1495        0.0000       47.3087       47.3088      35.159303       0.04994
  40    0.5894       12.1495        0.0001       47.3078       47.3078      35.158345       0.05093
  39     1.339       12.1494        0.0002       47.3030       47.3032      35.153742       0.05183
  38     1.782       12.1494        0.0002       47.3002       47.3004      35.151055       0.05116
  37     2.292       12.1493        0.0003       47.2970       47.2973      35.147998       0.05063
  36     2.964       12.1493        0.0004       47.2930       47.2934      35.144083       0.04915
  35     3.853       12.1492        0.0005       47.2878       47.2883      35.139057       0.04769
  34     5.035       12.1491        0.0006       47.2810       47.2816      35.132528       0.04664
  33     6.613       12.1490        0.0008       47.2721       47.2729      35.123978       0.04571
  32     8.786       12.1488        0.0011       47.2605       47.2615      35.112752       0.04360
  31     11.80       12.1485        0.0014       47.2443       47.2458      35.097280       0.04332
  30     15.07       12.1482        0.0019       47.2278       47.2296      35.081403       0.04099
  29     18.79       12.1479        0.0023       47.2100       47.2123      35.064368       0.03862
  28     23.16       12.1475        0.0028       47.1902       47.1930      35.045500       0.03649
  27     28.12       12.1471        0.0035       47.1687       47.1722      35.025065       0.03474
  26     33.73       12.1466        0.0041       47.1462       47.1503      35.003673       0.03216
  25     40.54       12.1461        0.0050       47.1207       47.1257      34.979632       0.02983
  24     48.69       12.1454        0.0060       47.0925       47.0984      34.953049       0.02751
  23     57.69       12.1446        0.0071       47.0634       47.0705      34.925867       0.02548
  22     68.43       12.1437        0.0084       47.0311       47.0395      34.895750       0.02368
  21     81.20       12.1426        0.0099       46.9946       47.0045      34.861898       0.02237
  20     96.49       12.1413        0.0118       46.9527       46.9645      34.823217       0.02135
  19     114.6       12.1398        0.0140       46.9042       46.9182      34.778414       0.02092
  18     136.5       12.1380        0.0166       46.8474       46.8640      34.726069       0.02013
  17     162.9       12.1358        0.0198       46.7672       46.7870      34.651141       0.02395
  16     196.4       12.1331        0.0238       46.6097       46.6335      34.500450       0.03793
  15     218.7       12.1314        0.0264       46.3985       46.4249      34.293570       0.07854
  14     243.0       12.1296        0.0291       46.0111       46.0403      33.910635       0.13281
  13     269.0       12.1280        0.0319       45.3162       45.3481      33.220120       0.22400
  12     297.5       12.1268        0.0346       44.2321       44.2667      32.139968       0.32036
  11     328.5       12.1260        0.0373       42.9985       43.0358      30.909833       0.33447
  10     361.9       12.1260        0.0401       41.6854       41.7255      29.599594       0.33150
   9     398.1       12.1271        0.0429       40.2076       40.2505      28.123430       0.34391
   8     437.6       12.1301        0.0455       38.4850       38.5305      26.400338       0.36841
   7     480.5       12.1359        0.0479       36.6097       36.6576      24.521651       0.36897
   6     533.0       12.1479        0.0505       34.3638       34.4143      22.266400       0.36280
   5     589.8       12.1700        0.0529       32.0136       32.0664      19.896458       0.35178
   4     651.6       12.2129        0.0547       29.4867       29.5414      17.328563       0.35117
   3     718.7       12.2912        0.0564       27.0018       27.0582      14.766980       0.32192
   2     792.3       12.4372        0.0577       24.5808       24.6385      12.201273       0.29426
   1     891.5       12.8079        0.0592       21.7818       21.8410       9.033067       0.26960
   0    1013.0       13.7868        0.0610       19.1316       19.1926       5.405758       0.25186



 Wavenumbers:  7700. -  8050. cm-1, ATM      1
 LEVEL PRESSURE   UPWARD FLUX   DIFDOWN FLUX  DIRDOWN FLUX  DOWNWARD FLUX   NET FLUX    HEATING RATE
          mb          W/m2          W/m2          W/m2        W/m2          W/m2       degree/day
  51    .06700        6.3538        0.0000       11.1810       11.1810       4.827204       0.00000
  50    .07753        6.3538        0.0000       11.1809       11.1809       4.827182       0.01759
  49    .09103        6.3538        0.0000       11.1809       11.1809       4.827154       0.01724
  48    0.1069        6.3538        0.0000       11.1809       11.1809       4.827123       0.01687
  47    0.1255        6.3538        0.0000       11.1809       11.1809       4.827086       0.01651
  46    0.1487        6.3538        0.0000       11.1808       11.1808       4.827040       0.01676
  45    0.1794        6.3538        0.0000       11.1808       11.1808       4.826977       0.01724
  44    0.2165        6.3538        0.0000       11.1807       11.1807       4.826903       0.01691
  43    0.2613        6.3538        0.0000       11.1806       11.1806       4.826815       0.01660
  42    0.3336        6.3539        0.0000       11.1805       11.1805       4.826669       0.01698
  41    0.4307        6.3539        0.0000       11.1803       11.1804       4.826476       0.01680
  40    0.5894        6.3539        0.0000       11.1801       11.1801       4.826161       0.01678
  39     1.339        6.3542        0.0001       11.1788       11.1789       4.824668       0.01681
  38     1.782        6.3544        0.0001       11.1781       11.1782       4.823791       0.01669
  37     2.292        6.3546        0.0001       11.1772       11.1773       4.822776       0.01681
  36     2.964        6.3548        0.0002       11.1761       11.1762       4.821443       0.01673
  35     3.853        6.3551        0.0002       11.1746       11.1748       4.819683       0.01671
  34     5.035        6.3555        0.0003       11.1726       11.1729       4.817345       0.01670
  33     6.613        6.3561        0.0004       11.1700       11.1703       4.814221       0.01670
  32     8.786        6.3569        0.0005       11.1664       11.1669       4.810014       0.01634
  31     11.80        6.3580        0.0007       11.1613       11.1620       4.803998       0.01684
  30     15.07        6.3591        0.0008       11.1558       11.1567       4.797545       0.01666
  29     18.79        6.3605        0.0011       11.1497       11.1507       4.790263       0.01651
  28     23.16        6.3620        0.0013       11.1425       11.1438       4.781767       0.01643
  27     28.12        6.3638        0.0016       11.1343       11.1359       4.772067       0.01649
  26     33.73        6.3658        0.0019       11.1252       11.1271       4.761232       0.01629
  25     40.54        6.3683        0.0023       11.1142       11.1165       4.748172       0.01620
  24     48.69        6.3713        0.0027       11.1010       11.1037       4.732472       0.01625
  23     57.69        6.3745        0.0032       11.0866       11.0898       4.715285       0.01611
  22     68.43        6.3785        0.0038       11.0695       11.0733       4.694895       0.01603
  21     81.20        6.3832        0.0045       11.0494       11.0539       4.670719       0.01598
  20     96.49        6.3888        0.0054       11.0255       11.0309       4.642075       0.01581
  19     114.6        6.3956        0.0064       10.9975       11.0039       4.608293       0.01577
  18     136.5        6.4038        0.0076       10.9648       10.9723       4.568563       0.01528
  17     162.9        6.4136        0.0090       10.9263       10.9353       4.521669       0.01499
  16     196.4        6.4266        0.0108       10.8773       10.8881       4.461494       0.01515
  15     218.7        6.4352        0.0120       10.8455       10.8575       4.422314       0.01488
  14     243.0        6.4448        0.0133       10.8114       10.8247       4.379970       0.01469
  13     269.0        6.4553        0.0147       10.7749       10.7896       4.334295       0.01482
  12     297.5        6.4669        0.0162       10.7358       10.7520       4.285058       0.01460
  11     328.5        6.4798        0.0179       10.6939       10.7117       4.231937       0.01444
  10     361.9        6.4940        0.0196       10.6491       10.6687       4.174702       0.01448
   9     398.1        6.5099        0.0215       10.6012       10.6227       4.112856       0.01441
   8     437.6        6.5276        0.0236       10.5498       10.5734       4.045798       0.01434
   7     480.5        6.5474        0.0258       10.4945       10.5203       3.972862       0.01432
   6     533.0        6.5732        0.0284       10.4260       10.4544       3.881168       0.01475
   5     589.8        6.6031        0.0313       10.3506       10.3819       3.778737       0.01520
   4     651.6        6.6388        0.0344       10.2658       10.3002       3.661374       0.01605
   3     718.7        6.6821        0.0377       10.1688       10.2065       3.524393       0.01721
   2     792.3        6.7363        0.0412       10.0553       10.0964       3.360185       0.01883
   1     891.5        6.8260        0.0458        9.8823        9.9280       3.102027       0.02197
   0    1013.0        6.9655        0.0511        9.6434        9.6945       2.729012       0.02590



 Wavenumbers:  8050. - 12850. cm-1, ATM      1
 LEVEL PRESSURE   UPWARD FLUX   DIFDOWN FLUX  DIRDOWN FLUX  DOWNWARD FLUX   NET FLUX    HEATING RATE
          mb          W/m2          W/m2          W/m2        W/m2          W/m2       degree/day
  51    .06700       78.4879        0.0000      156.5418      156.5418      78.053882       0.00000
  50    .07753       78.4879        0.0000      156.5417      156.5417      78.053882       0.00000
  49    .09103       78.4878        0.0001      156.5417      156.5417      78.053882      -0.00000
  48    0.1069       78.4878        0.0001      156.5416      156.5417      78.053882      -0.00000
  47    0.1255       78.4878        0.0002      156.5415      156.5417      78.053882      -0.00000
  46    0.1487       78.4878        0.0002      156.5414      156.5416      78.053882       0.00000
  45    0.1794       78.4877        0.0003      156.5413      156.5416      78.053882      -0.00000
  44    0.2165       78.4877        0.0004      156.5412      156.5416      78.053882       0.00000
  43    0.2613       78.4876        0.0005      156.5410      156.5415      78.053882       0.00000
  42    0.3336       78.4875        0.0007      156.5407      156.5414      78.053882      -0.00000
  41    0.4307       78.4874        0.0010      156.5403      156.5413      78.053882       0.00000
  40    0.5894       78.4872        0.0014      156.5397      156.5411      78.053882      -0.00000
  39     1.339       78.4863        0.0034      156.5367      156.5402      78.053882       0.00000
  38     1.782       78.4857        0.0046      156.5350      156.5396      78.053882      -0.00000
  37     2.292       78.4851        0.0060      156.5330      156.5390      78.053882       0.00000
  36     2.964       78.4843        0.0078      156.5303      156.5381      78.053882       0.00000
  35     3.853       78.4832        0.0102      156.5268      156.5370      78.053882      -0.00000
  34     5.035       78.4817        0.0134      156.5222      156.5356      78.053882      -0.00000
  33     6.613       78.4797        0.0176      156.5160      156.5336      78.053882       0.00000
  32     8.786       78.4771        0.0233      156.5076      156.5310      78.053882      -0.00000
  31     11.80       78.4733        0.0315      156.4957      156.5272      78.053882       0.00000
  30     15.07       78.4692        0.0403      156.4828      156.5231      78.053882       0.00000
  29     18.79       78.4646        0.0503      156.4682      156.5185      78.053882      -0.00000
  28     23.16       78.4592        0.0619      156.4512      156.5131      78.053882      -0.00000
  27     28.12       78.4531        0.0752      156.4317      156.5069      78.053882       0.00000
  26     33.73       78.4461        0.0902      156.4099      156.5000      78.053882      -0.00000
  25     40.54       78.4378        0.1082      156.3834      156.4917      78.053882       0.00000
  24     48.69       78.4277        0.1300      156.3515      156.4816      78.053882      -0.00000
  23     57.69       78.4166        0.1540      156.3164      156.4704      78.053882       0.00000
  22     68.43       78.4033        0.1826      156.2746      156.4572      78.053882       0.00000
  21     81.20       78.3875        0.2168      156.2246      156.4414      78.053882      -0.00000
  20     96.49       78.3686        0.2575      156.1649      156.4225      78.053882       0.00000
  19     114.6       78.3463        0.3060      156.0887      156.3947      78.048457       0.00253
  18     136.5       78.3197        0.3636      155.9978      156.3614      78.041721       0.00259
  17     162.9       78.2880        0.4323      155.8862      156.3186      78.030525       0.00358
  16     196.4       78.2469        0.5217      155.7270      156.2487      78.001745       0.00724
  15     218.7       78.2200        0.5805      155.5874      156.1678      77.947820       0.02047
  14     243.0       78.1911        0.6443      155.3666      156.0109      77.819779       0.04441
  13     269.0       78.1607        0.7134      155.0088      155.7223      77.561544       0.08377
  12     297.5       78.1297        0.7879      154.4830      155.2708      77.141170       0.12468
  11     328.5       78.0985        0.8681      153.8474      154.7155      76.617017       0.14252
  10     361.9       78.0683        0.9542      153.0920      154.0462      75.977895       0.16170
   9     398.1       78.0411        1.0464      152.1542      153.2006      75.159516       0.19066
   8     437.6       78.0203        1.1444      150.9532      152.0976      74.077268       0.23139
   7     480.5       78.0101        1.2482      149.4606      150.7088      72.698732       0.27074
   6     533.0       78.0202        1.3738      147.3438      148.7176      70.697352       0.32196
   5     589.8       78.0726        1.5055      144.6537      146.1592      68.086573       0.38753
   4     651.6       78.2154        1.6407      141.0736      142.7143      64.498885       0.49063
   3     718.7       78.5107        1.7780      136.7027      138.4807      59.970020       0.56915
   2     792.3       79.0945        1.9144      131.4674      133.3819      54.287410       0.65173
   1     891.5       80.5918        2.0804      123.8175      125.8979      45.306021       0.76427
   0    1013.0       84.2638        2.2581      114.8460      117.1041      32.840255       0.86556



 Wavenumbers: 12850. - 16000. cm-1, ATM      1
 LEVEL PRESSURE   UPWARD FLUX   DIFDOWN FLUX  DIRDOWN FLUX  DOWNWARD FLUX   NET FLUX    HEATING RATE
          mb          W/m2          W/m2          W/m2        W/m2          W/m2       degree/day
  51    .06700       72.1497        0.0000       98.0872       98.0872      25.937536       0.00000
  50    .07753       72.1497        0.0001       98.0864       98.0864      25.936746       0.63331
  49    .09103       72.1497        0.0002       98.0853       98.0854      25.935754       0.62008
  48    0.1069       72.1497        0.0003       98.0841       98.0843      25.934615       0.60657
  47    0.1255       72.1497        0.0004       98.0826       98.0830      25.933306       0.59332
  46    0.1487       72.1497        0.0005       98.0809       98.0814      25.931655       0.60179
  45    0.1794       72.1497        0.0007       98.0784       98.0791      25.929410       0.61626
  44    0.2165       72.1498        0.0009       98.0756       98.0766      25.926771       0.60037
  43    0.2613       72.1499        0.0012       98.0723       98.0736      25.923669       0.58466
  42    0.3336       72.1501        0.0017       98.0670       98.0687      25.918611       0.58976
  41    0.4307       72.1504        0.0023       98.0602       98.0625      25.912076       0.56822
  40    0.5894       72.1510        0.0033       98.0496       98.0528      25.901792       0.54686
  39     1.339       72.1568        0.0079       98.0043       98.0123      25.855438       0.52187
  38     1.782       72.1622        0.0106       97.9793       97.9899      25.827767       0.52681
  37     2.292       72.1702        0.0138       97.9498       97.9636      25.793411       0.56902
  36     2.964       72.1835        0.0180       97.9088       97.9268      25.743283       0.62926
  35     3.853       72.2050        0.0235       97.8503       97.8738      25.668757       0.70726
  34     5.035       72.2375        0.0307       97.7680       97.7987      25.561210       0.76827
  33     6.613       72.2829        0.0405       97.6562       97.6966      25.413767       0.78823
  32     8.786       72.3419        0.0535       97.5107       97.5642      25.222295       0.74361
  31     11.80       72.4187        0.0723       97.3179       97.3901      24.971393       0.70245
  30     15.07       72.4922        0.0923       97.1283       97.2206      24.728421       0.62731
  29     18.79       72.5672        0.1150       96.9300       97.0450      24.477771       0.56830
  28     23.16       72.6455        0.1414       96.7166       96.8580      24.212439       0.51307
  27     28.12       72.7242        0.1716       96.4935       96.6651      23.940851       0.46168
  26     33.73       72.7968        0.2054       96.2731       96.4785      23.681673       0.38968
  25     40.54       72.8665        0.2462       96.0408       96.2870      23.420460       0.32407
  24     48.69       72.9331        0.2954       95.7946       96.0900      23.156869       0.27277
  23     57.69       72.9894        0.3495       95.5573       95.9068      22.917398       0.22447
  22     68.43       73.0380        0.4139       95.3106       95.7245      22.686507       0.18151
  21     81.20       73.0709        0.4908       95.0643       95.5551      22.484255       0.13365
  20     96.49       73.0867        0.5825       94.8153       95.3977      22.310983       0.09563
  19     114.6       73.1063        0.6924       94.5411       95.2335      22.127204       0.08581
  18     136.5       73.1189        0.8227       94.2321       95.0548      21.935892       0.07356
  17     162.9       73.1242        0.9779       93.8755       94.8534      21.729184       0.06607
  16     196.4       73.1106        1.1791       93.4349       94.6140      21.503379       0.05684
  15     218.7       73.0942        1.3112       93.1516       94.4628      21.368555       0.05119
  14     243.0       73.0732        1.4548       92.8445       94.2993      21.226066       0.04942
  13     269.0       73.0474        1.6103       92.5124       94.1228      21.075377       0.04888
  12     297.5       73.0171        1.7784       92.1522       93.9307      20.913613       0.04798
  11     328.5       72.9839        1.9600       91.7604       93.7205      20.736559       0.04814
  10     361.9       72.9485        2.1555       91.3346       93.4901      20.541586       0.04933
   9     398.1       72.9118        2.3659       90.8707       93.2366      20.324799       0.05051
   8     437.6       72.8760        2.5916       90.3621       92.9537      20.077729       0.05283
   7     480.5       72.8430        2.8334       89.8031       92.6365      19.793497       0.05582
   6     533.0       72.8133        3.1308       89.0885       92.2193      19.405985       0.06234
   5     589.8       72.8022        3.4504       88.2726       91.7229      18.920704       0.07203
   4     651.6       72.8336        3.7920       87.3040       91.0959      18.262351       0.09003
   3     718.7       72.9274        4.1546       86.1631       90.3177      17.390380       0.10958
   2     792.3       73.1303        4.5348       84.8033       89.3381      16.207844       0.13562
   1     891.5       73.6509        5.0304       82.7368       87.7673      14.116356       0.17798
   0    1013.0       74.7598        5.6008       80.0478       85.6486      10.888742       0.22411



 Wavenumbers: 16000. - 22650. cm-1, ATM      1
 LEVEL PRESSURE   UPWARD FLUX   DIFDOWN FLUX  DIRDOWN FLUX  DOWNWARD FLUX   NET FLUX    HEATING RATE
          mb          W/m2          W/m2          W/m2        W/m2          W/m2       degree/day
  51    .06700      140.3729        0.0000      156.3892      156.3892      16.016369       0.00000
  50    .07753      140.3729        0.0004      156.3887      156.3891      16.016222       0.11802
  49    .09103      140.3728        0.0009      156.3879      156.3888      16.016008       0.13386
  48    0.1069      140.3728        0.0015      156.3871      156.3885      16.015721       0.15265
  47    0.1255      140.3728        0.0021      156.3861      156.3882      16.015337       0.17399
  46    0.1487      140.3729        0.0029      156.3847      156.3877      16.014772       0.20618
  45    0.1794      140.3730        0.0041      156.3828      156.3869      16.013887       0.24276
  44    0.2165      140.3732        0.0054      156.3805      156.3859      16.012688       0.27284
  43    0.2613      140.3736        0.0070      156.3776      156.3846      16.011061       0.30674
  42    0.3336      140.3743        0.0096      156.3726      156.3823      16.007967       0.36072
  41    0.4307      140.3755        0.0131      156.3657      156.3788      16.003303       0.40548
  40    0.5894      140.3781        0.0188      156.3537      156.3725      15.994409       0.47298
  39     1.339      140.4005        0.0458      156.2834      156.3292      15.928698       0.73979
  38     1.782      140.4212        0.0616      156.2324      156.2939      15.872720       1.06573
  37     2.292      140.4523        0.0799      156.1641      156.2440      15.791692       1.34204
  36     2.964      140.5040        0.1039      156.0605      156.1644      15.660426       1.64779
  35     3.853      140.5876        0.1357      155.9041      156.0397      15.452139       1.97668
  34     5.035      140.7137        0.1778      155.6774      155.8551      15.141393       2.21984
  33     6.613      140.8900        0.2340      155.3656      155.5996      14.709550       2.30864
  32     8.786      141.1196        0.3096      154.9577      155.2672      14.147629       2.18230
  31     11.80      141.4184        0.4176      154.4153      154.8329      13.414478       2.05259
  30     15.07      141.7046        0.5334      153.8804      154.4138      12.709220       1.82084
  29     18.79      141.9967        0.6640      153.3191      153.9831      11.986408       1.63884
  28     23.16      142.3020        0.8164      152.7126      153.5289      11.226931       1.46858
  27     28.12      142.6091        0.9903      152.0755      153.0658      10.456707       1.30933
  26     33.73      142.8924        1.1848      151.4409      152.6257       9.733248       1.08774
  25     40.54      143.1650        1.4195      150.7637      152.1832       9.018223       0.88707
  24     48.69      143.4257        1.7022      150.0338      151.7361       8.310349       0.73254
  23     57.69      143.6465        2.0124      149.3151      151.3275       7.680990       0.58993
  22     68.43      143.8388        2.3814      148.5476      150.9290       7.090197       0.46444
  21     81.20      143.9709        2.8207      147.7517      150.5724       6.601482       0.32294
  20     96.49      144.0383        3.3437      146.9127      150.2563       6.217971       0.21167
  19     114.6      144.0723        3.9628      145.9763      149.9391       5.866839       0.16395
  18     136.5      144.0812        4.6939      144.9088      149.6027       5.521423       0.13282
  17     162.9      144.0635        5.5604      143.6786      149.2390       5.175425       0.11059
  16     196.4      143.9792        6.6784      142.1651      148.8435       4.864253       0.07833
  15     218.7      143.9014        7.4090      141.2034      148.6124       4.710981       0.05819
  14     243.0      143.8065        8.1997      140.1754      148.3751       4.568674       0.04936
  13     269.0      143.6929        9.0528      139.0799      148.1327       4.439795       0.04181
  12     297.5      143.5599        9.9701      137.9145      147.8847       4.324792       0.03411
  11     328.5      143.4115       10.9562      136.6684      147.6246       4.213084       0.03037
  10     361.9      143.2474       12.0117      135.3406      147.3523       4.104879       0.02738
   9     398.1      143.0672       13.1409      133.9257      147.0666       3.999403       0.02457
   8     437.6      142.8715       14.3456      132.4196      146.7652       3.893702       0.02260
   7     480.5      142.6601       15.6281      130.8197      146.4478       3.787666       0.02082
   6     533.0      142.3996       17.1944      128.8677      146.0620       3.662440       0.02014
   5     589.8      142.1220       18.8678      126.7797      145.6475       3.525477       0.02033
   4     651.6      141.8330       20.6500      124.5456      145.1955       3.362551       0.02228
   3     718.7      141.5379       22.5426      122.1562      144.6988       3.160928       0.02534
   2     792.3      141.2513       24.5437      119.5973      144.1410       2.889635       0.03111
   1     891.5      140.9352       27.2003      116.1274      143.3277       2.392445       0.04231
   0    1013.0      140.6710       30.3220      111.9545      142.2764       1.605393       0.05465



 Wavenumbers: 22650. - 29000. cm-1, ATM      1
 LEVEL PRESSURE   UPWARD FLUX   DIFDOWN FLUX  DIRDOWN FLUX  DOWNWARD FLUX   NET FLUX    HEATING RATE
          mb          W/m2          W/m2          W/m2        W/m2          W/m2       degree/day
  51    .06700       58.3821        0.0000       59.0156       59.0156       0.633484       0.00000
  50    .07753       58.3820        0.0005       59.0151       59.0155       0.633484      -0.00000
  49    .09103       58.3819        0.0010       59.0144       59.0154       0.633484       0.00000
  48    0.1069       58.3818        0.0017       59.0136       59.0153       0.633484      -0.00000
  47    0.1255       58.3816        0.0025       59.0127       59.0151       0.633484      -0.00000
  46    0.1487       58.3815        0.0034       59.0115       59.0149       0.633484       0.00000
  45    0.1794       58.3812        0.0048       59.0099       59.0147       0.633484       0.00000
  44    0.2165       58.3809        0.0063       59.0080       59.0144       0.633484       0.00000
  43    0.2613       58.3805        0.0082       59.0058       59.0140       0.633484      -0.00000
  42    0.3336       58.3799        0.0113       59.0022       59.0134       0.633484       0.00000
  41    0.4307       58.3791        0.0153       58.9973       59.0126       0.633484      -0.00000
  40    0.5894       58.3778        0.0220       58.9894       59.0113       0.633484       0.00000
  39     1.339       58.3717        0.0534       58.9518       59.0052       0.633484      -0.00000
  38     1.782       58.3681        0.0719       58.9297       59.0016       0.633484       0.00000
  37     2.292       58.3639        0.0933       58.9042       58.9974       0.633484      -0.00000
  36     2.964       58.3585        0.1213       58.8706       58.9920       0.633484       0.00000
  35     3.853       58.3512        0.1584       58.8264       58.9847       0.633484       0.00000
  34     5.035       58.3417        0.2076       58.7676       58.9751       0.633484      -0.00000
  33     6.613       58.3288        0.2732       58.6891       58.9623       0.633484      -0.00000
  32     8.786       58.3116        0.3617       58.5834       58.9451       0.633484       0.00000
  31     11.80       58.2870        0.4880       58.4324       58.9204       0.633484       0.00000
  30     15.07       58.2606        0.6234       58.2706       58.8940       0.633484       0.00000
  29     18.79       58.2308        0.7760       58.0882       58.8643       0.633484      -0.00000
  28     23.16       58.1961        0.9539       57.8757       58.8296       0.633484      -0.00000
  27     28.12       58.1565        1.1567       57.6333       58.7900       0.633484       0.00000
  26     33.73       58.1124        1.3828       57.3631       58.7459       0.633484       0.00000
  25     40.54       58.0593        1.6549       57.0379       58.6928       0.633484       0.00000
  24     48.69       57.9956        1.9812       56.6479       58.6291       0.633484       0.00000
  23     57.69       57.9261        2.3375       56.2221       58.5595       0.633484      -0.00000
  22     68.43       57.8438        2.7587       55.7186       58.4773       0.633484       0.00000
  21     81.20       57.7466        3.2562       55.1239       58.3801       0.633484       0.00000
  20     96.49       57.6320        3.8427       54.4228       58.2655       0.633484       0.00000
  19     114.6       57.4976        4.5301       53.6010       58.1311       0.633484       0.00000
  18     136.5       57.3407        5.3324       52.6418       57.9742       0.633484      -0.00000
  17     162.9       57.1571        6.2703       51.5203       57.7906       0.633484       0.00000
  16     196.4       56.9244        7.4584       50.0994       57.5579       0.633484      -0.00000
  15     218.7       56.7747        8.2219       49.1863       57.4082       0.633484       0.00000
  14     243.0       56.6148        9.0370       48.2113       57.2483       0.633484      -0.00000
  13     269.0       56.4447        9.9032       47.1750       57.0782       0.633484       0.00000
  12     297.5       56.2646       10.8198       46.0783       56.8981       0.633484       0.00000
  11     328.5       56.0742       11.7880       44.9196       56.7077       0.633484      -0.00000
  10     361.9       55.8739       12.8054       43.7020       56.5074       0.633484       0.00000
   9     398.1       55.6637       13.8719       42.4253       56.2972       0.633484      -0.00000
   8     437.6       55.4439       14.9854       41.0921       56.0774       0.633484       0.00000
   7     480.5       55.2151       16.1434       39.7051       55.8485       0.633484      -0.00000
   6     533.0       54.9424       17.5207       38.0551       55.5759       0.633484       0.00000
   5     589.8       54.6592       18.9484       36.3442       55.2927       0.633484       0.00000
   4     651.6       54.3668       20.4190       34.5812       55.0002       0.633484       0.00000
   3     718.7       54.0663       21.9262       32.7736       54.6998       0.633484       0.00000
   2     792.3       53.7590       23.4631       30.9294       54.3924       0.633484       0.00000
   1     891.5       53.3671       25.4151       28.5855       54.0006       0.633484      -0.00000
   0    1013.0       52.9286       27.5874       25.9747       53.5621       0.633484       0.00000



 Wavenumbers: 29000. - 38000. cm-1, ATM      1
 LEVEL PRESSURE   UPWARD FLUX   DIFDOWN FLUX  DIRDOWN FLUX  DOWNWARD FLUX   NET FLUX    HEATING RATE
          mb          W/m2          W/m2          W/m2        W/m2          W/m2       degree/day
  51    .06700        8.7365        0.0000       20.8114       20.8114      12.074842       0.00000
  50    .07753        8.7363        0.0003       20.8070       20.8074      12.071035       3.05152
  49    .09103        8.7361        0.0007       20.8009       20.8016      12.065498       3.46081
  48    0.1069        8.7358        0.0012       20.7928       20.7939      12.058088       3.94425
  47    0.1255        8.7356        0.0017       20.7820       20.7837      12.048183       4.49029
  46    0.1487        8.7352        0.0024       20.7665       20.7688      12.033620       5.30838
  45    0.1794        8.7348        0.0033       20.7424       20.7457      12.010956       6.22197
  44    0.2165        8.7342        0.0044       20.7103       20.7147      11.980433       6.94332
  43    0.2613        8.7337        0.0056       20.6675       20.6731      11.939439       7.72723
  42    0.3336        8.7328        0.0077       20.5880       20.5956      11.862879       8.92614
  41    0.4307        8.7317        0.0104       20.4722       20.4826      11.750928       9.73389
  40    0.5894        8.7301        0.0147       20.2637       20.2784      11.548247      10.77831
  39     1.339        8.7267        0.0331       19.0984       19.1315      10.404793      12.87322
  38     1.782        8.7272        0.0427       18.4394       18.4820       9.754887      12.37315
  37     2.292        8.7298        0.0530       17.7714       17.8244       9.094569      10.93659
  36     2.964        8.7363        0.0656       17.0421       17.1078       8.371488       9.07686
  35     3.853        8.7490        0.0816       16.2678       16.3494       7.600376       7.31800
  34     5.035        8.7700        0.1017       15.4803       15.5820       6.811981       5.63197
  33     6.613        8.8006        0.1275       14.7157       14.8432       6.042535       4.11346
  32     8.786        8.8410        0.1612       13.9936       14.1548       5.313766       2.83028
  31     11.80        8.8937        0.2082       13.2835       13.4918       4.598041       2.00381
  30     15.07        8.9445        0.2570       12.7394       12.9963       4.051799       1.41029
  29     18.79        8.9970        0.3110       12.2666       12.5776       3.580594       1.06837
  28     23.16        9.0528        0.3725       11.8300       12.2025       3.149715       0.83318
  27     28.12        9.1099        0.4413       11.4279       11.8692       2.759292       0.66369
  26     33.73        9.1626        0.5172       11.0695       11.5866       2.424048       0.50405
  25     40.54        9.2125        0.6078       10.7209       11.3287       2.116146       0.38199
  24     48.69        9.2596        0.7153       10.3742       11.0895       1.829861       0.29626
  23     57.69        9.2982        0.8317       10.0549       10.8866       1.588350       0.22638
  22     68.43        9.3294        0.9682        9.7327       10.7009       1.371553       0.17043
  21     81.20        9.3441        1.1294        9.4134       10.5428       1.198693       0.11422
  20     96.49        9.3405        1.3189        9.0887       10.4076       1.067116       0.07262
  19     114.6        9.3266        1.5378        8.7388       10.2766       0.950004       0.05468
  18     136.5        9.3053        1.7881        8.3549       10.1430       0.837642       0.04321
  17     162.9        9.2769        2.0733        7.9311       10.0045       0.727636       0.03516
  16     196.4        9.2292        2.4267        7.4333        9.8600       0.630820       0.02437
  15     218.7        9.1949        2.6489        7.1295        9.7785       0.583605       0.01793
  14     243.0        9.1573        2.8812        6.8161        9.6973       0.540010       0.01512
  13     269.0        9.1162        3.1227        6.4943        9.6171       0.500869       0.01270
  12     297.5        9.0717        3.3724        6.1658        9.5381       0.466367       0.01023
  11     328.5        9.0253        3.6292        5.8295        9.4586       0.433337       0.00898
  10     361.9        8.9774        3.8906        5.4887        9.3793       0.401927       0.00795
   9     398.1        8.9280        4.1561        5.1440        9.3002       0.372164       0.00693
   8     437.6        8.8778        4.4243        4.7970        9.2213       0.343475       0.00613
   7     480.5        8.8271        4.6929        4.4504        9.1433       0.316246       0.00535
   6     533.0        8.7688        4.9991        4.0563        9.0554       0.286568       0.00477
   5     589.8        8.7114        5.3001        3.6692        8.9693       0.257838       0.00426
   4     651.6        8.6557        5.5936        3.2918        8.8854       0.229736       0.00384
   3     718.7        8.6020        5.8778        2.9263        8.8042       0.202214       0.00346
   2     792.3        8.5512        6.1490        2.5775        8.7265       0.175280       0.00309
   1     891.5        8.4928        6.4674        2.1674        8.6348       0.142032       0.00283
   0    1013.0        8.4364        6.7871        1.7547        8.5417       0.105322       0.00255



 Wavenumbers: 38000. - 50000. cm-1, ATM      1
 LEVEL PRESSURE   UPWARD FLUX   DIFDOWN FLUX  DIRDOWN FLUX  DOWNWARD FLUX   NET FLUX    HEATING RATE
          mb          W/m2          W/m2          W/m2        W/m2          W/m2       degree/day
  51    .06700        0.0061        0.0000        1.2836        1.2836       1.277518       0.00000
  50    .07753        0.0061        0.0001        1.2812        1.2812       1.275183       1.87150
  49    .09103        0.0060        0.0002        1.2777        1.2778       1.271851       2.08247
  48    0.1069        0.0059        0.0002        1.2731        1.2734       1.267473       2.33059
  47    0.1255        0.0058        0.0004        1.2672        1.2675       1.261717       2.60908
  46    0.1487        0.0057        0.0005        1.2586        1.2591       1.253391       3.03499
  45    0.1794        0.0055        0.0007        1.2455        1.2462       1.240623       3.50520
  44    0.2165        0.0054        0.0009        1.2282        1.2291       1.223697       3.85037
  43    0.2613        0.0052        0.0011        1.2054        1.2065       1.201348       4.21261
  42    0.3336        0.0049        0.0015        1.1639        1.1654       1.160524       4.75970
  41    0.4307        0.0045        0.0020        1.1051        1.1070       1.102565       5.03943
  40    0.5894        0.0039        0.0026        1.0039        1.0064       1.002524       5.32007
  39     1.339        0.0022        0.0035        0.5438        0.5473       0.545104       5.14971
  38     1.782        0.0016        0.0032        0.3635        0.3666       0.365006       3.42879
  37     2.292        0.0012        0.0027        0.2356        0.2383       0.237058       2.11916
  36     2.964        0.0009        0.0022        0.1455        0.1477       0.146786       1.13318
  35     3.853        0.0006        0.0017        0.0858        0.0875       0.086906       0.56828
  34     5.035        0.0004        0.0013        0.0488        0.0501       0.049701       0.26578
  33     6.613        0.0003        0.0010        0.0273        0.0282       0.027974       0.11615
  32     8.786        0.0002        0.0007        0.0144        0.0151       0.014928       0.05067
  31     11.80        0.0001        0.0004        0.0065        0.0070       0.006903       0.02247
  30     15.07        0.0000        0.0003        0.0031        0.0034       0.003329       0.00923
  29     18.79        0.0000        0.0002        0.0014        0.0016       0.001583       0.00396
  28     23.16        0.0000        0.0001        0.0006        0.0007       0.000720       0.00167
  27     28.12        0.0000        0.0001        0.0003        0.0003       0.000317       0.00069
  26     33.73        0.0000        0.0000        0.0001        0.0001       0.000140       0.00027
  25     40.54        0.0000        0.0000        0.0000        0.0001       0.000057       0.00010
  24     48.69        0.0000        0.0000        0.0000        0.0000       0.000021       0.00004
  23     57.69        0.0000        0.0000        0.0000        0.0000       0.000008       0.00001
  22     68.43        0.0000        0.0000        0.0000        0.0000       0.000003       0.00000
  21     81.20        0.0000        0.0000        0.0000        0.0000       0.000001       0.00000
  20     96.49        0.0000        0.0000        0.0000        0.0000       0.000000       0.00000
  19     114.6        0.0000        0.0000        0.0000        0.0000       0.000000       0.00000
  18     136.5        0.0000        0.0000        0.0000        0.0000       0.000000       0.00000
  17     162.9        0.0000        0.0000        0.0000        0.0000       0.000000       0.00000
  16     196.4        0.0000        0.0000        0.0000        0.0000       0.000000       0.00000
  15     218.7        0.0000        0.0000        0.0000        0.0000       0.000000       0.00000
  14     243.0        0.0000        0.0000        0.0000        0.0000       0.000000       0.00000
  13     269.0        0.0000        0.0000        0.0000        0.0000       0.000000       0.00000
  12     297.5        0.0000        0.0000        0.0000        0.0000       0.000000       0.00000
  11     328.5        0.0000        0.0000        0.0000        0.0000       0.000000       0.00000
  10     361.9        0.0000        0.0000        0.0000        0.0000       0.000000       0.00000
   9     398.1        0.0000        0.0000        0.0000        0.0000       0.000000       0.00000
   8     437.6        0.0000        0.0000        0.0000        0.0000       0.000000       0.00000
   7     480.5        0.0000        0.0000        0.0000        0.0000       0.000000       0.00000
   6     533.0        0.0000        0.0000        0.0000        0.0000       0.000000       0.00000
   5     589.8        0.0000        0.0000        0.0000        0.0000       0.000000       0.00000
   4     651.6        0.0000        0.0000        0.0000        0.0000       0.000000       0.00000
   3     718.7        0.0000        0.0000        0.0000        0.0000       0.000000       0.00000
   2     792.3        0.0000        0.0000        0.0000        0.0000       0.000000       0.00000
   1     891.5        0.0000        0.0000        0.0000        0.0000       0.000000       0.00000
   0    1013.0        0.0000        0.0000        0.0000        0.0000       0.000000       0.00000



 Wavenumbers:   820. -  2600. cm-1, ATM      1
 LEVEL PRESSURE   UPWARD FLUX   DIFDOWN FLUX  DIRDOWN FLUX  DOWNWARD FLUX   NET FLUX    HEATING RATE
          mb          W/m2          W/m2          W/m2        W/m2          W/m2       degree/day
  51    .06700        0.8683        0.0000        6.0047        6.0047       5.136334       0.00000
  50    .07753        0.8683        0.0000        6.0008        6.0008       5.132490       3.08095
  49    .09103        0.8683        0.0000        5.9999        5.9999       5.131616       0.54620
  48    0.1069        0.8683        0.0000        5.9990        5.9990       5.130641       0.51902
  47    0.1255        0.8683        0.0000        5.9979        5.9979       5.129540       0.49888
  46    0.1487        0.8683        0.0000        5.9965        5.9965       5.128206       0.48654
  45    0.1794        0.8683        0.0000        5.9948        5.9948       5.126517       0.46345
  44    0.2165        0.8683        0.0000        5.9930        5.9930       5.124713       0.41042
  43    0.2613        0.8683        0.0000        5.9911        5.9911       5.122801       0.36051
  42    0.3336        0.8683        0.0000        5.9883        5.9883       5.120002       0.32626
  41    0.4307        0.8683        0.0000        5.9850        5.9850       5.116641       0.29224
  40    0.5894        0.8683        0.0000        5.9796        5.9796       5.111317       0.28316
  39     1.339        0.8683        0.0000        5.9550        5.9550       5.086677       0.27740
  38     1.782        0.8683        0.0000        5.9413        5.9413       5.073011       0.26017
  37     2.292        0.8683        0.0000        5.9261        5.9261       5.057774       0.25238
  36     2.964        0.8683        0.0000        5.9069        5.9069       5.038613       0.24052
  35     3.853        0.8683        0.0000        5.8829        5.8829       5.014611       0.22778
  34     5.035        0.8683        0.0000        5.8532        5.8532       4.984877       0.21241
  33     6.613        0.8683        0.0000        5.8161        5.8161       4.947720       0.19864
  32     8.786        0.8683        0.0000        5.7691        5.7691       4.900790       0.18226
  31     11.80        0.8683        0.0000        5.7103        5.7103       4.841967       0.16469
  30     15.07        0.8684        0.0000        5.6604        5.6604       4.792047       0.12888
  29     18.79        0.8684        0.0000        5.6193        5.6194       4.750984       0.09310
  28     23.16        0.8684        0.0000        5.5863        5.5863       4.717937       0.06390
  27     28.12        0.8684        0.0000        5.5594        5.5594       4.691046       0.04571
  26     33.73        0.8684        0.0000        5.5353        5.5353       4.666919       0.03628
  25     40.54        0.8684        0.0000        5.5090        5.5090       4.640601       0.03265
  24     48.69        0.8684        0.0000        5.4787        5.4787       4.610266       0.03139
  23     57.69        0.8685        0.0000        5.4461        5.4461       4.577628       0.03059
  22     68.43        0.8685        0.0000        5.4080        5.4080       4.539522       0.02996
  21     81.20        0.8685        0.0000        5.3643        5.3644       4.495821       0.02888
  20     96.49        0.8686        0.0000        5.3140        5.3140       4.445388       0.02784
  19     114.6        0.8686        0.0000        5.2561        5.2561       4.387497       0.02703
  18     136.5        0.8687        0.0000        5.1905        5.1906       4.321845       0.02524
  17     162.9        0.8688        0.0000        5.1105        5.1106       4.241754       0.02560
  16     196.4        0.8690        0.0000        4.9933        4.9933       4.124310       0.02956
  15     218.7        0.8691        0.0000        4.8898        4.8898       4.020678       0.03935
  14     243.0        0.8694        0.0000        4.7444        4.7445       3.875083       0.05050
  13     269.0        0.8698        0.0000        4.5736        4.5737       3.703878       0.05554
  12     297.5        0.8704        0.0000        4.3876        4.3876       3.517188       0.05537
  11     328.5        0.8713        0.0000        4.1880        4.1881       3.316804       0.05448
  10     361.9        0.8724        0.0000        3.9526        3.9526       3.080232       0.05986
   9     398.1        0.8739        0.0000        3.6952        3.6953       2.821373       0.06031
   8     437.6        0.8758        0.0000        3.4481        3.4482       2.572316       0.05325
   7     480.5        0.8782        0.0000        3.2541        3.2542       2.375954       0.03856
   6     533.0        0.8819        0.0000        3.0966        3.0966       2.214726       0.02594
   5     589.8        0.8873        0.0000        2.9574        2.9575       2.070163       0.02146
   4     651.6        0.8970        0.0000        2.7836        2.7837       1.886715       0.02509
   3     718.7        0.9134        0.0001        2.5784        2.5784       1.665045       0.02786
   2     792.3        0.9432        0.0001        2.3529        2.3530       1.409794       0.02927
   1     891.5        1.0176        0.0001        2.0543        2.0543       1.036682       0.03175
   0    1013.0        1.1999        0.0000        1.6709        1.6709       0.471025       0.03928

  Modules and versions used in this calculation:

       rrtmg_sw.1col.f90:  $Revision$                    rrtmg_sw_init.f90:  $Revision$        
     rrtmgsw_cldprop.f90:  $Revision$                  rrtmgsw_cldprmc.f90:  NOT USED          
     rrtmg_sw_reftra.f90:  $Revision$                  rrtmg_sw_spcvrt.f90:  NOT USED          
     rrtmg_sw_spcvmc.f90:  NOT USED                    rrtmgsw_setcoef.f90:  NOT USED          
     rrtmg_sw_taumol.f90:  $Revision$                  rrtmg_sw_vrtqdr.f90:  NOT USED          
                rrtatm.f:  NOT USED                             util_xxx.f:  NOT USED          
                 extra.f:  NOT USED                       rrtmg_sw_k_g.f90:  $Revision$        

