

 Wavenumbers:   820. - 50000. cm-1, ATM      1
 LEVEL PRESSURE   UPWARD FLUX   DIFDOWN FLUX  DIRDOWN FLUX  DOWNWARD FLUX   NET FLUX    HEATING RATE
          mb          W/m2          W/m2          W/m2        W/m2          W/m2       degree/day
  51    .06700      391.0745        0.0000      617.8126      617.8126     226.738074       0.00000
  50    .07753      391.0741        0.0013      617.7947      617.7961     226.721931      12.93881
  49    .09103      391.0737        0.0030      617.7778      617.7808     226.707114       9.26117
  48    0.1069      391.0732        0.0050      617.7580      617.7630     226.689846       9.19190
  47    0.1255      391.0726        0.0072      617.7339      617.7411     226.668496       9.67923
  46    0.1487      391.0720        0.0100      617.7008      617.7108     226.638805      10.82245
  45    0.1794      391.0713        0.0138      617.6520      617.6659     226.594571      12.14345
  44    0.2165      391.0705        0.0184      617.5894      617.6078     226.537247      13.04006
  43    0.2613      391.0698        0.0237      617.5088      617.5325     226.462734      14.04549
  42    0.3336      391.0688        0.0325      617.3639      617.3965     226.327653      15.74906
  41    0.4307      391.0680        0.0441      617.1589      617.2030     226.135045      16.74682
  40    0.5894      391.0676        0.0628      616.8002      616.8630     225.795394      18.06222
  39     1.339      391.0835        0.1473      614.9435      615.0909     224.007398      20.12959
  38     1.782      391.1052        0.1949      613.9661      614.1610     223.055798      18.11693
  37     2.292      391.1415        0.2490      613.0047      613.2537     222.112220      15.62811
  36     2.964      391.2060        0.3194      611.9562      612.2755     221.069517      13.08908
  35     3.853      391.3147        0.4116      610.8006      611.2122     219.897443      11.12320
  34     5.035      391.4823        0.5333      609.5305      610.0638     218.581546       9.40022
  33     6.613      391.7184        0.6948      608.1438      608.8386     217.120188       7.81242
  32     8.786      392.0259        0.9115      606.6218      607.5333     215.507410       6.26345
  31     11.80      392.4237        1.2201      604.8447      606.0648     213.641066       5.22517
  30     15.07      392.8019        1.5493      603.2394      604.7887     211.986851       4.27086
  29     18.79      393.1853        1.9197      601.6459      603.5657     210.380355       3.64242
  28     23.16      393.5828        2.3501      599.9869      602.3370     208.754217       3.14443
  27     28.12      393.9783        2.8400      598.2816      601.1216     207.143341       2.73838
  26     33.73      394.3345        3.3861      596.5879      599.9741     205.639579       2.26095
  25     40.54      394.6642        4.0436      594.7648      598.8084     204.144208       1.85518
  24     48.69      394.9642        4.8325      592.7781      597.6106     202.646438       1.54996
  23     57.69      395.1991        5.6949      590.7868      596.4817     201.282561       1.27843
  22     68.43      395.3762        6.7165      588.6093      595.3258     199.949594       1.04789
  21     81.20      395.4444        7.9277      586.2585      594.1861     198.741772       0.79811
  20     96.49      395.3933        9.3616      583.6846      593.0462     197.652946       0.60095
  19     114.6      395.2804       11.0486      580.7579      591.8066     196.526125       0.52615
  18     136.5      395.1029       13.0238      577.4216      590.4454     195.342500       0.45513
  17     162.9      394.8539       15.3416      573.5459      588.8875     194.033590       0.41838
  16     196.4      394.4448       18.2972      568.5682      586.8654     192.420625       0.40600
  15     218.7      394.1473       20.2079      565.0265      585.2345     191.087160       0.50627
  14     243.0      393.8145       22.2572      560.7020      582.9592     189.144713       0.67371
  13     269.0      393.4455       24.4464      555.3189      579.7653     186.319751       0.91640
  12     297.5      393.0425       26.7761      548.8905      575.6666     182.624136       1.09608
  11     328.5      392.6130       29.2526      541.9542      571.2068     178.593860       1.09582
  10     361.9      392.1606       31.8723      534.4541      566.3264     174.165809       1.12034
   9     398.1      391.6891       34.6395      526.2120      560.8515     169.162406       1.16568
   8     437.6      391.2085       37.5528      517.1471      554.6999     163.491383       1.21250
   7     480.5      390.7276       40.6104      507.4462      548.0566     157.328976       1.21027
   6     533.0      390.1986       44.2859      495.5845      539.8704     149.671748       1.23180
   5     589.8      389.7392       48.1424      482.7202      530.8625     141.123368       1.26886
   4     651.6      389.4608       52.1672      468.2911      520.4584     130.997561       1.38473
   3     718.7      389.4867       56.3520      452.7887      509.1408     119.654029       1.42557
   2     792.3      390.1094       60.6761      436.0003      496.6765     106.567030       1.50093
   1     891.5      392.4774       66.2616      413.3611      479.6227      87.145332       1.65269
   0    1013.0      399.1873       72.6145      387.7761      460.3906      61.203392       1.80128



 Wavenumbers:  2600. -  3250. cm-1, ATM      1
 LEVEL PRESSURE   UPWARD FLUX   DIFDOWN FLUX  DIRDOWN FLUX  DOWNWARD FLUX   NET FLUX    HEATING RATE
          mb          W/m2          W/m2          W/m2        W/m2          W/m2       degree/day
  51    .06700        1.0924        0.0000        5.4450        5.4450       4.352654       0.00000
  50    .07753        1.0924        0.0000        5.4450        5.4450       4.352646       0.00640
  49    .09103        1.0924        0.0000        5.4450        5.4450       4.352636       0.00627
  48    0.1069        1.0924        0.0000        5.4450        5.4450       4.352625       0.00613
  47    0.1255        1.0924        0.0000        5.4450        5.4450       4.352612       0.00599
  46    0.1487        1.0924        0.0000        5.4450        5.4450       4.352595       0.00608
  45    0.1794        1.0924        0.0000        5.4450        5.4450       4.352572       0.00625
  44    0.2165        1.0924        0.0000        5.4449        5.4449       4.352545       0.00612
  43    0.2613        1.0924        0.0000        5.4449        5.4449       4.352513       0.00600
  42    0.3336        1.0924        0.0000        5.4448        5.4448       4.352460       0.00617
  41    0.4307        1.0924        0.0000        5.4448        5.4448       4.352389       0.00620
  40    0.5894        1.0924        0.0000        5.4446        5.4446       4.352269       0.00637
  39     1.339        1.0924        0.0000        5.4439        5.4439       4.351562       0.00797
  38     1.782        1.0924        0.0000        5.4434        5.4434       4.351019       0.01034
  37     2.292        1.0924        0.0000        5.4427        5.4427       4.350303       0.01186
  36     2.964        1.0924        0.0000        5.4416        5.4416       4.349264       0.01304
  35     3.853        1.0924        0.0000        5.4402        5.4402       4.347787       0.01402
  34     5.035        1.0924        0.0000        5.4381        5.4381       4.345731       0.01468
  33     6.613        1.0924        0.0000        5.4353        5.4353       4.342950       0.01487
  32     8.786        1.0924        0.0000        5.4317        5.4317       4.339318       0.01411
  31     11.80        1.0924        0.0000        5.4269        5.4269       4.334537       0.01338
  30     15.07        1.0924        0.0000        5.4224        5.4224       4.330010       0.01169
  29     18.79        1.0924        0.0000        5.4180        5.4180       4.325598       0.01001
  28     23.16        1.0924        0.0000        5.4135        5.4135       4.321110       0.00868
  27     28.12        1.0924        0.0000        5.4088        5.4088       4.316461       0.00790
  26     33.73        1.0924        0.0000        5.4036        5.4036       4.311218       0.00788
  25     40.54        1.0924        0.0000        5.3966        5.3967       4.304272       0.00862
  24     48.69        1.0924        0.0000        5.3872        5.3872       4.294789       0.00981
  23     57.69        1.0924        0.0000        5.3754        5.3754       4.282996       0.01105
  22     68.43        1.0924        0.0000        5.3599        5.3599       4.267495       0.01219
  21     81.20        1.0924        0.0000        5.3401        5.3401       4.247643       0.01312
  20     96.49        1.0925        0.0000        5.3155        5.3155       4.223048       0.01357
  19     114.6        1.0925        0.0000        5.2853        5.2853       4.192808       0.01412
  18     136.5        1.0926        0.0001        5.2504        5.2505       4.157839       0.01345
  17     162.9        1.0927        0.0001        5.2110        5.2111       4.118349       0.01262
  16     196.4        1.0929        0.0001        5.1639        5.1640       4.071090       0.01190
  15     218.7        1.0931        0.0001        5.1329        5.1330       4.039831       0.01187
  14     243.0        1.0935        0.0001        5.0958        5.0959       4.002400       0.01298
  13     269.0        1.0941        0.0001        5.0504        5.0505       3.956436       0.01491
  12     297.5        1.0949        0.0001        4.9945        4.9946       3.899676       0.01683
  11     328.5        1.0961        0.0001        4.9286        4.9287       3.832627       0.01823
  10     361.9        1.0977        0.0001        4.8485        4.8486       3.750908       0.02068
   9     398.1        1.0999        0.0001        4.7468        4.7470       3.647070       0.02419
   8     437.6        1.1029        0.0002        4.6166        4.6168       3.513931       0.02847
   7     480.5        1.1068        0.0002        4.4556        4.4557       3.348885       0.03241
   6     533.0        1.1132        0.0002        4.2373        4.2375       3.124332       0.03612
   5     589.8        1.1226        0.0002        3.9850        3.9852       2.862609       0.03885
   4     651.6        1.1374        0.0002        3.6977        3.6979       2.560484       0.04132
   3     718.7        1.1605        0.0002        3.3894        3.3896       2.229165       0.04164
   2     792.3        1.1982        0.0002        3.0418        3.0420       1.843850       0.04419
   1     891.5        1.2837        0.0002        2.5661        2.5663       1.282662       0.04775
   0    1013.0        1.4848        0.0002        2.0674        2.0676       0.582846       0.04859



 Wavenumbers:  3250. -  4000. cm-1, ATM      1
 LEVEL PRESSURE   UPWARD FLUX   DIFDOWN FLUX  DIRDOWN FLUX  DOWNWARD FLUX   NET FLUX    HEATING RATE
          mb          W/m2          W/m2          W/m2        W/m2          W/m2       degree/day
  51    .06700        0.0005        0.0000        9.1795        9.1795       9.179009       0.00000
  50    .07753        0.0005        0.0000        9.1747        9.1747       9.174165       3.88298
  49    .09103        0.0005        0.0000        9.1713        9.1713       9.170770       2.12156
  48    0.1069        0.0005        0.0000        9.1688        9.1688       9.168239       1.34720
  47    0.1255        0.0005        0.0000        9.1665        9.1665       9.165975       1.02671
  46    0.1487        0.0005        0.0000        9.1640        9.1640       9.163528       0.89187
  45    0.1794        0.0005        0.0000        9.1612        9.1612       9.160644       0.79171
  44    0.2165        0.0005        0.0000        9.1582        9.1582       9.157717       0.66580
  43    0.2613        0.0005        0.0000        9.1553        9.1553       9.154735       0.56206
  42    0.3336        0.0005        0.0000        9.1511        9.1511       9.150543       0.48885
  41    0.4307        0.0005        0.0000        9.1463        9.1463       9.145758       0.41602
  40    0.5894        0.0005        0.0000        9.1392        9.1392       9.138722       0.37417
  39     1.339        0.0005        0.0000        9.1125        9.1125       9.112024       0.30057
  38     1.782        0.0005        0.0000        9.1009        9.1009       9.100406       0.22119
  37     2.292        0.0005        0.0000        9.0898        9.0898       9.089312       0.18375
  36     2.964        0.0005        0.0000        9.0774        9.0774       9.076855       0.15637
  35     3.853        0.0005        0.0000        9.0625        9.0626       9.062034       0.14065
  34     5.035        0.0005        0.0000        9.0438        9.0438       9.043246       0.13422
  33     6.613        0.0005        0.0000        9.0187        9.0187       9.018179       0.13401
  32     8.786        0.0005        0.0000        8.9838        8.9838       8.983272       0.13557
  31     11.80        0.0005        0.0000        8.9320        8.9321       8.931559       0.14478
  30     15.07        0.0005        0.0000        8.8751        8.8751       8.874634       0.14697
  29     18.79        0.0005        0.0000        8.8101        8.8102       8.809655       0.14733
  28     23.16        0.0005        0.0000        8.7356        8.7356       8.735115       0.14414
  27     28.12        0.0005        0.0000        8.6544        8.6544       8.653957       0.13796
  26     33.73        0.0005        0.0000        8.5708        8.5709       8.570404       0.12562
  25     40.54        0.0005        0.0001        8.4800        8.4800       8.479581       0.11268
  24     48.69        0.0005        0.0001        8.3827        8.3828       8.382358       0.10061
  23     57.69        0.0004        0.0001        8.2849        8.2850       8.284506       0.09172
  22     68.43        0.0004        0.0001        8.1737        8.1738       8.173364       0.08737
  21     81.20        0.0004        0.0001        8.0441        8.0443       8.043836       0.08559
  20     96.49        0.0004        0.0001        7.8931        7.8933       7.892869       0.08332
  19     114.6        0.0004        0.0001        7.7140        7.7141       7.713719       0.08365
  18     136.5        0.0004        0.0002        7.5167        7.5169       7.516520       0.07583
  17     162.9        0.0003        0.0002        7.2880        7.2882       7.287911       0.07307
  16     196.4        0.0003        0.0002        6.9606        6.9609       6.960569       0.08240
  15     218.7        0.0003        0.0002        6.6577        6.6579       6.657679       0.11500
  14     243.0        0.0002        0.0002        6.2521        6.2524       6.252143       0.14065
  13     269.0        0.0002        0.0003        5.7445        5.7448       5.744537       0.16466
  12     297.5        0.0002        0.0003        5.1551        5.1554       5.155160       0.17480
  11     328.5        0.0002        0.0002        4.5554        4.5557       4.555506       0.16304
  10     361.9        0.0002        0.0002        3.9782        3.9785       3.978314       0.14604
   9     398.1        0.0001        0.0002        3.4444        3.4446       3.444466       0.12437
   8     437.6        0.0001        0.0002        2.9540        2.9542       2.954065       0.10485
   7     480.5        0.0001        0.0002        2.5113        2.5115       2.511395       0.08694
   6     533.0        0.0001        0.0002        2.0425        2.0426       2.042532       0.07543
   5     589.8        0.0001        0.0002        1.5963        1.5964       1.596316       0.06623
   4     651.6        0.0001        0.0001        1.1385        1.1386       1.138544       0.06260
   3     718.7        0.0001        0.0001        0.7239        0.7239       0.723827       0.05212
   2     792.3        0.0002        0.0001        0.3865        0.3865       0.386359       0.03870
   1     891.5        0.0006        0.0000        0.1075        0.1075       0.106888       0.02378
   0    1013.0        0.0060        0.0000        0.0083        0.0083       0.002351       0.00726



 Wavenumbers:  4000. -  4650. cm-1, ATM      1
 LEVEL PRESSURE   UPWARD FLUX   DIFDOWN FLUX  DIRDOWN FLUX  DOWNWARD FLUX   NET FLUX    HEATING RATE
          mb          W/m2          W/m2          W/m2        W/m2          W/m2       degree/day
  51    .06700        4.4370        0.0000       10.7795       10.7795       6.342555       0.00000
  50    .07753        4.4370        0.0000       10.7795       10.7795       6.342554       0.00080
  49    .09103        4.4370        0.0000       10.7795       10.7795       6.342553       0.00078
  48    0.1069        4.4370        0.0000       10.7795       10.7795       6.342552       0.00076
  47    0.1255        4.4370        0.0000       10.7795       10.7795       6.342550       0.00075
  46    0.1487        4.4370        0.0000       10.7795       10.7795       6.342548       0.00076
  45    0.1794        4.4370        0.0000       10.7795       10.7795       6.342545       0.00078
  44    0.2165        4.4370        0.0000       10.7795       10.7795       6.342542       0.00076
  43    0.2613        4.4370        0.0000       10.7795       10.7795       6.342538       0.00075
  42    0.3336        4.4370        0.0000       10.7795       10.7795       6.342531       0.00077
  41    0.4307        4.4370        0.0000       10.7795       10.7795       6.342522       0.00077
  40    0.5894        4.4370        0.0000       10.7795       10.7795       6.342507       0.00079
  39     1.339        4.4370        0.0000       10.7794       10.7794       6.342418       0.00101
  38     1.782        4.4370        0.0000       10.7793       10.7793       6.342348       0.00133
  37     2.292        4.4370        0.0000       10.7792       10.7792       6.342254       0.00156
  36     2.964        4.4370        0.0000       10.7791       10.7791       6.342114       0.00176
  35     3.853        4.4370        0.0000       10.7789       10.7789       6.341906       0.00197
  34     5.035        4.4370        0.0000       10.7786       10.7786       6.341599       0.00219
  33     6.613        4.4370        0.0000       10.7781       10.7781       6.341148       0.00241
  32     8.786        4.4370        0.0000       10.7774       10.7774       6.340482       0.00259
  31     11.80        4.4370        0.0001       10.7763       10.7764       6.339435       0.00293
  30     15.07        4.4370        0.0001       10.7751       10.7752       6.338207       0.00317
  29     18.79        4.4369        0.0001       10.7736       10.7737       6.336721       0.00337
  28     23.16        4.4369        0.0001       10.7717       10.7718       6.334878       0.00356
  27     28.12        4.4369        0.0001       10.7695       10.7696       6.332647       0.00379
  26     33.73        4.4369        0.0002       10.7667       10.7668       6.329895       0.00414
  25     40.54        4.4369        0.0002       10.7629       10.7631       6.326165       0.00463
  24     48.69        4.4369        0.0002       10.7579       10.7581       6.321195       0.00514
  23     57.69        4.4370        0.0003       10.7520       10.7523       6.315304       0.00552
  22     68.43        4.4370        0.0003       10.7446       10.7449       6.307924       0.00580
  21     81.20        4.4370        0.0004       10.7355       10.7359       6.298840       0.00600
  20     96.49        4.4371        0.0004       10.7245       10.7249       6.287790       0.00610
  19     114.6        4.4373        0.0005       10.7107       10.7112       6.273967       0.00645
  18     136.5        4.4375        0.0006       10.6942       10.6948       6.257312       0.00640
  17     162.9        4.4378        0.0007       10.6740       10.6747       6.236907       0.00652
  16     196.4        4.4384        0.0009       10.6463       10.6472       6.208749       0.00709
  15     218.7        4.4390        0.0010       10.6253       10.6263       6.187281       0.00815
  14     243.0        4.4399        0.0011       10.5978       10.5988       6.158928       0.00983
  13     269.0        4.4413        0.0012       10.5606       10.5618       6.120434       0.01249
  12     297.5        4.4434        0.0013       10.5110       10.5123       6.068916       0.01528
  11     328.5        4.4463        0.0014       10.4484       10.4498       6.003505       0.01779
  10     361.9        4.4501        0.0016       10.3677       10.3693       5.919157       0.02134
   9     398.1        4.4549        0.0017       10.2642       10.2659       5.811012       0.02520
   8     437.6        4.4608        0.0019       10.1341       10.1360       5.675201       0.02904
   7     480.5        4.4682        0.0020        9.9817        9.9838       5.515597       0.03135
   6     533.0        4.4791        0.0022        9.7869        9.7891       5.310007       0.03307
   5     589.8        4.4943        0.0024        9.5673        9.5697       5.075386       0.03483
   4     651.6        4.5174        0.0026        9.2849        9.2875       4.770061       0.04175
   3     718.7        4.5533        0.0028        8.9117        8.9145       4.361199       0.05138
   2     792.3        4.6125        0.0030        8.4347        8.4377       3.825203       0.06147
   1     891.5        4.7485        0.0031        7.7723        7.7755       3.026933       0.06793
   0    1013.0        5.0651        0.0033        7.0499        7.0532       1.988036       0.07214



 Wavenumbers:  4650. -  5150. cm-1, ATM      1
 LEVEL PRESSURE   UPWARD FLUX   DIFDOWN FLUX  DIRDOWN FLUX  DOWNWARD FLUX   NET FLUX    HEATING RATE
          mb          W/m2          W/m2          W/m2        W/m2          W/m2       degree/day
  51    .06700        3.1277        0.0000       10.2033       10.2033       7.075611       0.00000
  50    .07753        3.1277        0.0000       10.2031       10.2031       7.075375       0.18904
  49    .09103        3.1277        0.0000       10.2028       10.2028       7.075080       0.18431
  48    0.1069        3.1277        0.0000       10.2025       10.2025       7.074743       0.17933
  47    0.1255        3.1277        0.0000       10.2021       10.2021       7.074359       0.17428
  46    0.1487        3.1277        0.0000       10.2016       10.2016       7.073878       0.17538
  45    0.1794        3.1277        0.0000       10.2010       10.2010       7.073227       0.17853
  44    0.2165        3.1277        0.0000       10.2002       10.2002       7.072468       0.17279
  43    0.2613        3.1277        0.0000       10.1993       10.1993       7.071582       0.16692
  42    0.3336        3.1277        0.0000       10.1979       10.1979       7.070150       0.16704
  41    0.4307        3.1277        0.0000       10.1960       10.1960       7.068309       0.16004
  40    0.5894        3.1277        0.0000       10.1932       10.1932       7.065435       0.15285
  39     1.339        3.1277        0.0000       10.1816       10.1816       7.053842       0.13052
  38     1.782        3.1277        0.0000       10.1760       10.1760       7.048312       0.10527
  37     2.292        3.1277        0.0000       10.1706       10.1706       7.042855       0.09038
  36     2.964        3.1277        0.0000       10.1646       10.1647       7.036931       0.07436
  35     3.853        3.1277        0.0000       10.1584       10.1584       7.030716       0.05898
  34     5.035        3.1277        0.0000       10.1521       10.1521       7.024380       0.04526
  33     6.613        3.1277        0.0000       10.1456       10.1456       7.017922       0.03452
  32     8.786        3.1277        0.0001       10.1386       10.1386       7.010911       0.02723
  31     11.80        3.1277        0.0001       10.1295       10.1296       7.001870       0.02531
  30     15.07        3.1277        0.0001       10.1196       10.1197       6.991990       0.02551
  29     18.79        3.1277        0.0001       10.1076       10.1077       6.979981       0.02723
  28     23.16        3.1277        0.0002       10.0922       10.0924       6.964673       0.02960
  27     28.12        3.1277        0.0002       10.0731       10.0733       6.945574       0.03247
  26     33.73        3.1278        0.0002       10.0500       10.0502       6.922473       0.03473
  25     40.54        3.1278        0.0003       10.0201       10.0204       6.892559       0.03711
  24     48.69        3.1279        0.0003        9.9819        9.9823       6.854371       0.03952
  23     57.69        3.1280        0.0004        9.9384        9.9388       6.810809       0.04083
  22     68.43        3.1281        0.0004        9.8857        9.8862       6.758044       0.04148
  21     81.20        3.1283        0.0005        9.8234        9.8239       6.695605       0.04126
  20     96.49        3.1286        0.0006        9.7517        9.7523       6.623719       0.03968
  19     114.6        3.1290        0.0007        9.6719        9.6726       6.543568       0.03742
  18     136.5        3.1296        0.0009        9.5857        9.5866       6.456987       0.03329
  17     162.9        3.1304        0.0010        9.4940        9.4950       6.364551       0.02955
  16     196.4        3.1317        0.0012        9.3882        9.3894       6.257674       0.02690
  15     218.7        3.1328        0.0013        9.3228        9.3241       6.191370       0.02517
  14     243.0        3.1342        0.0015        9.2518        9.2533       6.119098       0.02507
  13     269.0        3.1361        0.0016        9.1713        9.1729       6.036809       0.02669
  12     297.5        3.1389        0.0018        9.0755        9.0773       5.938414       0.02918
  11     328.5        3.1425        0.0020        8.9640        8.9660       5.823495       0.03125
  10     361.9        3.1472        0.0021        8.8333        8.8355       5.688278       0.03421
   9     398.1        3.1533        0.0023        8.6798        8.6822       5.528825       0.03715
   8     437.6        3.1613        0.0025        8.4996        8.5021       5.340814       0.04020
   7     480.5        3.1716        0.0027        8.2907        8.2934       5.121778       0.04302
   6     533.0        3.1872        0.0029        8.0150        8.0179       4.830650       0.04683
   5     589.8        3.2088        0.0031        7.6984        7.7015       4.492751       0.05016
   4     651.6        3.2401        0.0033        7.3316        7.3350       4.094832       0.05442
   3     718.7        3.2864        0.0035        6.9270        6.9305       3.644189       0.05663
   2     792.3        3.3565        0.0037        6.4935        6.4972       3.140708       0.05774
   1     891.5        3.5029        0.0039        5.9197        5.9236       2.420689       0.06127
   0    1013.0        3.7986        0.0040        5.2853        5.2893       1.490749       0.06457



 Wavenumbers:  5150. -  6150. cm-1, ATM      1
 LEVEL PRESSURE   UPWARD FLUX   DIFDOWN FLUX  DIRDOWN FLUX  DOWNWARD FLUX   NET FLUX    HEATING RATE
          mb          W/m2          W/m2          W/m2        W/m2          W/m2       degree/day
  51    .06700        7.9981        0.0000       25.5798       25.5798      17.581729       0.00000
  50    .07753        7.9981        0.0000       25.5798       25.5798      17.581689       0.03230
  49    .09103        7.9981        0.0000       25.5797       25.5797      17.581636       0.03280
  48    0.1069        7.9981        0.0000       25.5797       25.5797      17.581574       0.03332
  47    0.1255        7.9981        0.0000       25.5796       25.5796      17.581499       0.03383
  46    0.1487        7.9981        0.0000       25.5795       25.5795      17.581401       0.03564
  45    0.1794        7.9981        0.0000       25.5793       25.5794      17.581263       0.03794
  44    0.2165        7.9981        0.0000       25.5792       25.5792      17.581094       0.03851
  43    0.2613        7.9981        0.0000       25.5790       25.5790      17.580886       0.03910
  42    0.3336        7.9981        0.0000       25.5786       25.5786      17.580532       0.04131
  41    0.4307        7.9981        0.0000       25.5781       25.5781      17.580050       0.04187
  40    0.5894        7.9981        0.0000       25.5773       25.5773      17.579244       0.04290
  39     1.339        7.9981        0.0000       25.5734       25.5734      17.575359       0.04374
  38     1.782        7.9981        0.0001       25.5711       25.5712      17.573097       0.04305
  37     2.292        7.9981        0.0001       25.5685       25.5686      17.570539       0.04237
  36     2.964        7.9981        0.0001       25.5653       25.5653      17.567290       0.04079
  35     3.853        7.9980        0.0001       25.5611       25.5612      17.563161       0.03918
  34     5.035        7.9980        0.0002       25.5557       25.5559      17.557848       0.03796
  33     6.613        7.9980        0.0002       25.5488       25.5490      17.550958       0.03683
  32     8.786        7.9980        0.0003       25.5398       25.5401      17.542037       0.03465
  31     11.80        7.9980        0.0004       25.5276       25.5280      17.529985       0.03374
  30     15.07        7.9980        0.0005       25.5155       25.5159      17.517913       0.03117
  29     18.79        7.9980        0.0006       25.5027       25.5033      17.505307       0.02858
  28     23.16        7.9980        0.0007       25.4891       25.4897      17.491743       0.02623
  27     28.12        7.9980        0.0008       25.4747       25.4755      17.477484       0.02424
  26     33.73        7.9980        0.0010       25.4600       25.4610      17.463008       0.02177
  25     40.54        7.9981        0.0012       25.4441       25.4453      17.447239       0.01956
  24     48.69        7.9982        0.0015       25.4271       25.4285      17.430353       0.01747
  23     57.69        7.9983        0.0017       25.4102       25.4119      17.413620       0.01568
  22     68.43        7.9984        0.0020       25.3919       25.3939      17.395500       0.01424
  21     81.20        7.9987        0.0024       25.3718       25.3742      17.375568       0.01317
  20     96.49        7.9989        0.0029       25.3492       25.3521      17.353154       0.01237
  19     114.6        7.9993        0.0034       25.3233       25.3268      17.327481       0.01199
  18     136.5        7.9997        0.0041       25.2932       25.2973      17.297596       0.01149
  17     162.9        8.0003        0.0048       25.2489       25.2538      17.253500       0.01409
  16     196.4        8.0010        0.0058       25.1554       25.1613      17.160226       0.02348
  15     218.7        8.0016        0.0064       25.0101       25.0165      17.014949       0.05516
  14     243.0        8.0023        0.0071       24.6982       24.7053      16.702969       0.10821
  13     269.0        8.0032        0.0077       24.1443       24.1520      16.148812       0.17977
  12     297.5        8.0044        0.0083       23.4332       23.4415      15.437114       0.21108
  11     328.5        8.0059        0.0090       22.7089       22.7179      14.712007       0.19715
  10     361.9        8.0079        0.0096       21.8880       21.8977      13.889807       0.20802
   9     398.1        8.0104        0.0102       20.9528       20.9630      12.952635       0.21834
   8     437.6        8.0136        0.0108       19.9374       19.9482      11.934586       0.21767
   7     480.5        8.0179        0.0114       18.9002       18.9116      10.893665       0.20443
   6     533.0        8.0248        0.0120       17.7311       17.7431       9.718369       0.18907
   5     589.8        8.0350        0.0127       16.6278       16.6404       8.605387       0.16520
   4     651.6        8.0524        0.0133       15.5962       15.6095       7.557120       0.14335
   3     718.7        8.0818        0.0141       14.7424       14.7565       6.674703       0.11090
   2     792.3        8.1343        0.0149       13.9996       14.0145       5.880201       0.09112
   1     891.5        8.2664        0.0160       13.0474       13.0634       4.796977       0.09218
   0    1013.0        8.6329        0.0171       12.0030       12.0201       3.387169       0.09789



 Wavenumbers:  6150. -  7700. cm-1, ATM      1
 LEVEL PRESSURE   UPWARD FLUX   DIFDOWN FLUX  DIRDOWN FLUX  DOWNWARD FLUX   NET FLUX    HEATING RATE
          mb          W/m2          W/m2          W/m2        W/m2          W/m2       degree/day
  51    .06700       11.7551        0.0000       47.3109       47.3109      35.555718       0.00000
  50    .07753       11.7551        0.0000       47.3108       47.3108      35.555660       0.04627
  49    .09103       11.7551        0.0000       47.3107       47.3107      35.555586       0.04658
  48    0.1069       11.7551        0.0000       47.3106       47.3106      35.555498       0.04691
  47    0.1255       11.7551        0.0000       47.3105       47.3105      35.555393       0.04723
  46    0.1487       11.7551        0.0000       47.3104       47.3104      35.555258       0.04934
  45    0.1794       11.7551        0.0000       47.3102       47.3102      35.555068       0.05214
  44    0.2165       11.7551        0.0000       47.3099       47.3100      35.554837       0.05256
  43    0.2613       11.7551        0.0000       47.3097       47.3097      35.554556       0.05301
  42    0.3336       11.7551        0.0000       47.3092       47.3092      35.554078       0.05567
  41    0.4307       11.7551        0.0000       47.3085       47.3085      35.553432       0.05618
  40    0.5894       11.7551        0.0001       47.3074       47.3075      35.552354       0.05733
  39     1.339       11.7550        0.0002       47.3020       47.3022      35.547172       0.05834
  38     1.782       11.7550        0.0002       47.2989       47.2991      35.544149       0.05754
  37     2.292       11.7549        0.0003       47.2954       47.2957      35.540715       0.05689
  36     2.964       11.7549        0.0004       47.2909       47.2912      35.536322       0.05514
  35     3.853       11.7548        0.0005       47.2850       47.2855      35.530694       0.05341
  34     5.035       11.7547        0.0006       47.2775       47.2781      35.523394       0.05215
  33     6.613       11.7546        0.0008       47.2676       47.2684      35.513853       0.05101
  32     8.786       11.7544        0.0011       47.2547       47.2557      35.501358       0.04853
  31     11.80       11.7541        0.0014       47.2369       47.2383      35.484195       0.04805
  30     15.07       11.7538        0.0018       47.2187       47.2205      35.466652       0.04529
  29     18.79       11.7535        0.0023       47.1991       47.2014      35.447912       0.04249
  28     23.16       11.7532        0.0028       47.1776       47.1804      35.427249       0.03996
  27     28.12       11.7527        0.0034       47.1543       47.1577      35.404978       0.03786
  26     33.73       11.7522        0.0041       47.1299       47.1340      35.381786       0.03487
  25     40.54       11.7517        0.0049       47.1026       47.1075      35.355869       0.03215
  24     48.69       11.7510        0.0059       47.0725       47.0784      35.327434       0.02943
  23     57.69       11.7502        0.0070       47.0417       47.0487      35.298530       0.02709
  22     68.43       11.7493        0.0083       47.0075       47.0158      35.266545       0.02514
  21     81.20       11.7482        0.0099       46.9691       46.9790      35.230833       0.02360
  20     96.49       11.7469        0.0117       46.9254       46.9371      35.190206       0.02242
  19     114.6       11.7454        0.0139       46.8746       46.8886      35.143238       0.02193
  18     136.5       11.7435        0.0166       46.8152       46.8318      35.088235       0.02115
  17     162.9       11.7414        0.0197       46.7307       46.7504      35.009008       0.02532
  16     196.4       11.7386        0.0237       46.5633       46.5870      34.848392       0.04043
  15     218.7       11.7369        0.0262       46.3383       46.3645      34.627658       0.08380
  14     243.0       11.7351        0.0289       45.9159       45.9448      34.209692       0.14496
  13     269.0       11.7335        0.0316       45.1450       45.1766      33.443157       0.24866
  12     297.5       11.7322        0.0343       43.9724       44.0067      32.274453       0.34662
  11     328.5       11.7314        0.0369       42.6754       42.7123      30.980885       0.35172
  10     361.9       11.7313        0.0396       41.2941       41.3337      29.602363       0.34878
   9     398.1       11.7324        0.0422       39.7213       39.7635      28.031125       0.36606
   8     437.6       11.7353        0.0447       37.9089       37.9536      26.218269       0.38760
   7     480.5       11.7409        0.0469       35.9715       36.0185      24.277551       0.38115
   6     533.0       11.7526        0.0494       33.6773       33.7267      21.974141       0.37055
   5     589.8       11.7740        0.0516       31.3046       31.3562      19.582211       0.35504
   4     651.6       11.8158        0.0533       28.7806       28.8339      17.018172       0.35064
   3     718.7       11.8921        0.0549       26.3103       26.3652      14.473032       0.31985
   2     792.3       12.0344        0.0561       23.9082       23.9643      11.929973       0.29166
   1     891.5       12.3953        0.0575       21.1414       21.1989       8.803604       0.26604
   0    1013.0       13.3511        0.0591       18.5270       18.5861       5.234931       0.24779



 Wavenumbers:  7700. -  8050. cm-1, ATM      1
 LEVEL PRESSURE   UPWARD FLUX   DIFDOWN FLUX  DIRDOWN FLUX  DOWNWARD FLUX   NET FLUX    HEATING RATE
          mb          W/m2          W/m2          W/m2        W/m2          W/m2       degree/day
  51    .06700        6.3119        0.0000       11.1810       11.1810       4.869030       0.00000
  50    .07753        6.3119        0.0000       11.1809       11.1809       4.869008       0.01754
  49    .09103        6.3119        0.0000       11.1809       11.1809       4.868980       0.01719
  48    0.1069        6.3119        0.0000       11.1809       11.1809       4.868949       0.01683
  47    0.1255        6.3120        0.0000       11.1809       11.1809       4.868913       0.01647
  46    0.1487        6.3120        0.0000       11.1808       11.1808       4.868867       0.01671
  45    0.1794        6.3120        0.0000       11.1808       11.1808       4.868804       0.01719
  44    0.2165        6.3120        0.0000       11.1807       11.1807       4.868730       0.01687
  43    0.2613        6.3120        0.0000       11.1806       11.1806       4.868642       0.01655
  42    0.3336        6.3120        0.0000       11.1805       11.1805       4.868497       0.01694
  41    0.4307        6.3121        0.0000       11.1803       11.1804       4.868304       0.01675
  40    0.5894        6.3121        0.0000       11.1801       11.1801       4.867990       0.01673
  39     1.339        6.3124        0.0001       11.1788       11.1789       4.866501       0.01676
  38     1.782        6.3125        0.0001       11.1781       11.1782       4.865627       0.01665
  37     2.292        6.3127        0.0001       11.1772       11.1773       4.864614       0.01676
  36     2.964        6.3130        0.0002       11.1761       11.1762       4.863285       0.01668
  35     3.853        6.3133        0.0002       11.1746       11.1748       4.861530       0.01666
  34     5.035        6.3137        0.0003       11.1726       11.1729       4.859198       0.01666
  33     6.613        6.3142        0.0004       11.1700       11.1703       4.856084       0.01665
  32     8.786        6.3150        0.0005       11.1664       11.1669       4.851888       0.01629
  31     11.80        6.3161        0.0007       11.1613       11.1620       4.845890       0.01679
  30     15.07        6.3172        0.0008       11.1558       11.1567       4.839455       0.01661
  29     18.79        6.3185        0.0011       11.1497       11.1507       4.832193       0.01646
  28     23.16        6.3201        0.0013       11.1425       11.1438       4.823722       0.01638
  27     28.12        6.3218        0.0016       11.1343       11.1359       4.814050       0.01644
  26     33.73        6.3238        0.0019       11.1252       11.1271       4.803247       0.01624
  25     40.54        6.3262        0.0023       11.1142       11.1165       4.790225       0.01616
  24     48.69        6.3292        0.0027       11.1010       11.1037       4.774572       0.01620
  23     57.69        6.3324        0.0032       11.0866       11.0898       4.757436       0.01606
  22     68.43        6.3362        0.0038       11.0695       11.0733       4.737109       0.01598
  21     81.20        6.3409        0.0045       11.0494       11.0539       4.713008       0.01593
  20     96.49        6.3464        0.0054       11.0255       11.0309       4.684454       0.01576
  19     114.6        6.3531        0.0064       10.9975       11.0039       4.650781       0.01572
  18     136.5        6.3611        0.0075       10.9648       10.9723       4.611182       0.01523
  17     162.9        6.3708        0.0090       10.9263       10.9353       4.564448       0.01494
  16     196.4        6.3836        0.0108       10.8773       10.8880       4.504484       0.01509
  15     218.7        6.3921        0.0120       10.8455       10.8575       4.465442       0.01482
  14     243.0        6.4015        0.0133       10.8114       10.8247       4.423245       0.01464
  13     269.0        6.4118        0.0147       10.7749       10.7895       4.377711       0.01477
  12     297.5        6.4233        0.0162       10.7357       10.7519       4.328597       0.01457
  11     328.5        6.4360        0.0178       10.6937       10.7115       4.275569       0.01442
  10     361.9        6.4500        0.0196       10.6488       10.6684       4.218373       0.01447
   9     398.1        6.4657        0.0215       10.6007       10.6222       4.156477       0.01442
   8     437.6        6.4832        0.0235       10.5489       10.5725       4.089210       0.01438
   7     480.5        6.5030        0.0257       10.4932       10.5189       4.015972       0.01438
   6     533.0        6.5287        0.0284       10.4239       10.4523       3.923603       0.01486
   5     589.8        6.5586        0.0313       10.3472       10.3785       3.819873       0.01540
   4     651.6        6.5946        0.0343       10.2604       10.2947       3.700118       0.01638
   3     718.7        6.6387        0.0376       10.1603       10.1979       3.559241       0.01770
   2     792.3        6.6945        0.0411       10.0417       10.0828       3.388260       0.01961
   1     891.5        6.7885        0.0456        9.8590        9.9046       3.116061       0.02316
   0    1013.0        6.9372        0.0509        9.6042        9.6550       2.717895       0.02765



 Wavenumbers:  8050. - 12850. cm-1, ATM      1
 LEVEL PRESSURE   UPWARD FLUX   DIFDOWN FLUX  DIRDOWN FLUX  DOWNWARD FLUX   NET FLUX    HEATING RATE
          mb          W/m2          W/m2          W/m2        W/m2          W/m2       degree/day
  51    .06700       76.7665        0.0000      156.5418      156.5418      79.775256       0.00000
  50    .07753       76.7665        0.0000      156.5417      156.5417      79.775256       0.00000
  49    .09103       76.7665        0.0001      156.5417      156.5417      79.775256      -0.00000
  48    0.1069       76.7664        0.0001      156.5416      156.5417      79.775256       0.00000
  47    0.1255       76.7664        0.0002      156.5415      156.5417      79.775256       0.00000
  46    0.1487       76.7664        0.0002      156.5414      156.5416      79.775256       0.00000
  45    0.1794       76.7664        0.0003      156.5413      156.5416      79.775256      -0.00000
  44    0.2165       76.7663        0.0004      156.5412      156.5416      79.775256       0.00000
  43    0.2613       76.7662        0.0005      156.5410      156.5415      79.775256       0.00000
  42    0.3336       76.7662        0.0007      156.5407      156.5414      79.775256      -0.00000
  41    0.4307       76.7660        0.0010      156.5403      156.5413      79.775256       0.00000
  40    0.5894       76.7658        0.0014      156.5397      156.5411      79.775256       0.00000
  39     1.339       76.7649        0.0034      156.5367      156.5401      79.775256      -0.00000
  38     1.782       76.7643        0.0046      156.5350      156.5396      79.775256       0.00000
  37     2.292       76.7637        0.0060      156.5330      156.5389      79.775256       0.00000
  36     2.964       76.7628        0.0078      156.5303      156.5381      79.775256      -0.00000
  35     3.853       76.7617        0.0101      156.5268      156.5370      79.775256       0.00000
  34     5.035       76.7602        0.0133      156.5222      156.5355      79.775256       0.00000
  33     6.613       76.7583        0.0175      156.5160      156.5335      79.775256      -0.00000
  32     8.786       76.7556        0.0232      156.5076      156.5308      79.775256       0.00000
  31     11.80       76.7518        0.0313      156.4957      156.5270      79.775256      -0.00000
  30     15.07       76.7476        0.0401      156.4828      156.5229      79.775256       0.00000
  29     18.79       76.7430        0.0500      156.4682      156.5182      79.775256      -0.00000
  28     23.16       76.7375        0.0616      156.4512      156.5128      79.775256       0.00000
  27     28.12       76.7313        0.0748      156.4317      156.5065      79.775256       0.00000
  26     33.73       76.7243        0.0897      156.4099      156.4996      79.775256      -0.00000
  25     40.54       76.7158        0.1077      156.3834      156.4911      79.775256       0.00000
  24     48.69       76.7056        0.1294      156.3515      156.4809      79.775256      -0.00000
  23     57.69       76.6944        0.1532      156.3164      156.4697      79.775256      -0.00000
  22     68.43       76.6810        0.1817      156.2746      156.4562      79.775256      -0.00000
  21     81.20       76.6650        0.2157      156.2246      156.4402      79.775256       0.00000
  20     96.49       76.6459        0.2562      156.1649      156.4211      79.775256       0.00000
  19     114.6       76.6233        0.3044      156.0878      156.3923      79.768938       0.00295
  18     136.5       76.5965        0.3617      155.9959      156.3576      79.761098       0.00301
  17     162.9       76.5645        0.4301      155.8825      156.3126      79.748076       0.00416
  16     196.4       76.5230        0.5190      155.7186      156.2376      79.714662       0.00841
  15     218.7       76.4958        0.5774      155.5706      156.1481      79.652307       0.02367
  14     243.0       76.4666        0.6409      155.3311      155.9721      79.505489       0.05092
  13     269.0       76.4358        0.7096      154.9409      155.6505      79.214661       0.09434
  12     297.5       76.4045        0.7835      154.3726      155.1561      78.751590       0.13734
  11     328.5       76.3730        0.8631      153.6917      154.5548      78.181804       0.15492
  10     361.9       76.3425        0.9485      152.8760      153.8246      77.482076       0.17704
   9     398.1       76.3151        1.0398      151.8529      152.8927      76.577646       0.21071
   8     437.6       76.2941        1.1368      150.5416      151.6784      75.384237       0.25516
   7     480.5       76.2839        1.2393      148.9201      150.1594      73.875523       0.29631
   6     533.0       76.2942        1.3630      146.6301      147.9931      71.698980       0.35014
   5     589.8       76.3471        1.4924      143.7340      145.2264      68.879277       0.41854
   4     651.6       76.4915        1.6249      139.9222      141.5471      65.055627       0.52289
   3     718.7       76.7898        1.7590      135.3226      137.0816      60.291762       0.59869
   2     792.3       77.3806        1.8913      129.8245      131.7158      54.335192       0.68315
   1     891.5       78.9005        2.0504      121.8332      123.8836      44.983071       0.79582
   0    1013.0       82.6407        2.2202      112.6276      114.8478      32.207078       0.88710



 Wavenumbers: 12850. - 16000. cm-1, ATM      1
 LEVEL PRESSURE   UPWARD FLUX   DIFDOWN FLUX  DIRDOWN FLUX  DOWNWARD FLUX   NET FLUX    HEATING RATE
          mb          W/m2          W/m2          W/m2        W/m2          W/m2       degree/day
  51    .06700       71.5367        0.0000       98.0872       98.0872      26.550523       0.00000
  50    .07753       71.5367        0.0001       98.0864       98.0864      26.549733       0.63306
  49    .09103       71.5367        0.0002       98.0853       98.0854      26.548741       0.61979
  48    0.1069       71.5367        0.0003       98.0841       98.0843      26.547602       0.60624
  47    0.1255       71.5367        0.0004       98.0826       98.0830      26.546295       0.59295
  46    0.1487       71.5367        0.0005       98.0809       98.0814      26.544645       0.60135
  45    0.1794       71.5367        0.0007       98.0784       98.0791      26.542402       0.61574
  44    0.2165       71.5368        0.0009       98.0756       98.0766      26.539765       0.59978
  43    0.2613       71.5369        0.0012       98.0723       98.0735      26.536667       0.58399
  42    0.3336       71.5371        0.0017       98.0670       98.0687      26.531615       0.58898
  41    0.4307       71.5374        0.0023       98.0602       98.0625      26.525090       0.56734
  40    0.5894       71.5380        0.0032       98.0496       98.0528      26.514826       0.54584
  39     1.339       71.5436        0.0079       98.0043       98.0122      26.468613       0.52027
  38     1.782       71.5488        0.0106       97.9793       97.9899      26.441064       0.52450
  37     2.292       71.5567        0.0138       97.9498       97.9635      26.406883       0.56611
  36     2.964       71.5697        0.0179       97.9088       97.9267      26.357039       0.62569
  35     3.853       71.5907        0.0234       97.8503       97.8737      26.282965       0.70298
  34     5.035       71.6225        0.0306       97.7680       97.7986      26.176093       0.76345
  33     6.613       71.6669        0.0403       97.6562       97.6965      26.029588       0.78321
  32     8.786       71.7247        0.0533       97.5107       97.5640      25.839343       0.73884
  31     11.80       71.7998        0.0720       97.3179       97.3898      25.590047       0.69795
  30     15.07       71.8717        0.0920       97.1283       97.2203      25.348627       0.62330
  29     18.79       71.9450        0.1145       96.9300       97.0446      25.099576       0.56468
  28     23.16       72.0215        0.1409       96.7166       96.8574      24.835932       0.50980
  27     28.12       72.0984        0.1710       96.4935       96.6644      24.566067       0.45875
  26     33.73       72.1692        0.2046       96.2731       96.4777      24.308518       0.38723
  25     40.54       72.2371        0.2453       96.0408       96.2861      24.048925       0.32205
  24     48.69       72.3019        0.2943       95.7946       96.0889      23.786955       0.27110
  23     57.69       72.3565        0.3482       95.5573       95.9055      23.548944       0.22310
  22     68.43       72.4035        0.4124       95.3106       95.7230      23.319446       0.18042
  21     81.20       72.4349        0.4889       95.0643       95.5533      23.118374       0.13287
  20     96.49       72.4494        0.5802       94.8153       95.3955      22.946069       0.09510
  19     114.6       72.4681        0.6898       94.5411       95.2308      22.762719       0.08561
  18     136.5       72.4798        0.8197       94.2320       95.0517      22.571890       0.07338
  17     162.9       72.4840        0.9742       93.8753       94.8496      22.365558       0.06595
  16     196.4       72.4690        1.1747       93.4347       94.6094      22.140357       0.05669
  15     218.7       72.4518        1.3063       93.1512       94.4576      22.005826       0.05108
  14     243.0       72.4298        1.4494       92.8439       94.2933      21.863448       0.04938
  13     269.0       72.4030        1.6044       92.5108       94.1152      21.712233       0.04905
  12     297.5       72.3717        1.7719       92.1489       93.9209      21.549180       0.04836
  11     328.5       72.3375        1.9529       91.7544       93.7073      21.369746       0.04879
  10     361.9       72.3012        2.1477       91.3246       93.4723      21.171051       0.05027
   9     398.1       72.2638        2.3572       90.8551       93.2123      20.948519       0.05184
   8     437.6       72.2275        2.5822       90.3380       92.9202      20.692670       0.05470
   7     480.5       72.1946        2.8231       89.7672       92.5903      20.395672       0.05833
   6     533.0       72.1661        3.1192       89.0335       92.1528      19.986689       0.06579
   5     589.8       72.1581        3.4374       88.1904       91.6278      19.469750       0.07673
   4     651.6       72.1968        3.7774       87.1783       90.9557      18.758885       0.09721
   3     718.7       72.2987        4.1373       85.9896       90.1269      17.828217       0.11696
   2     792.3       72.5195        4.5137       84.5598       89.0735      16.553950       0.14614
   1     891.5       73.0824        5.0030       82.3832       87.3862      14.303819       0.19148
   0    1013.0       74.2871        5.5645       79.5425       85.1071      10.819930       0.24190



 Wavenumbers: 16000. - 22650. cm-1, ATM      1
 LEVEL PRESSURE   UPWARD FLUX   DIFDOWN FLUX  DIRDOWN FLUX  DOWNWARD FLUX   NET FLUX    HEATING RATE
          mb          W/m2          W/m2          W/m2        W/m2          W/m2       degree/day
  51    .06700      140.1738        0.0000      156.3892      156.3892      16.215422       0.00000
  50    .07753      140.1738        0.0004      156.3887      156.3891      16.215275       0.11786
  49    .09103      140.1738        0.0009      156.3879      156.3888      16.215061       0.13368
  48    0.1069      140.1738        0.0015      156.3871      156.3885      16.214774       0.15244
  47    0.1255      140.1738        0.0021      156.3861      156.3882      16.214391       0.17376
  46    0.1487      140.1738        0.0029      156.3847      156.3877      16.213826       0.20591
  45    0.1794      140.1740        0.0041      156.3828      156.3869      16.212943       0.24244
  44    0.2165      140.1742        0.0054      156.3805      156.3859      16.211745       0.27247
  43    0.2613      140.1745        0.0070      156.3776      156.3846      16.210120       0.30633
  42    0.3336      140.1752        0.0096      156.3726      156.3823      16.207030       0.36024
  41    0.4307      140.1765        0.0131      156.3657      156.3788      16.202373       0.40494
  40    0.5894      140.1790        0.0188      156.3537      156.3725      16.193491       0.47235
  39     1.339      140.2013        0.0458      156.2834      156.3292      16.127868       0.73880
  38     1.782      140.2220        0.0616      156.2324      156.2939      16.071965       1.06430
  37     2.292      140.2529        0.0799      156.1641      156.2440      15.991045       1.34024
  36     2.964      140.3044        0.1039      156.0605      156.1644      15.859954       1.64558
  35     3.853      140.3877        0.1356      155.9041      156.0397      15.651946       1.97403
  34     5.035      140.5135        0.1777      155.6774      155.8551      15.341618       2.21686
  33     6.613      140.6891        0.2339      155.3656      155.5995      14.910356       2.30553
  32     8.786      140.9179        0.3095      154.9577      155.2671      14.349195       2.17934
  31     11.80      141.2157        0.4174      154.4153      154.8327      13.617041       2.04980
  30     15.07      141.5008        0.5332      153.8804      154.4136      12.912749       1.81835
  29     18.79      141.7919        0.6638      153.3191      153.9829      12.190932       1.63658
  28     23.16      142.0961        0.8161      152.7126      153.5286      11.432507       1.46655
  27     28.12      142.4021        0.9899      152.0755      153.0654      10.663357       1.30750
  26     33.73      142.6843        1.1843      151.4409      152.6253       9.940914       1.08621
  25     40.54      142.9558        1.4190      150.7637      152.1827       9.226899       0.88582
  24     48.69      143.2154        1.7016      150.0338      151.7354       8.520033       0.73150
  23     57.69      143.4352        2.0116      149.3151      151.3267       7.891575       0.58908
  22     68.43      143.6264        2.3805      148.5476      150.9281       7.301634       0.46377
  21     81.20      143.7577        2.8196      147.7517      150.5713       6.813629       0.32247
  20     96.49      143.8244        3.3424      146.9127      150.2550       6.430676       0.21136
  19     114.6      143.8576        3.9613      145.9763      149.9376       6.079955       0.16376
  18     136.5      143.8659        4.6920      144.9088      149.6008       5.734945       0.13266
  17     162.9      143.8474        5.5582      143.6785      149.2367       5.389352       0.11047
  16     196.4      143.7622        6.6757      142.1650      148.8408       5.078534       0.07824
  15     218.7      143.6839        7.4060      141.2033      148.6093       4.925412       0.05813
  14     243.0      143.5885        8.1964      140.1753      148.3717       4.783196       0.04933
  13     269.0      143.4744        9.0491      139.0796      148.1287       4.654296       0.04181
  12     297.5      143.3410        9.9661      137.9140      147.8801       4.539089       0.03417
  11     328.5      143.1922       10.9517      136.6674      147.6192       4.426974       0.03048
  10     361.9      143.0277       12.0069      135.3389      147.3458       4.318088       0.02755
   9     398.1      142.8471       13.1356      133.9231      147.0587       4.211540       0.02482
   8     437.6      142.6513       14.3399      132.4156      146.7555       4.104192       0.02295
   7     480.5      142.4399       15.6219      130.8138      146.4356       3.995749       0.02130
   6     533.0      142.1796       17.1876      128.8585      146.0461       3.866475       0.02080
   5     589.8      141.9030       18.8605      126.7658      145.6263       3.723327       0.02125
   4     651.6      141.6161       20.6422      124.5241      145.1663       3.550231       0.02367
   3     718.7      141.3250       22.5344      122.1234      144.6578       3.332763       0.02733
   2     792.3      141.0464       24.5349      119.5470      144.0820       3.035604       0.03408
   1     891.5      140.7503       27.1905      116.0432      143.2337       2.483428       0.04699
   0    1013.0      140.5259       30.3107      111.8190      142.1297       1.603773       0.06108



 Wavenumbers: 22650. - 29000. cm-1, ATM      1
 LEVEL PRESSURE   UPWARD FLUX   DIFDOWN FLUX  DIRDOWN FLUX  DOWNWARD FLUX   NET FLUX    HEATING RATE
          mb          W/m2          W/m2          W/m2        W/m2          W/m2       degree/day
  51    .06700       58.3821        0.0000       59.0156       59.0156       0.633480       0.00000
  50    .07753       58.3820        0.0005       59.0151       59.0155       0.633480      -0.00000
  49    .09103       58.3819        0.0010       59.0144       59.0154       0.633480       0.00000
  48    0.1069       58.3818        0.0017       59.0136       59.0153       0.633480      -0.00000
  47    0.1255       58.3816        0.0025       59.0127       59.0151       0.633480       0.00000
  46    0.1487       58.3815        0.0034       59.0115       59.0149       0.633480       0.00000
  45    0.1794       58.3812        0.0048       59.0099       59.0147       0.633480       0.00000
  44    0.2165       58.3809        0.0063       59.0080       59.0144       0.633480       0.00000
  43    0.2613       58.3805        0.0082       59.0058       59.0140       0.633480      -0.00000
  42    0.3336       58.3799        0.0113       59.0022       59.0134       0.633480       0.00000
  41    0.4307       58.3791        0.0153       58.9973       59.0126       0.633480      -0.00000
  40    0.5894       58.3778        0.0220       58.9894       59.0113       0.633480      -0.00000
  39     1.339       58.3717        0.0534       58.9518       59.0052       0.633480       0.00000
  38     1.782       58.3681        0.0719       58.9297       59.0016       0.633480      -0.00000
  37     2.292       58.3639        0.0933       58.9042       58.9974       0.633480      -0.00000
  36     2.964       58.3585        0.1213       58.8706       58.9920       0.633480       0.00000
  35     3.853       58.3513        0.1584       58.8264       58.9847       0.633480       0.00000
  34     5.035       58.3417        0.2076       58.7676       58.9751       0.633480       0.00000
  33     6.613       58.3289        0.2732       58.6891       58.9623       0.633480       0.00000
  32     8.786       58.3116        0.3617       58.5834       58.9451       0.633480       0.00000
  31     11.80       58.2870        0.4880       58.4324       58.9204       0.633480      -0.00000
  30     15.07       58.2606        0.6234       58.2706       58.8940       0.633480       0.00000
  29     18.79       58.2308        0.7760       58.0882       58.8643       0.633480       0.00000
  28     23.16       58.1961        0.9539       57.8757       58.8296       0.633480       0.00000
  27     28.12       58.1565        1.1567       57.6333       58.7900       0.633480      -0.00000
  26     33.73       58.1124        1.3828       57.3631       58.7459       0.633480      -0.00000
  25     40.54       58.0593        1.6549       57.0379       58.6928       0.633480       0.00000
  24     48.69       57.9956        1.9812       56.6479       58.6291       0.633480       0.00000
  23     57.69       57.9261        2.3375       56.2221       58.5595       0.633480      -0.00000
  22     68.43       57.8438        2.7587       55.7186       58.4773       0.633480       0.00000
  21     81.20       57.7466        3.2562       55.1239       58.3801       0.633480      -0.00000
  20     96.49       57.6320        3.8427       54.4228       58.2655       0.633480       0.00000
  19     114.6       57.4976        4.5301       53.6010       58.1311       0.633480       0.00000
  18     136.5       57.3407        5.3324       52.6418       57.9742       0.633480      -0.00000
  17     162.9       57.1571        6.2703       51.5203       57.7906       0.633480       0.00000
  16     196.4       56.9244        7.4584       50.0994       57.5579       0.633480       0.00000
  15     218.7       56.7747        8.2219       49.1863       57.4082       0.633480       0.00000
  14     243.0       56.6148        9.0370       48.2113       57.2483       0.633480      -0.00000
  13     269.0       56.4447        9.9033       47.1749       57.0782       0.633480       0.00000
  12     297.5       56.2646       10.8199       46.0782       56.8981       0.633480      -0.00000
  11     328.5       56.0742       11.7881       44.9195       56.7077       0.633480       0.00000
  10     361.9       55.8739       12.8055       43.7018       56.5074       0.633480       0.00000
   9     398.1       55.6636       13.8721       42.4250       56.2971       0.633480      -0.00000
   8     437.6       55.4439       14.9858       41.0916       56.0773       0.633480       0.00000
   7     480.5       55.2149       16.1441       39.7044       55.8484       0.633480       0.00000
   6     533.0       54.9422       17.5216       38.0541       55.5757       0.633480       0.00000
   5     589.8       54.6590       18.9496       36.3429       55.2924       0.633480      -0.00000
   4     651.6       54.3664       20.4207       34.5792       54.9999       0.633480      -0.00000
   3     718.7       54.0657       21.9293       32.7698       54.6991       0.633480       0.00000
   2     792.3       53.7582       23.4667       30.9250       54.3917       0.633480       0.00000
   1     891.5       53.3657       25.4220       28.5772       53.9992       0.633480      -0.00000
   0    1013.0       52.9270       27.5953       25.9652       53.5605       0.633480       0.00000



 Wavenumbers: 29000. - 38000. cm-1, ATM      1
 LEVEL PRESSURE   UPWARD FLUX   DIFDOWN FLUX  DIRDOWN FLUX  DOWNWARD FLUX   NET FLUX    HEATING RATE
          mb          W/m2          W/m2          W/m2        W/m2          W/m2       degree/day
  51    .06700        8.7365        0.0000       20.8114       20.8114      12.074838       0.00000
  50    .07753        8.7363        0.0003       20.8070       20.8074      12.071031       3.05152
  49    .09103        8.7361        0.0007       20.8009       20.8016      12.065494       3.46081
  48    0.1069        8.7359        0.0012       20.7928       20.7939      12.058084       3.94425
  47    0.1255        8.7356        0.0017       20.7820       20.7837      12.048179       4.49029
  46    0.1487        8.7352        0.0024       20.7665       20.7688      12.033616       5.30838
  45    0.1794        8.7348        0.0033       20.7424       20.7457      12.010952       6.22197
  44    0.2165        8.7342        0.0044       20.7103       20.7147      11.980429       6.94332
  43    0.2613        8.7337        0.0056       20.6675       20.6731      11.939435       7.72723
  42    0.3336        8.7328        0.0077       20.5880       20.5956      11.862875       8.92614
  41    0.4307        8.7317        0.0104       20.4722       20.4826      11.750924       9.73389
  40    0.5894        8.7301        0.0147       20.2637       20.2784      11.548244      10.77831
  39     1.339        8.7267        0.0331       19.0984       19.1315      10.404789      12.87322
  38     1.782        8.7272        0.0427       18.4394       18.4820       9.754883      12.37315
  37     2.292        8.7298        0.0530       17.7714       17.8244       9.094565      10.93659
  36     2.964        8.7363        0.0656       17.0421       17.1078       8.371484       9.07686
  35     3.853        8.7490        0.0816       16.2678       16.3494       7.600372       7.31800
  34     5.035        8.7700        0.1017       15.4803       15.5820       6.811976       5.63197
  33     6.613        8.8006        0.1275       14.7157       14.8432       6.042531       4.11346
  32     8.786        8.8410        0.1612       13.9936       14.1548       5.313762       2.83028
  31     11.80        8.8937        0.2082       13.2835       13.4918       4.598036       2.00381
  30     15.07        8.9445        0.2570       12.7394       12.9963       4.051794       1.41029
  29     18.79        8.9970        0.3110       12.2666       12.5776       3.580589       1.06837
  28     23.16        9.0528        0.3725       11.8300       12.2025       3.149709       0.83318
  27     28.12        9.1099        0.4413       11.4279       11.8692       2.759286       0.66369
  26     33.73        9.1626        0.5172       11.0695       11.5866       2.424041       0.50405
  25     40.54        9.2125        0.6078       10.7209       11.3287       2.116139       0.38199
  24     48.69        9.2596        0.7153       10.3742       11.0895       1.829853       0.29626
  23     57.69        9.2982        0.8317       10.0549       10.8866       1.588341       0.22638
  22     68.43        9.3294        0.9682        9.7327       10.7009       1.371544       0.17043
  21     81.20        9.3441        1.1294        9.4134       10.5428       1.198684       0.11422
  20     96.49        9.3405        1.3189        9.0887       10.4076       1.067106       0.07262
  19     114.6        9.3266        1.5378        8.7388       10.2766       0.949994       0.05468
  18     136.5        9.3053        1.7881        8.3549       10.1430       0.837631       0.04321
  17     162.9        9.2769        2.0734        7.9311       10.0045       0.727625       0.03516
  16     196.4        9.2292        2.4267        7.4333        9.8600       0.630808       0.02437
  15     218.7        9.1949        2.6489        7.1295        9.7785       0.583593       0.01793
  14     243.0        9.1573        2.8812        6.8161        9.6973       0.539998       0.01512
  13     269.0        9.1162        3.1227        6.4943        9.6171       0.500856       0.01270
  12     297.5        9.0718        3.3724        6.1657        9.5381       0.466354       0.01023
  11     328.5        9.0253        3.6292        5.8294        9.4586       0.433324       0.00898
  10     361.9        8.9774        3.8907        5.4886        9.3793       0.401915       0.00795
   9     398.1        8.9280        4.1562        5.1440        9.3002       0.372151       0.00693
   8     437.6        8.8778        4.4243        4.7969        9.2213       0.343463       0.00613
   7     480.5        8.8271        4.6929        4.4504        9.1433       0.316234       0.00535
   6     533.0        8.7688        4.9991        4.0563        9.0554       0.286556       0.00477
   5     589.8        8.7113        5.3009        3.6682        8.9691       0.257825       0.00426
   4     651.6        8.6555        5.5947        3.2905        8.8852       0.229721       0.00384
   3     718.7        8.6018        5.8788        2.9252        8.8040       0.202200       0.00346
   2     792.3        8.5509        6.1505        2.5757        8.7262       0.175266       0.00309
   1     891.5        8.4924        6.4693        2.1651        8.6344       0.142019       0.00283
   0    1013.0        8.4359        6.7893        1.7519        8.5412       0.105320       0.00255



 Wavenumbers: 38000. - 50000. cm-1, ATM      1
 LEVEL PRESSURE   UPWARD FLUX   DIFDOWN FLUX  DIRDOWN FLUX  DOWNWARD FLUX   NET FLUX    HEATING RATE
          mb          W/m2          W/m2          W/m2        W/m2          W/m2       degree/day
  51    .06700        0.0061        0.0000        1.2836        1.2836       1.277518       0.00000
  50    .07753        0.0061        0.0001        1.2812        1.2812       1.275183       1.87150
  49    .09103        0.0060        0.0002        1.2777        1.2778       1.271851       2.08247
  48    0.1069        0.0059        0.0002        1.2731        1.2734       1.267473       2.33059
  47    0.1255        0.0058        0.0004        1.2672        1.2675       1.261717       2.60908
  46    0.1487        0.0057        0.0005        1.2586        1.2591       1.253391       3.03499
  45    0.1794        0.0055        0.0007        1.2455        1.2462       1.240623       3.50520
  44    0.2165        0.0054        0.0009        1.2282        1.2291       1.223697       3.85037
  43    0.2613        0.0052        0.0011        1.2054        1.2065       1.201348       4.21261
  42    0.3336        0.0049        0.0015        1.1639        1.1654       1.160524       4.75970
  41    0.4307        0.0045        0.0020        1.1051        1.1070       1.102565       5.03943
  40    0.5894        0.0039        0.0026        1.0039        1.0064       1.002524       5.32007
  39     1.339        0.0022        0.0035        0.5438        0.5473       0.545104       5.14971
  38     1.782        0.0016        0.0032        0.3635        0.3666       0.365006       3.42879
  37     2.292        0.0012        0.0027        0.2356        0.2383       0.237058       2.11916
  36     2.964        0.0009        0.0022        0.1455        0.1477       0.146786       1.13318
  35     3.853        0.0006        0.0017        0.0858        0.0875       0.086906       0.56828
  34     5.035        0.0004        0.0013        0.0488        0.0501       0.049701       0.26578
  33     6.613        0.0003        0.0010        0.0273        0.0282       0.027974       0.11615
  32     8.786        0.0002        0.0007        0.0144        0.0151       0.014928       0.05067
  31     11.80        0.0001        0.0004        0.0065        0.0070       0.006903       0.02247
  30     15.07        0.0000        0.0003        0.0031        0.0034       0.003329       0.00923
  29     18.79        0.0000        0.0002        0.0014        0.0016       0.001583       0.00396
  28     23.16        0.0000        0.0001        0.0006        0.0007       0.000720       0.00167
  27     28.12        0.0000        0.0001        0.0003        0.0003       0.000317       0.00069
  26     33.73        0.0000        0.0000        0.0001        0.0001       0.000140       0.00027
  25     40.54        0.0000        0.0000        0.0000        0.0001       0.000057       0.00010
  24     48.69        0.0000        0.0000        0.0000        0.0000       0.000021       0.00004
  23     57.69        0.0000        0.0000        0.0000        0.0000       0.000008       0.00001
  22     68.43        0.0000        0.0000        0.0000        0.0000       0.000003       0.00000
  21     81.20        0.0000        0.0000        0.0000        0.0000       0.000001       0.00000
  20     96.49        0.0000        0.0000        0.0000        0.0000       0.000000       0.00000
  19     114.6        0.0000        0.0000        0.0000        0.0000       0.000000       0.00000
  18     136.5        0.0000        0.0000        0.0000        0.0000       0.000000       0.00000
  17     162.9        0.0000        0.0000        0.0000        0.0000       0.000000       0.00000
  16     196.4        0.0000        0.0000        0.0000        0.0000       0.000000       0.00000
  15     218.7        0.0000        0.0000        0.0000        0.0000       0.000000       0.00000
  14     243.0        0.0000        0.0000        0.0000        0.0000       0.000000       0.00000
  13     269.0        0.0000        0.0000        0.0000        0.0000       0.000000       0.00000
  12     297.5        0.0000        0.0000        0.0000        0.0000       0.000000       0.00000
  11     328.5        0.0000        0.0000        0.0000        0.0000       0.000000       0.00000
  10     361.9        0.0000        0.0000        0.0000        0.0000       0.000000       0.00000
   9     398.1        0.0000        0.0000        0.0000        0.0000       0.000000       0.00000
   8     437.6        0.0000        0.0000        0.0000        0.0000       0.000000       0.00000
   7     480.5        0.0000        0.0000        0.0000        0.0000       0.000000       0.00000
   6     533.0        0.0000        0.0000        0.0000        0.0000       0.000000       0.00000
   5     589.8        0.0000        0.0000        0.0000        0.0000       0.000000       0.00000
   4     651.6        0.0000        0.0000        0.0000        0.0000       0.000000       0.00000
   3     718.7        0.0000        0.0000        0.0000        0.0000       0.000000       0.00000
   2     792.3        0.0000        0.0000        0.0000        0.0000       0.000000       0.00000
   1     891.5        0.0000        0.0000        0.0000        0.0000       0.000000       0.00000
   0    1013.0        0.0000        0.0000        0.0000        0.0000       0.000000       0.00000



 Wavenumbers:   820. -  2600. cm-1, ATM      1
 LEVEL PRESSURE   UPWARD FLUX   DIFDOWN FLUX  DIRDOWN FLUX  DOWNWARD FLUX   NET FLUX    HEATING RATE
          mb          W/m2          W/m2          W/m2        W/m2          W/m2       degree/day
  51    .06700        0.7499        0.0000        6.0047        6.0047       5.254731       0.00000
  50    .07753        0.7499        0.0000        6.0008        6.0008       5.250876       3.08954
  49    .09103        0.7499        0.0000        5.9999        5.9999       5.249988       0.55493
  48    0.1069        0.7499        0.0000        5.9989        5.9989       5.248997       0.52790
  47    0.1255        0.7499        0.0000        5.9978        5.9978       5.247876       0.50790
  46    0.1487        0.7499        0.0000        5.9964        5.9964       5.246516       0.49604
  45    0.1794        0.7499        0.0000        5.9947        5.9947       5.244791       0.47357
  44    0.2165        0.7499        0.0000        5.9929        5.9929       5.242941       0.42070
  43    0.2613        0.7499        0.0000        5.9909        5.9909       5.240973       0.37095
  42    0.3336        0.7499        0.0000        5.9880        5.9880       5.238080       0.33727
  41    0.4307        0.7499        0.0000        5.9845        5.9845       5.234591       0.30338
  40    0.5894        0.7499        0.0000        5.9790        5.9790       5.229053       0.29452
  39     1.339        0.7499        0.0000        5.9533        5.9533       5.203410       0.28869
  38     1.782        0.7499        0.0000        5.9391        5.9391       5.189185       0.27082
  37     2.292        0.7499        0.0000        5.9233        5.9233       5.173340       0.26243
  36     2.964        0.7499        0.0000        5.9034        5.9034       5.153454       0.24963
  35     3.853        0.7499        0.0000        5.8786        5.8786       5.128688       0.23504
  34     5.035        0.7499        0.0000        5.8480        5.8480       5.098025       0.21905
  33     6.613        0.7499        0.0000        5.8098        5.8098       5.059908       0.20378
  32     8.786        0.7499        0.0000        5.7621        5.7621       5.012180       0.18536
  31     11.80        0.7499        0.0000        5.7028        5.7028       4.952833       0.16615
  30     15.07        0.7500        0.0000        5.6527        5.6527       4.902756       0.12929
  29     18.79        0.7500        0.0000        5.6115        5.6115       4.861572       0.09338
  28     23.16        0.7500        0.0000        5.5781        5.5781       4.828122       0.06468
  27     28.12        0.7500        0.0000        5.5504        5.5504       4.800427       0.04708
  26     33.73        0.7500        0.0000        5.5252        5.5252       4.775199       0.03793
  25     40.54        0.7500        0.0000        5.4975        5.4976       4.747541       0.03431
  24     48.69        0.7500        0.0000        5.4658        5.4658       4.715767       0.03288
  23     57.69        0.7500        0.0000        5.4318        5.4318       4.681755       0.03188
  22     68.43        0.7501        0.0000        5.3923        5.3923       4.642249       0.03106
  21     81.20        0.7501        0.0000        5.3471        5.3471       4.597017       0.02989
  20     96.49        0.7501        0.0000        5.2952        5.2953       4.545119       0.02864
  19     114.6        0.7502        0.0000        5.2356        5.2357       4.485477       0.02785
  18     136.5        0.7502        0.0000        5.1680        5.1680       4.417787       0.02603
  17     162.9        0.7503        0.0000        5.0851        5.0851       4.334824       0.02652
  16     196.4        0.7504        0.0000        4.9620        4.9620       4.211599       0.03102
  15     218.7        0.7506        0.0000        4.8529        4.8529       4.102332       0.04148
  14     243.0        0.7508        0.0000        4.7014        4.7014       3.950629       0.05262
  13     269.0        0.7511        0.0000        4.5274        4.5274       3.776328       0.05654
  12     297.5        0.7517        0.0000        4.3337        4.3338       3.582112       0.05760
  11     328.5        0.7524        0.0000        4.1173        4.1173       3.364938       0.05905
  10     361.9        0.7534        0.0000        3.8654        3.8654       3.112000       0.06400
   9     398.1        0.7547        0.0000        3.6022        3.6022       2.847459       0.06163
   8     437.6        0.7565        0.0000        3.3637        3.3638       2.607265       0.05136
   7     480.5        0.7587        0.0000        3.1861        3.1862       2.427474       0.03531
   6     533.0        0.7621        0.0000        3.0380        3.0380       2.275933       0.02438
   5     589.8        0.7673        0.0000        2.8924        2.8924       2.125176       0.02238
   4     651.6        0.7767        0.0000        2.7069        2.7069       1.930286       0.02665
   3     718.7        0.7930        0.0000        2.4932        2.4932       1.700249       0.02891
   2     792.3        0.8231        0.0000        2.2621        2.2621       1.438982       0.02996
   1     891.5        0.9002        0.0000        1.9458        1.9459       1.045701       0.03347
   0    1013.0        1.0950        0.0000        1.5247        1.5248       0.429833       0.04276

  Modules and versions used in this calculation:

       rrtmg_sw.1col.f90:  $Revision$                    rrtmg_sw_init.f90:  $Revision$        
     rrtmgsw_cldprop.f90:  $Revision$                  rrtmgsw_cldprmc.f90:  NOT USED          
     rrtmg_sw_reftra.f90:  $Revision$                  rrtmg_sw_spcvrt.f90:  NOT USED          
     rrtmg_sw_spcvmc.f90:  NOT USED                    rrtmgsw_setcoef.f90:  NOT USED          
     rrtmg_sw_taumol.f90:  $Revision$                  rrtmg_sw_vrtqdr.f90:  NOT USED          
                rrtatm.f:  NOT USED                             util_xxx.f:  NOT USED          
                 extra.f:  NOT USED                       rrtmg_sw_k_g.f90:  $Revision$        

