

 Wavenumbers:   820. - 50000. cm-1, ATM      1
 LEVEL PRESSURE   UPWARD FLUX   DIFDOWN FLUX  DIRDOWN FLUX  DOWNWARD FLUX   NET FLUX    HEATING RATE
          mb          W/m2          W/m2          W/m2        W/m2          W/m2       degree/day
  51    .06700      431.9321        0.0000      617.8126      617.8126     185.880503       0.00000
  50    .07753      431.9317        0.0014      617.7950      617.7964     185.864669      12.69095
  49    .09103      431.9313        0.0031      617.7784      617.7815     185.850230       9.02476
  48    0.1069      431.9308        0.0050      617.7592      617.7642     185.833382       8.96817
  47    0.1255      431.9303        0.0073      617.7355      617.7428     185.812499       9.46743
  46    0.1487      431.9297        0.0101      617.7030      617.7131     185.783384      10.61277
  45    0.1794      431.9291        0.0140      617.6550      617.6690     185.739906      11.93562
  44    0.2165      431.9284        0.0185      617.5933      617.6119     185.683463      12.83992
  43    0.2613      431.9277        0.0239      617.5138      617.5377     185.609990      13.84922
  42    0.3336      431.9270        0.0328      617.3709      617.4036     185.476647      15.54653
  41    0.4307      431.9265        0.0445      617.1684      617.2128     185.286355      16.54545
  40    0.5894      431.9266        0.0633      616.8138      616.8771     184.950467      17.86210
  39     1.339      431.9462        0.1486      614.9750      615.1236     183.177457      19.96087
  38     1.782      431.9708        0.1966      614.0068      614.2034     182.232595      17.98865
  37     2.292      432.0112        0.2512      613.0553      613.3065     181.295320      15.52371
  36     2.964      432.0823        0.3222      612.0189      612.3411     180.258852      13.01081
  35     3.853      432.2011        0.4153      610.8781      611.2934     179.092273      11.07104
  34     5.035      432.3837        0.5382      609.6263      610.1645     177.780815       9.36851
  33     6.613      432.6406        0.7013      608.2617      608.9630     176.322398       7.79670
  32     8.786      432.9754        0.9201      606.7659      607.6861     174.710661       6.25940
  31     11.80      433.4093        1.2317      605.0201      606.2518     172.842524       5.23020
  30     15.07      433.8226        1.5642      603.4428      605.0070     171.184442       4.28084
  29     18.79      434.2425        1.9383      601.8776      603.8159     169.573348       3.65285
  28     23.16      434.6790        2.3730      600.2494      602.6224     167.943451       3.15169
  27     28.12      435.1148        2.8678      598.5779      601.4458     166.330980       2.74109
  26     33.73      435.5100        3.4195      596.9190      600.3385     164.828561       2.25893
  25     40.54      435.8796        4.0837      595.1336      599.2174     163.337724       1.84955
  24     48.69      436.2209        4.8808      593.1871      598.0679     161.846985       1.54268
  23     57.69      436.4945        5.7521      591.2366      596.9887     160.494176       1.26805
  22     68.43      436.7106        6.7845      589.1044      595.8889     159.178302       1.03445
  21     81.20      436.8155        8.0085      586.8037      594.8122     157.996695       0.78079
  20     96.49      436.7991        9.4578      584.2854      593.7432     156.944134       0.58094
  19     114.6      436.7182       11.1629      581.4363      592.5992     155.880990       0.49641
  18     136.5      436.5766       13.1596      578.1898      591.3494     154.772743       0.42615
  17     162.9      436.3688       15.5032      574.4618      589.9650     153.596145       0.37609
  16     196.4      436.0091       18.4923      569.8386      588.3309     152.321886       0.32075
  15     218.7      435.7424       20.4253      566.8350      587.2603     151.517827       0.30527
  14     243.0      435.4419       22.4991      563.5074      586.0065     150.564565       0.33062
  13     269.0      435.1059       24.7153      559.7800      584.4952     149.389316       0.38125
  12     297.5      434.7350       27.0747      555.6295      582.7042     147.969227       0.42118
  11     328.5      434.3368       29.5840      551.1228      580.7068     146.370001       0.43483
  10     361.9      433.9135       32.2394      546.2018      578.4412     144.527624       0.46614
   9     398.1      433.4671       35.0459      540.7923      575.8383     142.371154       0.50241
   8     437.6      433.0036       38.0030      534.8349      572.8379     139.834328       0.54239
   7     480.5      432.5278       41.1092      528.3674      569.4766     136.948871       0.56669
   6     533.0      431.9797       44.8462      520.3212      565.1674     133.187717       0.60505
   5     589.8      431.4521       48.7718      511.4270      560.1988     128.746767       0.65918
   4     651.6      430.9982       52.8792      501.2746      554.1538     123.155626       0.76460
   3     718.7      430.6825       57.1601      490.0230      547.1831     116.500567       0.83636
   2     792.3      430.6367       61.6016      477.6982      539.2999     108.663184       0.89886
   1     891.5      431.2773       67.3686      461.1574      528.5261      97.248713       0.97132
   0    1013.0      433.6540       73.9758      442.1762      516.1520      82.498008       1.02422



 Wavenumbers:  2600. -  3250. cm-1, ATM      1
 LEVEL PRESSURE   UPWARD FLUX   DIFDOWN FLUX  DIRDOWN FLUX  DOWNWARD FLUX   NET FLUX    HEATING RATE
          mb          W/m2          W/m2          W/m2        W/m2          W/m2       degree/day
  51    .06700        0.0488        0.0000        5.4450        5.4450       5.396198       0.00000
  50    .07753        0.0488        0.0000        5.4450        5.4450       5.396190       0.00640
  49    .09103        0.0488        0.0000        5.4450        5.4450       5.396180       0.00627
  48    0.1069        0.0488        0.0000        5.4450        5.4450       5.396168       0.00613
  47    0.1255        0.0488        0.0000        5.4450        5.4450       5.396155       0.00599
  46    0.1487        0.0488        0.0000        5.4450        5.4450       5.396138       0.00608
  45    0.1794        0.0488        0.0000        5.4450        5.4450       5.396115       0.00625
  44    0.2165        0.0488        0.0000        5.4449        5.4449       5.396089       0.00612
  43    0.2613        0.0488        0.0000        5.4449        5.4449       5.396057       0.00600
  42    0.3336        0.0488        0.0000        5.4448        5.4448       5.396004       0.00617
  41    0.4307        0.0488        0.0000        5.4448        5.4448       5.395933       0.00620
  40    0.5894        0.0488        0.0000        5.4446        5.4446       5.395813       0.00637
  39     1.339        0.0488        0.0000        5.4439        5.4439       5.395105       0.00797
  38     1.782        0.0488        0.0000        5.4434        5.4434       5.394562       0.01034
  37     2.292        0.0488        0.0000        5.4427        5.4427       5.393846       0.01186
  36     2.964        0.0488        0.0000        5.4416        5.4416       5.392808       0.01304
  35     3.853        0.0488        0.0000        5.4402        5.4402       5.391330       0.01402
  34     5.035        0.0488        0.0000        5.4381        5.4381       5.389275       0.01468
  33     6.613        0.0488        0.0000        5.4353        5.4353       5.386494       0.01487
  32     8.786        0.0488        0.0000        5.4317        5.4317       5.382862       0.01411
  31     11.80        0.0488        0.0000        5.4269        5.4269       5.378082       0.01338
  30     15.07        0.0488        0.0000        5.4224        5.4224       5.373556       0.01169
  29     18.79        0.0488        0.0000        5.4180        5.4180       5.369144       0.01000
  28     23.16        0.0488        0.0000        5.4135        5.4135       5.364659       0.00867
  27     28.12        0.0488        0.0000        5.4088        5.4088       5.360012       0.00790
  26     33.73        0.0488        0.0000        5.4036        5.4036       5.354772       0.00788
  25     40.54        0.0488        0.0000        5.3966        5.3967       5.347832       0.00861
  24     48.69        0.0488        0.0000        5.3872        5.3872       5.338358       0.00980
  23     57.69        0.0488        0.0000        5.3754        5.3754       5.326577       0.01104
  22     68.43        0.0488        0.0000        5.3599        5.3599       5.311094       0.01217
  21     81.20        0.0488        0.0000        5.3401        5.3401       5.291267       0.01310
  20     96.49        0.0488        0.0000        5.3155        5.3155       5.266709       0.01355
  19     114.6        0.0488        0.0000        5.2860        5.2861       5.237230       0.01376
  18     136.5        0.0488        0.0000        5.2518        5.2519       5.203038       0.01315
  17     162.9        0.0488        0.0001        5.2135        5.2136       5.164721       0.01225
  16     196.4        0.0488        0.0001        5.1688        5.1689       5.120043       0.01125
  15     218.7        0.0488        0.0001        5.1424        5.1425       5.093628       0.01003
  14     243.0        0.0489        0.0001        5.1157        5.1158       5.066962       0.00925
  13     269.0        0.0489        0.0001        5.0885        5.0886       5.039701       0.00884
  12     297.5        0.0489        0.0001        5.0598        5.0599       5.010991       0.00852
  11     328.5        0.0489        0.0001        5.0292        5.0293       4.980378       0.00832
  10     361.9        0.0490        0.0001        4.9955        4.9957       4.946672       0.00853
   9     398.1        0.0491        0.0001        4.9568        4.9570       4.907916       0.00903
   8     437.6        0.0492        0.0001        4.9120        4.9122       4.863027       0.00960
   7     480.5        0.0493        0.0002        4.8588        4.8590       4.809686       0.01048
   6     533.0        0.0495        0.0002        4.7839        4.7841       4.734640       0.01207
   5     589.8        0.0497        0.0002        4.6894        4.6896       4.639856       0.01407
   4     651.6        0.0501        0.0002        4.5645        4.5648       4.514640       0.01712
   3     718.7        0.0507        0.0002        4.4061        4.4064       4.355698       0.01997
   2     792.3        0.0515        0.0002        4.2118        4.2120       4.160481       0.02239
   1     891.5        0.0532        0.0002        3.9310        3.9312       3.878018       0.02404
   0    1013.0        0.0566        0.0003        3.6030        3.6033       3.546694       0.02301



 Wavenumbers:  3250. -  4000. cm-1, ATM      1
 LEVEL PRESSURE   UPWARD FLUX   DIFDOWN FLUX  DIRDOWN FLUX  DOWNWARD FLUX   NET FLUX    HEATING RATE
          mb          W/m2          W/m2          W/m2        W/m2          W/m2       degree/day
  51    .06700        0.0175        0.0000        9.1795        9.1795       9.162032       0.00000
  50    .07753        0.0175        0.0000        9.1749        9.1749       9.157354       3.74987
  49    .09103        0.0175        0.0000        9.1716        9.1716       9.154153       2.00092
  48    0.1069        0.0175        0.0000        9.1693        9.1693       9.151823       1.24022
  47    0.1255        0.0175        0.0000        9.1673        9.1673       9.149766       0.93249
  46    0.1487        0.0175        0.0000        9.1651        9.1651       9.147557       0.80494
  45    0.1794        0.0175        0.0000        9.1625        9.1625       9.144959       0.71336
  44    0.2165        0.0175        0.0000        9.1598        9.1598       9.142340       0.59579
  43    0.2613        0.0175        0.0000        9.1572        9.1572       9.139706       0.49643
  42    0.3336        0.0175        0.0000        9.1536        9.1536       9.136083       0.42247
  41    0.4307        0.0175        0.0000        9.1495        9.1495       9.132050       0.35059
  40    0.5894        0.0175        0.0000        9.1437        9.1437       9.126215       0.31034
  39     1.339        0.0175        0.0000        9.1209        9.1209       9.103358       0.25733
  38     1.782        0.0175        0.0000        9.1104        9.1105       9.092957       0.19801
  37     2.292        0.0175        0.0000        9.1004        9.1004       9.082872       0.16703
  36     2.964        0.0175        0.0000        9.0890        9.0890       9.071501       0.14274
  35     3.853        0.0175        0.0000        9.0755        9.0756       9.058059       0.12757
  34     5.035        0.0175        0.0000        9.0588        9.0588       9.041272       0.11992
  33     6.613        0.0175        0.0000        9.0365        9.0366       9.019068       0.11870
  32     8.786        0.0175        0.0000        9.0055        9.0056       8.988068       0.12039
  31     11.80        0.0175        0.0000        8.9590        8.9590       8.941552       0.13023
  30     15.07        0.0175        0.0000        8.9070        8.9070       8.889511       0.13436
  29     18.79        0.0175        0.0000        8.8467        8.8467       8.829276       0.13657
  28     23.16        0.0175        0.0000        8.7763        8.7763       8.758838       0.13620
  27     28.12        0.0175        0.0000        8.6981        8.6981       8.680646       0.13292
  26     33.73        0.0175        0.0000        8.6161        8.6161       8.598668       0.12326
  25     40.54        0.0174        0.0001        8.5261        8.5261       8.508707       0.11161
  24     48.69        0.0174        0.0001        8.4301        8.4301       8.412685       0.09937
  23     57.69        0.0174        0.0001        8.3353        8.3353       8.317917       0.08883
  22     68.43        0.0174        0.0001        8.2298        8.2299       8.212524       0.08285
  21     81.20        0.0174        0.0001        8.1082        8.1083       8.090885       0.08038
  20     96.49        0.0174        0.0001        7.9668        7.9669       7.949507       0.07803
  19     114.6        0.0174        0.0001        7.8057        7.8058       7.788446       0.07520
  18     136.5        0.0173        0.0002        7.6284        7.6285       7.611208       0.06815
  17     162.9        0.0173        0.0002        7.4365        7.4367       7.419355       0.06132
  16     196.4        0.0173        0.0002        7.2093        7.2096       7.192301       0.05715
  15     218.7        0.0172        0.0003        7.0569        7.0571       7.039913       0.05786
  14     243.0        0.0172        0.0003        6.8716        6.8719       6.854694       0.06424
  13     269.0        0.0172        0.0003        6.6348        6.6350       6.617859       0.07683
  12     297.5        0.0172        0.0003        6.3485        6.3488       6.331683       0.08488
  11     328.5        0.0171        0.0003        6.0601        6.0604       6.043297       0.07841
  10     361.9        0.0171        0.0003        5.7617        5.7621       5.744955       0.07548
   9     398.1        0.0171        0.0004        5.4390        5.4394       5.422246       0.07518
   8     437.6        0.0171        0.0004        5.0716        5.0720       5.054841       0.07855
   7     480.5        0.0172        0.0004        4.6695        4.6699       4.652747       0.07897
   6     533.0        0.0172        0.0004        4.1881        4.1885       4.171237       0.07746
   5     589.8        0.0174        0.0004        3.6991        3.6995       3.682118       0.07260
   4     651.6        0.0176        0.0003        3.1889        3.1892       3.171616       0.06981
   3     718.7        0.0181        0.0003        2.6908        2.6911       2.672971       0.06267
   2     792.3        0.0191        0.0003        2.2055        2.2058       2.186715       0.05577
   1     891.5        0.0216        0.0002        1.6443        1.6446       1.622935       0.04797
   0    1013.0        0.0287        0.0002        1.1059        1.1061       1.077420       0.03788



 Wavenumbers:  4000. -  4650. cm-1, ATM      1
 LEVEL PRESSURE   UPWARD FLUX   DIFDOWN FLUX  DIRDOWN FLUX  DOWNWARD FLUX   NET FLUX    HEATING RATE
          mb          W/m2          W/m2          W/m2        W/m2          W/m2       degree/day
  51    .06700        1.5636        0.0000       10.7795       10.7795       9.215926       0.00000
  50    .07753        1.5636        0.0000       10.7795       10.7795       9.215925       0.00083
  49    .09103        1.5636        0.0000       10.7795       10.7795       9.215924       0.00081
  48    0.1069        1.5636        0.0000       10.7795       10.7795       9.215923       0.00080
  47    0.1255        1.5636        0.0000       10.7795       10.7795       9.215921       0.00078
  46    0.1487        1.5636        0.0000       10.7795       10.7795       9.215919       0.00079
  45    0.1794        1.5636        0.0000       10.7795       10.7795       9.215916       0.00081
  44    0.2165        1.5636        0.0000       10.7795       10.7795       9.215912       0.00079
  43    0.2613        1.5636        0.0000       10.7795       10.7795       9.215908       0.00078
  42    0.3336        1.5636        0.0000       10.7795       10.7795       9.215901       0.00080
  41    0.4307        1.5636        0.0000       10.7795       10.7795       9.215892       0.00081
  40    0.5894        1.5636        0.0000       10.7795       10.7795       9.215876       0.00083
  39     1.339        1.5636        0.0000       10.7794       10.7794       9.215783       0.00105
  38     1.782        1.5636        0.0000       10.7793       10.7793       9.215710       0.00139
  37     2.292        1.5636        0.0000       10.7792       10.7792       9.215612       0.00162
  36     2.964        1.5636        0.0000       10.7791       10.7791       9.215466       0.00184
  35     3.853        1.5636        0.0000       10.7788       10.7789       9.215249       0.00206
  34     5.035        1.5636        0.0000       10.7785       10.7785       9.214930       0.00228
  33     6.613        1.5636        0.0000       10.7780       10.7781       9.214459       0.00251
  32     8.786        1.5636        0.0000       10.7773       10.7774       9.213765       0.00270
  31     11.80        1.5636        0.0000       10.7762       10.7763       9.212674       0.00305
  30     15.07        1.5636        0.0001       10.7749       10.7750       9.211394       0.00330
  29     18.79        1.5636        0.0001       10.7734       10.7734       9.209846       0.00351
  28     23.16        1.5636        0.0001       10.7714       10.7715       9.207923       0.00372
  27     28.12        1.5636        0.0001       10.7691       10.7692       9.205595       0.00396
  26     33.73        1.5636        0.0001       10.7662       10.7663       9.202723       0.00432
  25     40.54        1.5636        0.0002       10.7623       10.7624       9.198826       0.00483
  24     48.69        1.5636        0.0002       10.7571       10.7573       9.193632       0.00538
  23     57.69        1.5637        0.0002       10.7509       10.7512       9.187472       0.00577
  22     68.43        1.5637        0.0003       10.7432       10.7435       9.179749       0.00607
  21     81.20        1.5639        0.0003       10.7338       10.7341       9.170235       0.00629
  20     96.49        1.5640        0.0004       10.7223       10.7227       9.158657       0.00639
  19     114.6        1.5642        0.0004       10.7084       10.7089       9.144669       0.00653
  18     136.5        1.5645        0.0005       10.6918       10.6923       9.127818       0.00648
  17     162.9        1.5649        0.0006       10.6717       10.6723       9.107440       0.00651
  16     196.4        1.5655        0.0008       10.6453       10.6460       9.080525       0.00677
  15     218.7        1.5659        0.0008       10.6274       10.6282       9.062305       0.00692
  14     243.0        1.5665        0.0009       10.6072       10.6081       9.041553       0.00720
  13     269.0        1.5673        0.0010       10.5837       10.5847       9.017438       0.00782
  12     297.5        1.5683        0.0011       10.5562       10.5573       8.989044       0.00842
  11     328.5        1.5695        0.0012       10.5243       10.5256       8.956103       0.00896
  10     361.9        1.5710        0.0014       10.4878       10.4891       8.918155       0.00960
   9     398.1        1.5728        0.0015       10.4456       10.4471       8.874244       0.01023
   8     437.6        1.5751        0.0016       10.3965       10.3981       8.822973       0.01096
   7     480.5        1.5780        0.0018       10.3392       10.3410       8.762924       0.01179
   6     533.0        1.5822        0.0020       10.2607       10.2627       8.680459       0.01327
   5     589.8        1.5877        0.0022       10.1630       10.1652       8.577501       0.01528
   4     651.6        1.5952        0.0024       10.0350       10.0374       8.442219       0.01850
   3     718.7        1.6056        0.0026        9.8721        9.8746       8.269080       0.02176
   2     792.3        1.6198        0.0028        9.6738        9.6766       8.056775       0.02435
   1     891.5        1.6466        0.0030        9.3866        9.3897       7.743014       0.02670
   0    1013.0        1.6965        0.0033        9.0259        9.0293       7.332788       0.02848



 Wavenumbers:  4650. -  5150. cm-1, ATM      1
 LEVEL PRESSURE   UPWARD FLUX   DIFDOWN FLUX  DIRDOWN FLUX  DOWNWARD FLUX   NET FLUX    HEATING RATE
          mb          W/m2          W/m2          W/m2        W/m2          W/m2       degree/day
  51    .06700        0.3939        0.0000       10.2033       10.2033       9.809464       0.00000
  50    .07753        0.3939        0.0000       10.2031       10.2031       9.809235       0.18383
  49    .09103        0.3939        0.0000       10.2028       10.2028       9.808948       0.17925
  48    0.1069        0.3939        0.0000       10.2025       10.2025       9.808620       0.17442
  47    0.1255        0.3939        0.0000       10.2021       10.2021       9.808246       0.16952
  46    0.1487        0.3939        0.0000       10.2017       10.2017       9.807778       0.17061
  45    0.1794        0.3939        0.0000       10.2010       10.2010       9.807146       0.17369
  44    0.2165        0.3939        0.0000       10.2003       10.2003       9.806406       0.16813
  43    0.2613        0.3939        0.0000       10.1994       10.1994       9.805545       0.16243
  42    0.3336        0.3939        0.0000       10.1980       10.1980       9.804150       0.16257
  41    0.4307        0.3939        0.0000       10.1962       10.1962       9.802359       0.15579
  40    0.5894        0.3939        0.0000       10.1934       10.1934       9.799560       0.14882
  39     1.339        0.3939        0.0000       10.1821       10.1821       9.788266       0.12715
  38     1.782        0.3939        0.0000       10.1767       10.1767       9.782876       0.10262
  37     2.292        0.3939        0.0000       10.1714       10.1714       9.777554       0.08815
  36     2.964        0.3939        0.0000       10.1656       10.1656       9.771772       0.07258
  35     3.853        0.3939        0.0000       10.1595       10.1596       9.765699       0.05763
  34     5.035        0.3939        0.0000       10.1533       10.1534       9.759496       0.04431
  33     6.613        0.3938        0.0000       10.1470       10.1470       9.753158       0.03388
  32     8.786        0.3938        0.0000       10.1400       10.1401       9.746255       0.02681
  31     11.80        0.3938        0.0001       10.1311       10.1312       9.737330       0.02499
  30     15.07        0.3938        0.0001       10.1213       10.1214       9.727565       0.02521
  29     18.79        0.3938        0.0001       10.1094       10.1095       9.715693       0.02692
  28     23.16        0.3938        0.0001       10.0942       10.0943       9.700559       0.02926
  27     28.12        0.3938        0.0002       10.0753       10.0754       9.681679       0.03210
  26     33.73        0.3938        0.0002       10.0524       10.0526       9.658843       0.03433
  25     40.54        0.3937        0.0002       10.0228       10.0230       9.629276       0.03668
  24     48.69        0.3937        0.0003        9.9850        9.9853       9.591535       0.03906
  23     57.69        0.3937        0.0003        9.9419        9.9422       9.548490       0.04035
  22     68.43        0.3937        0.0004        9.8897        9.8901       9.496358       0.04098
  21     81.20        0.3937        0.0004        9.8280        9.8284       9.434685       0.04075
  20     96.49        0.3938        0.0005        9.7570        9.7575       9.363704       0.03918
  19     114.6        0.3938        0.0006        9.6780        9.6786       9.284758       0.03686
  18     136.5        0.3939        0.0007        9.5926        9.5934       9.199454       0.03280
  17     162.9        0.3941        0.0009        9.5019        9.5027       9.108640       0.02903
  16     196.4        0.3943        0.0010        9.3974        9.3984       9.004056       0.02632
  15     218.7        0.3945        0.0011        9.3336        9.3347       8.940221       0.02424
  14     243.0        0.3948        0.0012        9.2663        9.2676       8.872758       0.02340
  13     269.0        0.3951        0.0014        9.1941        9.1954       8.800310       0.02350
  12     297.5        0.3956        0.0015        9.1150        9.1165       8.720932       0.02354
  11     328.5        0.3961        0.0016        9.0276        9.0293       8.633155       0.02387
  10     361.9        0.3968        0.0018        8.9303        8.9321       8.535349       0.02475
   9     398.1        0.3976        0.0020        8.8219        8.8239       8.426255       0.02542
   8     437.6        0.3987        0.0021        8.7003        8.7025       8.303766       0.02619
   7     480.5        0.4000        0.0023        8.5649        8.5672       8.167204       0.02682
   6     533.0        0.4020        0.0025        8.3914        8.3939       7.991863       0.02821
   5     589.8        0.4046        0.0027        8.1958        8.1985       7.793902       0.02938
   4     651.6        0.4082        0.0029        7.9731        7.9760       7.567750       0.03093
   3     718.7        0.4130        0.0031        7.7266        7.7297       7.316675       0.03155
   2     792.3        0.4196        0.0033        7.4531        7.4564       7.036856       0.03209
   1     891.5        0.4315        0.0035        7.0813        7.0848       6.653304       0.03264
   0    1013.0        0.4523        0.0038        6.6488        6.6526       6.200234       0.03146



 Wavenumbers:  5150. -  6150. cm-1, ATM      1
 LEVEL PRESSURE   UPWARD FLUX   DIFDOWN FLUX  DIRDOWN FLUX  DOWNWARD FLUX   NET FLUX    HEATING RATE
          mb          W/m2          W/m2          W/m2        W/m2          W/m2       degree/day
  51    .06700        3.2762        0.0000       25.5798       25.5798      22.303660       0.00000
  50    .07753        3.2762        0.0000       25.5798       25.5798      22.303656       0.00295
  49    .09103        3.2762        0.0000       25.5798       25.5798      22.303652       0.00299
  48    0.1069        3.2762        0.0000       25.5798       25.5798      22.303646       0.00303
  47    0.1255        3.2762        0.0000       25.5798       25.5798      22.303639       0.00307
  46    0.1487        3.2762        0.0000       25.5798       25.5798      22.303630       0.00323
  45    0.1794        3.2762        0.0000       25.5798       25.5798      22.303618       0.00344
  44    0.2165        3.2762        0.0000       25.5798       25.5798      22.303602       0.00348
  43    0.2613        3.2762        0.0000       25.5797       25.5797      22.303584       0.00353
  42    0.3336        3.2762        0.0000       25.5797       25.5797      22.303552       0.00373
  41    0.4307        3.2762        0.0000       25.5797       25.5797      22.303508       0.00379
  40    0.5894        3.2762        0.0000       25.5796       25.5796      22.303435       0.00389
  39     1.339        3.2761        0.0000       25.5792       25.5792      22.303076       0.00404
  38     1.782        3.2761        0.0000       25.5789       25.5790      22.302861       0.00410
  37     2.292        3.2761        0.0001       25.5787       25.5787      22.302612       0.00412
  36     2.964        3.2761        0.0001       25.5783       25.5784      22.302288       0.00406
  35     3.853        3.2761        0.0001       25.5779       25.5780      22.301866       0.00401
  34     5.035        3.2761        0.0001       25.5773       25.5774      22.301304       0.00401
  33     6.613        3.2761        0.0002       25.5764       25.5766      22.300551       0.00403
  32     8.786        3.2760        0.0002       25.5753       25.5756      22.299532       0.00396
  31     11.80        3.2760        0.0003       25.5738       25.5741      22.298077       0.00407
  30     15.07        3.2760        0.0004       25.5721       25.5725      22.296522       0.00401
  29     18.79        3.2759        0.0005       25.5702       25.5707      22.294789       0.00393
  28     23.16        3.2759        0.0006       25.5681       25.5687      22.292790       0.00387
  27     28.12        3.2759        0.0008       25.5656       25.5664      22.290529       0.00384
  26     33.73        3.2758        0.0009       25.5630       25.5639      22.288020       0.00377
  25     40.54        3.2758        0.0011       25.5597       25.5608      22.284994       0.00375
  24     48.69        3.2758        0.0013       25.5559       25.5572      22.281383       0.00374
  23     57.69        3.2758        0.0016       25.5517       25.5533      22.277423       0.00371
  22     68.43        3.2759        0.0018       25.5468       25.5486      22.272719       0.00370
  21     81.20        3.2759        0.0022       25.5408       25.5430      22.267106       0.00371
  20     96.49        3.2760        0.0026       25.5337       25.5363      22.260337       0.00374
  19     114.6        3.2761        0.0031       25.5251       25.5282      22.252104       0.00384
  18     136.5        3.2763        0.0037       25.5146       25.5183      22.242001       0.00388
  17     162.9        3.2765        0.0044       25.4994       25.5038      22.227310       0.00470
  16     196.4        3.2767        0.0053       25.4684       25.4737      22.196955       0.00764
  15     218.7        3.2769        0.0058       25.4223       25.4282      22.151220       0.01736
  14     243.0        3.2772        0.0065       25.3298       25.3363      22.059080       0.03196
  13     269.0        3.2775        0.0071       25.1797       25.1868      21.909313       0.04858
  12     297.5        3.2779        0.0078       24.9786       24.9864      21.708485       0.05956
  11     328.5        3.2784        0.0086       24.7314       24.7400      21.461559       0.06714
  10     361.9        3.2791        0.0093       24.4120       24.4214      21.142296       0.08078
   9     398.1        3.2800        0.0101       24.0185       24.0287      20.748719       0.09169
   8     437.6        3.2811        0.0109       23.5633       23.5742      20.293126       0.09741
   7     480.5        3.2827        0.0118       23.0666       23.0784      19.795696       0.09769
   6     533.0        3.2852        0.0127       22.4227       22.4354      19.150226       0.10384
   5     589.8        3.2890        0.0137       21.6337       21.6474      18.358342       0.11754
   4     651.6        3.2955        0.0145       20.6271       20.6416      17.346068       0.13843
   3     718.7        3.3066        0.0152       19.4930       19.5082      16.201637       0.14382
   2     792.3        3.3263        0.0158       18.2781       18.2939      14.967644       0.14153
   1     891.5        3.3754        0.0165       16.8250       16.8415      13.466134       0.12777
   0    1013.0        3.5093        0.0174       15.5347       15.5522      12.042872       0.09882



 Wavenumbers:  6150. -  7700. cm-1, ATM      1
 LEVEL PRESSURE   UPWARD FLUX   DIFDOWN FLUX  DIRDOWN FLUX  DOWNWARD FLUX   NET FLUX    HEATING RATE
          mb          W/m2          W/m2          W/m2        W/m2          W/m2       degree/day
  51    .06700        6.2674        0.0000       47.3108       47.3108      41.043408       0.00000
  50    .07753        6.2674        0.0000       47.3108       47.3108      41.043388       0.01588
  49    .09103        6.2674        0.0000       47.3108       47.3108      41.043363       0.01567
  48    0.1069        6.2674        0.0000       47.3108       47.3108      41.043334       0.01545
  47    0.1255        6.2674        0.0000       47.3107       47.3107      41.043301       0.01523
  46    0.1487        6.2674        0.0000       47.3107       47.3107      41.043258       0.01557
  45    0.1794        6.2674        0.0000       47.3106       47.3106      41.043199       0.01614
  44    0.2165        6.2674        0.0000       47.3105       47.3105      41.043129       0.01596
  43    0.2613        6.2674        0.0000       47.3104       47.3105      41.043045       0.01578
  42    0.3336        6.2674        0.0000       47.3103       47.3103      41.042906       0.01626
  41    0.4307        6.2674        0.0000       47.3101       47.3101      41.042720       0.01618
  40    0.5894        6.2674        0.0001       47.3097       47.3098      41.042414       0.01626
  39     1.339        6.2673        0.0001       47.3081       47.3083      41.040960       0.01637
  38     1.782        6.2673        0.0002       47.3072       47.3074      41.040107       0.01623
  37     2.292        6.2672        0.0003       47.3061       47.3063      41.039125       0.01626
  36     2.964        6.2672        0.0003       47.3047       47.3050      41.037846       0.01606
  35     3.853        6.2671        0.0004       47.3028       47.3032      41.036170       0.01590
  34     5.035        6.2670        0.0006       47.3003       47.3009      41.033958       0.01580
  33     6.613        6.2668        0.0008       47.2971       47.2978      41.031021       0.01570
  32     8.786        6.2666        0.0010       47.2927       47.2937      41.027095       0.01525
  31     11.80        6.2663        0.0013       47.2865       47.2879      41.021543       0.01554
  30     15.07        6.2660        0.0017       47.2799       47.2817      41.015666       0.01517
  29     18.79        6.2657        0.0021       47.2726       47.2748      41.009136       0.01481
  28     23.16        6.2652        0.0026       47.2642       47.2669      41.001637       0.01450
  27     28.12        6.2648        0.0032       47.2548       47.2580      40.993217       0.01431
  26     33.73        6.2642        0.0038       47.2444       47.2482      40.984001       0.01386
  25     40.54        6.2636        0.0046       47.2321       47.2367      40.973137       0.01348
  24     48.69        6.2628        0.0055       47.2177       47.2233      40.960424       0.01316
  23     57.69        6.2620        0.0066       47.2022       47.2088      40.946842       0.01273
  22     68.43        6.2610        0.0078       47.1843       47.1921      40.931112       0.01237
  21     81.20        6.2598        0.0092       47.1634       47.1726      40.912887       0.01204
  20     96.49        6.2583        0.0110       47.1391       47.1501      40.891732       0.01168
  19     114.6        6.2566        0.0130       47.1107       47.1237      40.867118       0.01149
  18     136.5        6.2546        0.0155       47.0776       47.0931      40.838573       0.01098
  17     162.9        6.2522        0.0184       47.0369       47.0553      40.803178       0.01131
  16     196.4        6.2490        0.0222       46.9753       46.9975      40.748483       0.01377
  15     218.7        6.2470        0.0247       46.9115       46.9362      40.689211       0.02250
  14     243.0        6.2450        0.0274       46.7981       46.8255      40.580545       0.03769
  13     269.0        6.2429        0.0303       46.6042       46.6344      40.391542       0.06131
  12     297.5        6.2409        0.0333       46.3193       46.3526      40.111765       0.08298
  11     328.5        6.2389        0.0365       45.9702       46.0067      39.767763       0.09353
  10     361.9        6.2372        0.0399       45.5330       45.5729      39.335720       0.10931
   9     398.1        6.2359        0.0434       44.9678       45.0112      38.775327       0.13056
   8     437.6        6.2353        0.0470       44.2465       44.2936      38.058277       0.15331
   7     480.5        6.2359        0.0507       43.3917       43.4424      37.206495       0.16729
   6     533.0        6.2389        0.0549       42.2743       42.3292      36.090289       0.17956
   5     589.8        6.2462        0.0591       40.9649       41.0240      34.777835       0.19481
   4     651.6        6.2625        0.0629       39.2913       39.3542      33.091698       0.23058
   3     718.7        6.2940        0.0663       37.2974       37.3637      31.069686       0.25411
   2     792.3        6.3539        0.0691       35.0457       35.1148      28.760908       0.26479
   1     891.5        6.5048        0.0719       32.1208       32.1927      25.687918       0.26150
   0    1013.0        6.8875        0.0747       29.1095       29.1843      22.296814       0.23546



 Wavenumbers:  7700. -  8050. cm-1, ATM      1
 LEVEL PRESSURE   UPWARD FLUX   DIFDOWN FLUX  DIRDOWN FLUX  DOWNWARD FLUX   NET FLUX    HEATING RATE
          mb          W/m2          W/m2          W/m2        W/m2          W/m2       degree/day
  51    .06700        5.8239        0.0000       11.1810       11.1810       5.357066       0.00000
  50    .07753        5.8239        0.0000       11.1809       11.1809       5.357044       0.01748
  49    .09103        5.8239        0.0000       11.1809       11.1809       5.357017       0.01714
  48    0.1069        5.8239        0.0000       11.1809       11.1809       5.356985       0.01678
  47    0.1255        5.8239        0.0000       11.1809       11.1809       5.356949       0.01642
  46    0.1487        5.8239        0.0000       11.1808       11.1808       5.356903       0.01666
  45    0.1794        5.8239        0.0000       11.1808       11.1808       5.356841       0.01714
  44    0.2165        5.8240        0.0000       11.1807       11.1807       5.356767       0.01681
  43    0.2613        5.8240        0.0000       11.1806       11.1806       5.356679       0.01650
  42    0.3336        5.8240        0.0000       11.1805       11.1805       5.356535       0.01688
  41    0.4307        5.8240        0.0000       11.1803       11.1804       5.356342       0.01670
  40    0.5894        5.8241        0.0000       11.1801       11.1801       5.356029       0.01668
  39     1.339        5.8243        0.0001       11.1788       11.1789       5.354545       0.01671
  38     1.782        5.8245        0.0001       11.1781       11.1782       5.353673       0.01660
  37     2.292        5.8247        0.0001       11.1772       11.1773       5.352664       0.01671
  36     2.964        5.8249        0.0002       11.1761       11.1762       5.351339       0.01663
  35     3.853        5.8252        0.0002       11.1746       11.1748       5.349589       0.01661
  34     5.035        5.8256        0.0003       11.1726       11.1729       5.347265       0.01661
  33     6.613        5.8261        0.0004       11.1699       11.1703       5.344160       0.01660
  32     8.786        5.8269        0.0005       11.1664       11.1668       5.339977       0.01624
  31     11.80        5.8279        0.0006       11.1613       11.1619       5.333997       0.01674
  30     15.07        5.8290        0.0008       11.1558       11.1566       5.327582       0.01656
  29     18.79        5.8303        0.0010       11.1496       11.1507       5.320343       0.01641
  28     23.16        5.8318        0.0013       11.1424       11.1437       5.311898       0.01633
  27     28.12        5.8335        0.0015       11.1342       11.1358       5.302256       0.01639
  26     33.73        5.8354        0.0018       11.1251       11.1269       5.291486       0.01619
  25     40.54        5.8378        0.0022       11.1141       11.1163       5.278504       0.01611
  24     48.69        5.8406        0.0027       11.1009       11.1035       5.262899       0.01615
  23     57.69        5.8438        0.0031       11.0864       11.0896       5.245816       0.01601
  22     68.43        5.8475        0.0037       11.0693       11.0731       5.225550       0.01593
  21     81.20        5.8520        0.0044       11.0491       11.0535       5.201522       0.01588
  20     96.49        5.8574        0.0052       11.0253       11.0305       5.173054       0.01571
  19     114.6        5.8640        0.0062       10.9972       11.0034       5.139483       0.01568
  18     136.5        5.8718        0.0074       10.9644       10.9718       5.100003       0.01518
  17     162.9        5.8812        0.0088       10.9259       10.9346       5.053409       0.01489
  16     196.4        5.8937        0.0105       10.8768       10.8873       4.993625       0.01505
  15     218.7        5.9020        0.0117       10.8450       10.8567       4.954720       0.01477
  14     243.0        5.9112        0.0130       10.8109       10.8239       4.912722       0.01457
  13     269.0        5.9213        0.0144       10.7745       10.7888       4.867524       0.01466
  12     297.5        5.9324        0.0158       10.7356       10.7514       4.819001       0.01439
  11     328.5        5.9446        0.0174       10.6941       10.7115       4.766897       0.01417
  10     361.9        5.9581        0.0192       10.6500       10.6692       4.711117       0.01411
   9     398.1        5.9729        0.0210       10.6032       10.6242       4.651393       0.01391
   8     437.6        5.9891        0.0230       10.5536       10.5766       4.587502       0.01366
   7     480.5        6.0070        0.0251       10.5011       10.5262       4.519203       0.01341
   6     533.0        6.0298        0.0278       10.4372       10.4650       4.435185       0.01352
   5     589.8        6.0552        0.0306       10.3691       10.3996       4.344401       0.01348
   4     651.6        6.0839        0.0336       10.2963       10.3299       4.246034       0.01345
   3     718.7        6.1163        0.0369       10.2183       10.2552       4.138905       0.01346
   2     792.3        6.1531        0.0404       10.1343       10.1747       4.021583       0.01346
   1     891.5        6.2069        0.0450       10.0193       10.0643       3.857384       0.01397
   0    1013.0        6.2782        0.0506        9.8780        9.9286       3.650413       0.01437



 Wavenumbers:  8050. - 12850. cm-1, ATM      1
 LEVEL PRESSURE   UPWARD FLUX   DIFDOWN FLUX  DIRDOWN FLUX  DOWNWARD FLUX   NET FLUX    HEATING RATE
          mb          W/m2          W/m2          W/m2        W/m2          W/m2       degree/day
  51    .06700      119.9597        0.0000      156.5418      156.5418      36.582095       0.00000
  50    .07753      119.9596        0.0000      156.5417      156.5417      36.582095      -0.00000
  49    .09103      119.9596        0.0001      156.5417      156.5417      36.582095       0.00000
  48    0.1069      119.9596        0.0001      156.5416      156.5417      36.582095       0.00000
  47    0.1255      119.9596        0.0002      156.5415      156.5417      36.582095       0.00000
  46    0.1487      119.9596        0.0002      156.5414      156.5417      36.582095       0.00000
  45    0.1794      119.9596        0.0003      156.5413      156.5416      36.582095       0.00000
  44    0.2165      119.9595        0.0005      156.5412      156.5416      36.582095      -0.00000
  43    0.2613      119.9595        0.0006      156.5410      156.5416      36.582095      -0.00000
  42    0.3336      119.9594        0.0008      156.5407      156.5415      36.582095       0.00000
  41    0.4307      119.9593        0.0011      156.5403      156.5414      36.582095       0.00000
  40    0.5894      119.9592        0.0016      156.5397      156.5413      36.582095      -0.00000
  39     1.339      119.9585        0.0039      156.5367      156.5406      36.582095      -0.00000
  38     1.782      119.9581        0.0052      156.5350      156.5402      36.582095       0.00000
  37     2.292      119.9576        0.0067      156.5330      156.5397      36.582095       0.00000
  36     2.964      119.9570        0.0088      156.5303      156.5391      36.582095      -0.00000
  35     3.853      119.9562        0.0115      156.5268      156.5383      36.582095       0.00000
  34     5.035      119.9551        0.0150      156.5222      156.5372      36.582095      -0.00000
  33     6.613      119.9537        0.0198      156.5160      156.5358      36.582095      -0.00000
  32     8.786      119.9518        0.0262      156.5076      156.5339      36.582095       0.00000
  31     11.80      119.9490        0.0354      156.4957      156.5311      36.582095      -0.00000
  30     15.07      119.9460        0.0453      156.4828      156.5281      36.582095       0.00000
  29     18.79      119.9427        0.0565      156.4682      156.5248      36.582095       0.00000
  28     23.16      119.9387        0.0696      156.4512      156.5208      36.582095       0.00000
  27     28.12      119.9342        0.0846      156.4317      156.5163      36.582095      -0.00000
  26     33.73      119.9292        0.1014      156.4099      156.5113      36.582095       0.00000
  25     40.54      119.9231        0.1217      156.3834      156.5052      36.582095      -0.00000
  24     48.69      119.9157        0.1463      156.3515      156.4978      36.582095      -0.00000
  23     57.69      119.9076        0.1732      156.3164      156.4897      36.582095      -0.00000
  22     68.43      119.8979        0.2054      156.2746      156.4800      36.582095       0.00000
  21     81.20      119.8863        0.2439      156.2246      156.4684      36.582095       0.00000
  20     96.49      119.8726        0.2897      156.1649      156.4546      36.582095       0.00000
  19     114.6      119.8562        0.3443      156.0934      156.4377      36.581533       0.00026
  18     136.5      119.8367        0.4091      156.0085      156.4175      36.580834       0.00027
  17     162.9      119.8135        0.4864      155.9067      156.3932      36.579666       0.00037
  16     196.4      119.7833        0.5870      155.7729      156.3600      36.576633       0.00076
  15     218.7      119.7636        0.6533      155.6811      156.3344      36.570788       0.00222
  14     243.0      119.7425        0.7254      155.5732      156.2987      36.556145       0.00508
  13     269.0      119.7204        0.8038      155.4399      156.2437      36.523274       0.01066
  12     297.5      119.6980        0.8886      155.2686      156.1572      36.459274       0.01898
  11     328.5      119.6756        0.9805      155.0560      156.0365      36.360893       0.02675
  10     361.9      119.6542        1.0796      154.7948      155.8744      36.220117       0.03562
   9     398.1      119.6354        1.1864      154.4737      155.6601      36.024671       0.04553
   8     437.6      119.6220        1.3014      154.0785      155.3798      35.757880       0.05704
   7     480.5      119.6170        1.4247      153.6029      155.0277      35.410660       0.06819
   6     533.0      119.6285        1.5767      152.9457      154.5224      34.893923       0.08313
   5     589.8      119.6727        1.7405      152.1239      153.8644      34.191707       0.10423
   4     651.6      119.7857        1.9157      151.0164      152.9321      33.146385       0.14295
   3     718.7      120.0121        2.1020      149.5539      151.6559      31.643803       0.18883
   2     792.3      120.4446        2.2978      147.6105      149.9083      29.463668       0.25004
   1     891.5      121.4999        2.5546      144.4193      146.9739      25.473975       0.33950
   0    1013.0      123.8506        2.8514      140.0565      142.9079      19.057253       0.44555



 Wavenumbers: 12850. - 16000. cm-1, ATM      1
 LEVEL PRESSURE   UPWARD FLUX   DIFDOWN FLUX  DIRDOWN FLUX  DOWNWARD FLUX   NET FLUX    HEATING RATE
          mb          W/m2          W/m2          W/m2        W/m2          W/m2       degree/day
  51    .06700       85.2079        0.0000       98.0872       98.0872      12.879383       0.00000
  50    .07753       85.2079        0.0001       98.0864       98.0864      12.878588       0.63700
  49    .09103       85.2079        0.0002       98.0853       98.0855      12.877589       0.62426
  48    0.1069       85.2079        0.0003       98.0841       98.0843      12.876441       0.61133
  47    0.1255       85.2079        0.0004       98.0826       98.0830      12.875120       0.59875
  46    0.1487       85.2079        0.0005       98.0809       98.0814      12.873451       0.60823
  45    0.1794       85.2080        0.0008       98.0784       98.0792      12.871179       0.62384
  44    0.2165       85.2081        0.0010       98.0756       98.0766      12.868502       0.60889
  43    0.2613       85.2083        0.0013       98.0723       98.0736      12.865350       0.59424
  42    0.3336       85.2086        0.0018       98.0670       98.0688      12.860195       0.60103
  41    0.4307       85.2091        0.0024       98.0602       98.0626      12.853514       0.58089
  40    0.5894       85.2101        0.0035       98.0496       98.0531      12.842952       0.56165
  39     1.339       85.2182        0.0084       98.0043       98.0128      12.794542       0.54501
  38     1.782       85.2255        0.0114       97.9793       97.9906      12.765120       0.56015
  37     2.292       85.2363        0.0147       97.9498       97.9645      12.728230       0.61100
  36     2.964       85.2540        0.0192       97.9088       97.9280      12.673994       0.68083
  35     3.853       85.2824        0.0250       97.8503       97.8754      12.592944       0.76918
  34     5.035       85.3251        0.0328       97.7680       97.8008      12.475650       0.83790
  33     6.613       85.3847        0.0432       97.6562       97.6993      12.314631       0.86081
  32     8.786       85.4624        0.0571       97.5107       97.5678      12.105442       0.81241
  31     11.80       85.5636        0.0771       97.3179       97.3950      11.831330       0.76743
  30     15.07       85.6609        0.0985       97.1283       97.2268      11.565930       0.68521
  29     18.79       85.7605        0.1227       96.9300       97.0527      11.292185       0.62066
  28     23.16       85.8650        0.1509       96.7166       96.8675      11.002460       0.56023
  27     28.12       85.9707        0.1832       96.4935       96.6766      10.705997       0.50397
  26     33.73       86.0690        0.2193       96.2731       96.4924      10.423312       0.42502
  25     40.54       86.1650        0.2629       96.0408       96.3037      10.138699       0.35309
  24     48.69       86.2583        0.3155       95.7946       96.1101       9.851726       0.29697
  23     57.69       86.3394        0.3733       95.5573       95.9306       9.591180       0.24422
  22     68.43       86.4127        0.4422       95.3106       95.7528       9.340131       0.19736
  21     81.20       86.4680        0.5244       95.0644       95.5887       9.120683       0.14501
  20     96.49       86.5046        0.6224       94.8153       95.4377       8.933157       0.10350
  19     114.6       86.5423        0.7398       94.5412       95.2810       8.738712       0.09079
  18     136.5       86.5753        0.8790       94.2324       95.1114       8.536113       0.07790
  17     162.9       86.6040        1.0447       93.8760       94.9207       8.316665       0.07014
  16     196.4       86.6185        1.2596       93.4358       94.6954       8.076924       0.06035
  15     218.7       86.6201        1.4008       93.1534       94.5542       7.934165       0.05420
  14     243.0       86.6184        1.5542       92.8484       94.4027       7.784237       0.05200
  13     269.0       86.6133        1.7205       92.5209       94.2415       7.628204       0.05062
  12     297.5       86.6048        1.9002       92.1700       94.0703       7.465504       0.04826
  11     328.5       86.5949        2.0945       91.7927       93.8871       7.292211       0.04712
  10     361.9       86.5841        2.3036       91.3883       93.6919       7.107745       0.04667
   9     398.1       86.5729        2.5287       90.9559       93.4845       6.911683       0.04568
   8     437.6       86.5624        2.7705       90.4932       93.2636       6.701243       0.04499
   7     480.5       86.5535        3.0298       89.9991       93.0289       6.475402       0.04435
   6     533.0       86.5474        3.3491       89.3912       92.7403       6.192980       0.04543
   5     589.8       86.5492        3.6935       88.7336       92.4271       5.877939       0.04676
   4     651.6       86.5657        4.0640       88.0167       92.0807       5.515068       0.04962
   3     718.7       86.6044        4.4615       87.2349       91.6965       5.092113       0.05315
   2     792.3       86.6802        4.8860       86.3774       91.2634       4.583199       0.05837
   1     891.5       86.8588        5.4566       85.1810       90.6376       3.778812       0.06845
   0    1013.0       87.2177        6.1375       83.6994       89.8369       2.619217       0.08052



 Wavenumbers: 16000. - 22650. cm-1, ATM      1
 LEVEL PRESSURE   UPWARD FLUX   DIFDOWN FLUX  DIRDOWN FLUX  DOWNWARD FLUX   NET FLUX    HEATING RATE
          mb          W/m2          W/m2          W/m2        W/m2          W/m2       degree/day
  51    .06700      141.8871        0.0000      156.3892      156.3892      14.502150       0.00000
  50    .07753      141.8871        0.0004      156.3887      156.3891      14.502001       0.11912
  49    .09103      141.8871        0.0009      156.3879      156.3888      14.501785       0.13511
  48    0.1069      141.8871        0.0015      156.3871      156.3885      14.501495       0.15407
  47    0.1255      141.8871        0.0021      156.3861      156.3882      14.501108       0.17562
  46    0.1487      141.8871        0.0030      156.3847      156.3877      14.500537       0.20811
  45    0.1794      141.8873        0.0041      156.3828      156.3869      14.499644       0.24504
  44    0.2165      141.8875        0.0054      156.3805      156.3859      14.498434       0.27539
  43    0.2613      141.8879        0.0070      156.3776      156.3847      14.496791       0.30961
  42    0.3336      141.8886        0.0097      156.3726      156.3823      14.493669       0.36409
  41    0.4307      141.8899        0.0132      156.3657      156.3789      14.488961       0.40928
  40    0.5894      141.8926        0.0189      156.3537      156.3726      14.479984       0.47741
  39     1.339      141.9157        0.0459      156.2834      156.3293      14.413658       0.74671
  38     1.782      141.9370        0.0618      156.2324      156.2941      14.357155       1.07571
  37     2.292      141.9689        0.0801      156.1641      156.2442      14.275368       1.35462
  36     2.964      142.0219        0.1042      156.0605      156.1647      14.142870       1.66325
  35     3.853      142.1075        0.1361      155.9041      156.0401      13.932625       1.99526
  34     5.035      142.2367        0.1783      155.6774      155.8557      13.618953       2.24075
  33     6.613      142.4172        0.2347      155.3656      155.6003      13.183030       2.33045
  32     8.786      142.6524        0.3105      154.9577      155.2682      12.615779       2.20300
  31     11.80      142.9585        0.4188      154.4153      154.8341      11.875635       2.07217
  30     15.07      143.2518        0.5350      153.8804      154.4154      11.163611       1.83831
  29     18.79      143.5513        0.6660      153.3191      153.9851      10.433821       1.65466
  28     23.16      143.8644        0.8188      152.7126      153.5314       9.666966       1.48285
  27     28.12      144.1796        0.9933      152.0755      153.0688       8.889210       1.32213
  26     33.73      144.4706        1.1883      151.4409      152.6293       8.158630       1.09845
  25     40.54      144.7510        1.4238      150.7637      152.1875       7.436520       0.89586
  24     48.69      145.0197        1.7074      150.0339      151.7412       6.721586       0.73984
  23     57.69      145.2478        2.0185      149.3151      151.3337       6.085909       0.59585
  22     68.43      145.4472        2.3887      148.5476      150.9363       5.489148       0.46913
  21     81.20      145.5856        2.8294      147.7517      150.5811       4.995466       0.32622
  20     96.49      145.6587        3.3541      146.9127      150.2668       4.608034       0.21383
  19     114.6      145.6976        3.9752      145.9763      149.9516       4.253944       0.16534
  18     136.5      145.7119        4.7087      144.9088      149.6176       3.905607       0.13394
  17     162.9      145.7001        5.5781      143.6786      149.2567       3.556682       0.11153
  16     196.4      145.6221        6.6999      142.1652      148.8651       3.242931       0.07897
  15     218.7      145.5480        7.4329      141.2037      148.6366       3.088532       0.05862
  14     243.0      145.4569        8.2263      140.1760      148.4024       2.945483       0.04961
  13     269.0      145.3470        9.0823      139.0813      148.1635       2.816571       0.04182
  12     297.5      145.2174       10.0027      137.9174      147.9201       2.702717       0.03377
  11     328.5      145.0723       10.9920      136.6737      147.6657       2.593433       0.02971
  10     361.9      144.9111       12.0511      135.3494      147.4005       2.489377       0.02633
   9     398.1      144.7331       13.1839      133.9397      147.1237       2.390512       0.02303
   8     437.6      144.5388       14.3925      132.4413      146.8338       2.295027       0.02042
   7     480.5      144.3272       15.6791      130.8521      146.5312       2.203989       0.01788
   6     533.0      144.0637       17.2503      128.9175      146.1678       2.104062       0.01608
   5     589.8      143.7785       18.9289      126.8555      145.7844       2.005893       0.01457
   4     651.6      143.4723       20.7162      124.6631      145.3794       1.907057       0.01352
   3     718.7      143.1457       22.6143      122.3374      144.9517       1.805959       0.01271
   2     792.3      142.8005       24.6215      119.8782      144.4997       1.699207       0.01224
   1     891.5      142.3458       27.2888      116.6066      143.8954       1.549594       0.01273
   0    1013.0      141.8191       30.4283      112.7484      143.1767       1.357679       0.01333



 Wavenumbers: 22650. - 29000. cm-1, ATM      1
 LEVEL PRESSURE   UPWARD FLUX   DIFDOWN FLUX  DIRDOWN FLUX  DOWNWARD FLUX   NET FLUX    HEATING RATE
          mb          W/m2          W/m2          W/m2        W/m2          W/m2       degree/day
  51    .06700       58.6820        0.0000       59.0156       59.0156       0.333635       0.00000
  50    .07753       58.6819        0.0005       59.0151       59.0155       0.333635       0.00000
  49    .09103       58.6818        0.0010       59.0144       59.0154       0.333635       0.00000
  48    0.1069       58.6816        0.0017       59.0136       59.0153       0.333635      -0.00000
  47    0.1255       58.6815        0.0025       59.0127       59.0151       0.333635       0.00000
  46    0.1487       58.6813        0.0035       59.0115       59.0149       0.333635      -0.00000
  45    0.1794       58.6811        0.0048       59.0099       59.0147       0.333635       0.00000
  44    0.2165       58.6808        0.0063       59.0080       59.0144       0.333635      -0.00000
  43    0.2613       58.6804        0.0082       59.0058       59.0140       0.333635       0.00000
  42    0.3336       58.6798        0.0113       59.0022       59.0134       0.333635      -0.00000
  41    0.4307       58.6790        0.0154       58.9973       59.0127       0.333635       0.00000
  40    0.5894       58.6777        0.0220       58.9894       59.0114       0.333635      -0.00000
  39     1.339       58.6717        0.0535       58.9518       59.0053       0.333635       0.00000
  38     1.782       58.6681        0.0720       58.9297       59.0017       0.333635       0.00000
  37     2.292       58.6640        0.0934       58.9042       58.9976       0.333635       0.00000
  36     2.964       58.6586        0.1216       58.8706       58.9922       0.333635       0.00000
  35     3.853       58.6514        0.1587       58.8264       58.9851       0.333635      -0.00000
  34     5.035       58.6419        0.2080       58.7676       58.9756       0.333635       0.00000
  33     6.613       58.6293        0.2738       58.6891       58.9629       0.333635      -0.00000
  32     8.786       58.6122        0.3624       58.5834       58.9458       0.333635       0.00000
  31     11.80       58.5878        0.4890       58.4325       58.9215       0.333635      -0.00000
  30     15.07       58.5617        0.6247       58.2706       58.8953       0.333635      -0.00000
  29     18.79       58.5323        0.7776       58.0882       58.8659       0.333635       0.00000
  28     23.16       58.4979        0.9559       57.8757       58.8316       0.333635      -0.00000
  27     28.12       58.4588        1.1591       57.6333       58.7924       0.333635       0.00000
  26     33.73       58.4152        1.3857       57.3631       58.7488       0.333635       0.00000
  25     40.54       58.3626        1.6584       57.0379       58.6963       0.333635       0.00000
  24     48.69       58.2996        1.9854       56.6479       58.6333       0.333635       0.00000
  23     57.69       58.2309        2.3424       56.2221       58.5645       0.333635      -0.00000
  22     68.43       58.1495        2.7646       55.7186       58.4832       0.333635       0.00000
  21     81.20       58.0534        3.2632       55.1239       58.3871       0.333635      -0.00000
  20     96.49       57.9401        3.8510       54.4228       58.2738       0.333635      -0.00000
  19     114.6       57.8073        4.5400       53.6010       58.1410       0.333635       0.00000
  18     136.5       57.6522        5.3441       52.6418       57.9859       0.333635       0.00000
  17     162.9       57.4709        6.2842       51.5204       57.8045       0.333635       0.00000
  16     196.4       57.2410        7.4752       50.0995       57.5747       0.333635      -0.00000
  15     218.7       57.0933        8.2406       49.1863       57.4269       0.333635       0.00000
  14     243.0       56.9354        9.0577       48.2114       57.2691       0.333635       0.00000
  13     269.0       56.7676        9.9261       47.1752       57.1013       0.333635       0.00000
  12     297.5       56.5900       10.8449       46.0787       56.9237       0.333635      -0.00000
  11     328.5       56.4023       11.8155       44.9204       56.7359       0.333635       0.00000
  10     361.9       56.2049       12.8354       43.7032       56.5386       0.333635      -0.00000
   9     398.1       55.9979       13.9044       42.4272       56.3316       0.333635       0.00000
   8     437.6       55.7817       15.0205       41.0948       56.1153       0.333635       0.00000
   7     480.5       55.5566       16.1811       39.7092       55.8903       0.333635       0.00000
   6     533.0       55.2889       17.5604       38.0621       55.6226       0.333635       0.00000
   5     589.8       55.0114       18.9889       36.3561       55.3450       0.333635      -0.00000
   4     651.6       54.7251       20.4602       34.5985       55.0588       0.333635       0.00000
   3     718.7       54.4315       21.9676       32.7975       54.7651       0.333635      -0.00000
   2     792.3       54.1319       23.5030       30.9626       54.4655       0.333635       0.00000
   1     891.5       53.7516       25.4477       28.6375       54.0853       0.333635       0.00000
   0    1013.0       53.3280       27.6082       26.0534       53.6616       0.333635      -0.00000



 Wavenumbers: 29000. - 38000. cm-1, ATM      1
 LEVEL PRESSURE   UPWARD FLUX   DIFDOWN FLUX  DIRDOWN FLUX  DOWNWARD FLUX   NET FLUX    HEATING RATE
          mb          W/m2          W/m2          W/m2        W/m2          W/m2       degree/day
  51    .06700        8.7676        0.0000       20.8114       20.8114      12.043770       0.00000
  50    .07753        8.7674        0.0003       20.8070       20.8074      12.039963       3.05155
  49    .09103        8.7672        0.0007       20.8009       20.8016      12.034426       3.46085
  48    0.1069        8.7669        0.0012       20.7928       20.7939      12.027016       3.94429
  47    0.1255        8.7666        0.0017       20.7820       20.7837      12.017112       4.49034
  46    0.1487        8.7663        0.0024       20.7665       20.7688      12.002548       5.30844
  45    0.1794        8.7658        0.0033       20.7424       20.7457      11.979884       6.22204
  44    0.2165        8.7653        0.0044       20.7103       20.7147      11.949361       6.94340
  43    0.2613        8.7647        0.0056       20.6675       20.6731      11.908366       7.72732
  42    0.3336        8.7638        0.0077       20.5880       20.5957      11.831805       8.92625
  41    0.4307        8.7628        0.0104       20.4722       20.4826      11.719853       9.73402
  40    0.5894        8.7612        0.0147       20.2637       20.2784      11.517169      10.77846
  39     1.339        8.7578        0.0331       19.0984       19.1315      10.373692      12.87347
  38     1.782        8.7583        0.0427       18.4394       18.4821       9.723768      12.37351
  37     2.292        8.7610        0.0530       17.7714       17.8244       9.063423      10.93703
  36     2.964        8.7675        0.0657       17.0421       17.1078       8.340299       9.07739
  35     3.853        8.7804        0.0816       16.2679       16.3495       7.569120       7.31863
  34     5.035        8.8015        0.1018       15.4803       15.5821       6.780627       5.63267
  33     6.613        8.8322        0.1276       14.7157       14.8433       6.011046       4.11418
  32     8.786        8.8728        0.1614       13.9936       14.1549       5.282100       2.83096
  31     11.80        8.9258        0.2084       13.2835       13.4920       4.566141       2.00446
  30     15.07        8.9769        0.2573       12.7394       12.9966       4.019672       1.41088
  29     18.79        9.0297        0.3114       12.2666       12.5780       3.548230       1.06890
  28     23.16        9.0858        0.3729       11.8300       12.2029       3.117095       0.83368
  27     28.12        9.1433        0.4418       11.4279       11.8697       2.726404       0.66415
  26     33.73        9.1963        0.5178       11.0695       11.5872       2.390900       0.50444
  25     40.54        9.2467        0.6085       10.7209       11.3294       2.082733       0.38232
  24     48.69        9.2942        0.7162       10.3742       11.0904       1.796177       0.29654
  23     57.69        9.3332        0.8328       10.0549       10.8877       1.554415       0.22662
  22     68.43        9.3648        0.9695        9.7327       10.7022       1.337375       0.17062
  21     81.20        9.3800        1.1309        9.4134       10.5443       1.164305       0.11436
  20     96.49        9.3769        1.3207        9.0887       10.4094       1.032558       0.07272
  19     114.6        9.3635        1.5400        8.7388       10.2788       0.915285       0.05476
  18     136.5        9.3428        1.7907        8.3549       10.1456       0.802757       0.04327
  17     162.9        9.3151        2.0765        7.9311       10.0076       0.692578       0.03522
  16     196.4        9.2682        2.4305        7.4333        9.8638       0.595598       0.02441
  15     218.7        9.2345        2.6532        7.1296        9.7828       0.548297       0.01796
  14     243.0        9.1975        2.8860        6.8161        9.7021       0.504620       0.01515
  13     269.0        9.1570        3.1280        6.4944        9.6224       0.465400       0.01272
  12     297.5        9.1132        3.3782        6.1659        9.5441       0.430826       0.01025
  11     328.5        9.0675        3.6356        5.8296        9.4652       0.397722       0.00900
  10     361.9        9.0204        3.8977        5.4889        9.3866       0.366239       0.00797
   9     398.1        8.9719        4.1639        5.1444        9.3083       0.336401       0.00695
   8     437.6        8.9226        4.4328        4.7974        9.2302       0.307640       0.00615
   7     480.5        8.8728        4.7024        4.4507        9.1531       0.280334       0.00536
   6     533.0        8.8158        5.0092        4.0571        9.0664       0.250573       0.00479
   5     589.8        8.7598        5.3112        3.6704        8.9815       0.221755       0.00428
   4     651.6        8.7054        5.6061        3.2928        8.8990       0.193554       0.00386
   3     718.7        8.6536        5.8900        2.9295        8.8195       0.165934       0.00347
   2     792.3        8.6048        6.1615        2.5822        8.7437       0.138893       0.00310
   1     891.5        8.5490        6.4803        2.1742        8.6545       0.105501       0.00284
   0    1013.0        8.4960        6.7999        1.7647        8.5646       0.068616       0.00256



 Wavenumbers: 38000. - 50000. cm-1, ATM      1
 LEVEL PRESSURE   UPWARD FLUX   DIFDOWN FLUX  DIRDOWN FLUX  DOWNWARD FLUX   NET FLUX    HEATING RATE
          mb          W/m2          W/m2          W/m2        W/m2          W/m2       degree/day
  51    .06700        0.0061        0.0000        1.2836        1.2836       1.277518       0.00000
  50    .07753        0.0061        0.0001        1.2812        1.2812       1.275183       1.87150
  49    .09103        0.0060        0.0002        1.2777        1.2778       1.271851       2.08247
  48    0.1069        0.0059        0.0002        1.2731        1.2734       1.267473       2.33059
  47    0.1255        0.0058        0.0004        1.2672        1.2675       1.261717       2.60908
  46    0.1487        0.0057        0.0005        1.2586        1.2591       1.253391       3.03499
  45    0.1794        0.0055        0.0007        1.2455        1.2462       1.240623       3.50520
  44    0.2165        0.0054        0.0009        1.2282        1.2291       1.223697       3.85037
  43    0.2613        0.0052        0.0011        1.2054        1.2065       1.201348       4.21261
  42    0.3336        0.0049        0.0015        1.1639        1.1654       1.160524       4.75970
  41    0.4307        0.0045        0.0020        1.1051        1.1070       1.102565       5.03943
  40    0.5894        0.0039        0.0026        1.0039        1.0064       1.002524       5.32007
  39     1.339        0.0022        0.0035        0.5438        0.5473       0.545105       5.14971
  38     1.782        0.0016        0.0032        0.3635        0.3666       0.365006       3.42879
  37     2.292        0.0012        0.0027        0.2356        0.2383       0.237058       2.11916
  36     2.964        0.0009        0.0022        0.1455        0.1477       0.146786       1.13318
  35     3.853        0.0006        0.0017        0.0858        0.0875       0.086906       0.56828
  34     5.035        0.0004        0.0013        0.0488        0.0501       0.049701       0.26578
  33     6.613        0.0003        0.0010        0.0273        0.0282       0.027974       0.11615
  32     8.786        0.0002        0.0007        0.0144        0.0151       0.014928       0.05067
  31     11.80        0.0001        0.0004        0.0065        0.0070       0.006903       0.02247
  30     15.07        0.0000        0.0003        0.0031        0.0034       0.003329       0.00923
  29     18.79        0.0000        0.0002        0.0014        0.0016       0.001583       0.00396
  28     23.16        0.0000        0.0001        0.0006        0.0007       0.000720       0.00167
  27     28.12        0.0000        0.0001        0.0003        0.0003       0.000317       0.00069
  26     33.73        0.0000        0.0000        0.0001        0.0001       0.000140       0.00027
  25     40.54        0.0000        0.0000        0.0000        0.0001       0.000057       0.00010
  24     48.69        0.0000        0.0000        0.0000        0.0000       0.000021       0.00004
  23     57.69        0.0000        0.0000        0.0000        0.0000       0.000008       0.00001
  22     68.43        0.0000        0.0000        0.0000        0.0000       0.000003       0.00000
  21     81.20        0.0000        0.0000        0.0000        0.0000       0.000001       0.00000
  20     96.49        0.0000        0.0000        0.0000        0.0000       0.000000       0.00000
  19     114.6        0.0000        0.0000        0.0000        0.0000       0.000000       0.00000
  18     136.5        0.0000        0.0000        0.0000        0.0000       0.000000       0.00000
  17     162.9        0.0000        0.0000        0.0000        0.0000       0.000000       0.00000
  16     196.4        0.0000        0.0000        0.0000        0.0000       0.000000       0.00000
  15     218.7        0.0000        0.0000        0.0000        0.0000       0.000000       0.00000
  14     243.0        0.0000        0.0000        0.0000        0.0000       0.000000       0.00000
  13     269.0        0.0000        0.0000        0.0000        0.0000       0.000000       0.00000
  12     297.5        0.0000        0.0000        0.0000        0.0000       0.000000       0.00000
  11     328.5        0.0000        0.0000        0.0000        0.0000       0.000000       0.00000
  10     361.9        0.0000        0.0000        0.0000        0.0000       0.000000       0.00000
   9     398.1        0.0000        0.0000        0.0000        0.0000       0.000000       0.00000
   8     437.6        0.0000        0.0000        0.0000        0.0000       0.000000       0.00000
   7     480.5        0.0000        0.0000        0.0000        0.0000       0.000000       0.00000
   6     533.0        0.0000        0.0000        0.0000        0.0000       0.000000       0.00000
   5     589.8        0.0000        0.0000        0.0000        0.0000       0.000000       0.00000
   4     651.6        0.0000        0.0000        0.0000        0.0000       0.000000       0.00000
   3     718.7        0.0000        0.0000        0.0000        0.0000       0.000000       0.00000
   2     792.3        0.0000        0.0000        0.0000        0.0000       0.000000       0.00000
   1     891.5        0.0000        0.0000        0.0000        0.0000       0.000000       0.00000
   0    1013.0        0.0000        0.0000        0.0000        0.0000       0.000000       0.00000



 Wavenumbers:   820. -  2600. cm-1, ATM      1
 LEVEL PRESSURE   UPWARD FLUX   DIFDOWN FLUX  DIRDOWN FLUX  DOWNWARD FLUX   NET FLUX    HEATING RATE
          mb          W/m2          W/m2          W/m2        W/m2          W/m2       degree/day
  51    .06700        0.0305        0.0000        6.0047        6.0047       5.974199       0.00000
  50    .07753        0.0305        0.0000        6.0009        6.0009       5.970413       3.03453
  49    .09103        0.0305        0.0000        6.0001        6.0001       5.969614       0.49902
  48    0.1069        0.0305        0.0000        5.9992        5.9992       5.968729       0.47105
  47    0.1255        0.0305        0.0000        5.9982        5.9982       5.967736       0.45012
  46    0.1487        0.0305        0.0000        5.9970        5.9970       5.966543       0.43512
  45    0.1794        0.0305        0.0000        5.9955        5.9955       5.965054       0.40868
  44    0.2165        0.0305        0.0000        5.9939        5.9939       5.963494       0.35478
  43    0.2613        0.0305        0.0000        5.9923        5.9923       5.961882       0.30400
  42    0.3336        0.0305        0.0000        5.9900        5.9900       5.959595       0.26656
  41    0.4307        0.0305        0.0000        5.9874        5.9874       5.956930       0.23178
  40    0.5894        0.0305        0.0000        5.9832        5.9832       5.952768       0.22133
  39     1.339        0.0305        0.0000        5.9641        5.9641       5.933638       0.21536
  38     1.782        0.0305        0.0000        5.9535        5.9535       5.923070       0.20121
  37     2.292        0.0305        0.0000        5.9417        5.9417       5.911227       0.19615
  36     2.964        0.0305        0.0000        5.9266        5.9266       5.896153       0.18922
  35     3.853        0.0305        0.0000        5.9074        5.9074       5.876986       0.18190
  34     5.035        0.0305        0.0000        5.8831        5.8831       5.852655       0.17381
  33     6.613        0.0305        0.0000        5.8515        5.8515       5.821076       0.16882
  32     8.786        0.0305        0.0000        5.8096        5.8096       5.779129       0.16291
  31     11.80        0.0305        0.0000        5.7540        5.7540       5.723530       0.15566
  30     15.07        0.0305        0.0000        5.7048        5.7048       5.674373       0.12691
  29     18.79        0.0305        0.0000        5.6640        5.6640       5.633573       0.09251
  28     23.16        0.0305        0.0000        5.6326        5.6326       5.602177       0.06071
  27     28.12        0.0305        0.0000        5.6098        5.6098       5.579390       0.03874
  26     33.73        0.0305        0.0000        5.5918        5.5918       5.561337       0.02714
  25     40.54        0.0305        0.0000        5.5732        5.5732       5.542707       0.02311
  24     48.69        0.0305        0.0000        5.5513        5.5513       5.520829       0.02264
  23     57.69        0.0305        0.0000        5.5268        5.5269       5.496400       0.02290
  22     68.43        0.0305        0.0000        5.4973        5.4973       5.466809       0.02326
  21     81.20        0.0305        0.0000        5.4624        5.4624       5.431925       0.02305
  20     96.49        0.0305        0.0000        5.4214        5.4214       5.390955       0.02261
  19     114.6        0.0305        0.0000        5.3745        5.3745       5.344073       0.02189
  18     136.5        0.0305        0.0000        5.3221        5.3222       5.291702       0.02014
  17     162.9        0.0305        0.0000        5.2633        5.2633       5.232868       0.01881
  16     196.4        0.0305        0.0000        5.1906        5.1906       5.160177       0.01830
  15     218.7        0.0305        0.0000        5.1416        5.1417       5.111190       0.01860
  14     243.0        0.0305        0.0000        5.0826        5.0826       5.052131       0.02048
  13     269.0        0.0305        0.0000        5.0090        5.0090       4.978546       0.02387
  12     297.5        0.0305        0.0000        4.9158        4.9159       4.885371       0.02763
  11     328.5        0.0305        0.0000        4.8134        4.8135       4.782956       0.02785
  10     361.9        0.0305        0.0000        4.7067        4.7068       4.676246       0.02700
   9     398.1        0.0305        0.0000        4.5987        4.5987       4.568151       0.02518
   8     437.6        0.0306        0.0000        4.4859        4.4860       4.455391       0.02411
   7     480.5        0.0306        0.0000        4.3615        4.3615       4.330897       0.02445
   6     533.0        0.0307        0.0000        4.1893        4.1893       4.158647       0.02771
   5     589.8        0.0307        0.0001        3.9726        3.9726       3.941884       0.03217
   4     651.6        0.0309        0.0001        3.7107        3.7108       3.679903       0.03583
   3     718.7        0.0311        0.0001        3.4655        3.4655       3.434472       0.03084
   2     792.3        0.0314        0.0001        3.2850        3.2850       3.253620       0.02074
   1     891.5        0.0321        0.0001        3.1305        3.1306       3.098488       0.01320
   0    1013.0        0.0336        0.0001        2.9479        2.9480       2.914373       0.01278

  Modules and versions used in this calculation:

       rrtmg_sw.1col.f90:  $Revision$                    rrtmg_sw_init.f90:  $Revision$        
     rrtmgsw_cldprop.f90:  $Revision$                  rrtmgsw_cldprmc.f90:  NOT USED          
     rrtmg_sw_reftra.f90:  $Revision$                  rrtmg_sw_spcvrt.f90:  NOT USED          
     rrtmg_sw_spcvmc.f90:  NOT USED                    rrtmgsw_setcoef.f90:  NOT USED          
     rrtmg_sw_taumol.f90:  $Revision$                  rrtmg_sw_vrtqdr.f90:  NOT USED          
                rrtatm.f:  NOT USED                             util_xxx.f:  NOT USED          
                 extra.f:  NOT USED                       rrtmg_sw_k_g.f90:  $Revision$        

