

 Wavenumbers:   820. - 50000. cm-1, ATM      1
 LEVEL PRESSURE   UPWARD FLUX   DIFDOWN FLUX  DIRDOWN FLUX  DOWNWARD FLUX   NET FLUX    HEATING RATE
          mb          W/m2          W/m2          W/m2        W/m2          W/m2       degree/day
  51    .06700      430.1060        0.0000      617.8126      617.8126     187.706526       0.00000
  50    .07753      430.1057        0.0013      617.7950      617.7964     187.690678      12.70174
  49    .09103      430.1052        0.0030      617.7784      617.7815     187.676225       9.03401
  48    0.1069      430.1047        0.0050      617.7591      617.7641     187.659361       8.97637
  47    0.1255      430.1042        0.0072      617.7355      617.7427     187.638459       9.47618
  46    0.1487      430.1037        0.0100      617.7029      617.7130     187.609323      10.62022
  45    0.1794      430.1029        0.0139      617.6549      617.6688     187.565822      11.94212
  44    0.2165      430.1022        0.0184      617.5931      617.6116     187.509352      12.84598
  43    0.2613      430.1015        0.0238      617.5136      617.5374     187.435851      13.85464
  42    0.3336      430.1007        0.0326      617.3705      617.4032     187.302467      15.55130
  41    0.4307      430.1000        0.0443      617.1679      617.2122     187.112130      16.54936
  40    0.5894      430.1000        0.0630      616.8131      616.8761     186.776192      17.86476
  39     1.339      430.1180        0.1479      614.9735      615.1214     185.003379      19.95865
  38     1.782      430.1415        0.1956      614.0048      614.2004     184.058998      17.97949
  37     2.292      430.1802        0.2500      613.0528      613.3028     183.122593      15.50930
  36     2.964      430.2487        0.3206      612.0158      612.3364     182.087736      12.99058
  35     3.853      430.3635        0.4132      610.8743      611.2875     180.923951      11.04453
  34     5.035      430.5402        0.5354      609.6216      610.1570     179.616850       9.33739
  33     6.613      430.7889        0.6976      608.2560      608.9536     178.164710       7.76315
  32     8.786      431.1130        0.9153      606.7589      607.6741     176.561161       6.22760
  31     11.80      431.5327        1.2251      605.0114      606.2365     174.703893       5.19977
  30     15.07      431.9321        1.5558      603.4327      604.9885     173.056354       4.25362
  29     18.79      432.3377        1.9278      601.8659      603.7937     171.455973       3.62856
  28     23.16      432.7588        2.3601      600.2359      602.5960     169.837210       3.13017
  27     28.12      433.1788        2.8522      598.5624      601.4146     168.235799       2.72229
  26     33.73      433.5586        3.4007      596.9014      600.3021     166.743490       2.24373
  25     40.54      433.9126        4.0611      595.1136      599.1748     165.262203       1.83770
  24     48.69      434.2377        4.8536      593.1646      598.0182     163.780504       1.53333
  23     57.69      434.4962        5.7199      591.2114      596.9313     162.435067       1.26114
  22     68.43      434.6973        6.7462      589.0761      595.8223     161.125059       1.02984
  21     81.20      434.7883        7.9630      586.7718      594.7349     159.946613       0.77870
  20     96.49      434.7591        9.4038      584.2494      593.6532     158.894100       0.58091
  19     114.6      434.6645       11.0985      581.3946      592.4931     157.828601       0.49751
  18     136.5      434.5083       13.0830      578.1415      591.2245     156.716213       0.42774
  17     162.9      434.2848       15.4119      574.4024      589.8143     155.529480       0.37933
  16     196.4      433.9080       18.3819      569.7515      588.1334     154.225392       0.32825
  15     218.7      433.6319       20.3023      566.6996      587.0019     153.370029       0.32475
  14     243.0      433.3224       22.3623      563.2755      585.6378     152.315397       0.36578
  13     269.0      432.9783       24.5635      559.3963      583.9598     150.981494       0.43271
  12     297.5      432.6009       26.9067      555.0561      581.9628     149.361879       0.48036
  11     328.5      432.1980       29.3982      550.2867      579.6848     147.486817       0.50982
  10     361.9      431.7726       32.0342      545.0419      577.0761     145.303502       0.55240
   9     398.1      431.3276       34.8198      539.2736      574.0934     142.765835       0.59122
   8     437.6      430.8709       37.7541      532.9434      570.6975     139.826621       0.62842
   7     480.5      430.4093       40.8357      526.0906      566.9264     136.517017       0.64999
   6     533.0      429.8915       44.5419      517.5397      562.0817     132.190187       0.69605
   5     589.8      429.4175       48.4335      508.0459      556.4794     127.061871       0.76121
   4     651.6      429.0618       52.5033      497.2030      549.7063     120.644514       0.87759
   3     718.7      428.9142       56.7442      485.2780      542.0222     113.107992       0.94713
   2     792.3      429.1643       61.1386      472.2946      533.4332     104.268870       1.01375
   1     891.5      430.5107       66.8392      454.9103      521.7495      91.238827       1.10879
   0    1013.0      434.6211       73.3636      435.0494      508.4130      73.791875       1.21143



 Wavenumbers:  2600. -  3250. cm-1, ATM      1
 LEVEL PRESSURE   UPWARD FLUX   DIFDOWN FLUX  DIRDOWN FLUX  DOWNWARD FLUX   NET FLUX    HEATING RATE
          mb          W/m2          W/m2          W/m2        W/m2          W/m2       degree/day
  51    .06700        2.0595        0.0000        5.4450        5.4450       3.385520       0.00000
  50    .07753        2.0595        0.0000        5.4450        5.4450       3.385512       0.00640
  49    .09103        2.0595        0.0000        5.4450        5.4450       3.385502       0.00627
  48    0.1069        2.0595        0.0000        5.4450        5.4450       3.385490       0.00613
  47    0.1255        2.0595        0.0000        5.4450        5.4450       3.385477       0.00599
  46    0.1487        2.0595        0.0000        5.4450        5.4450       3.385461       0.00608
  45    0.1794        2.0595        0.0000        5.4450        5.4450       3.385438       0.00625
  44    0.2165        2.0595        0.0000        5.4449        5.4449       3.385411       0.00612
  43    0.2613        2.0595        0.0000        5.4449        5.4449       3.385379       0.00600
  42    0.3336        2.0595        0.0000        5.4448        5.4448       3.385326       0.00617
  41    0.4307        2.0595        0.0000        5.4448        5.4448       3.385255       0.00620
  40    0.5894        2.0595        0.0000        5.4446        5.4446       3.385135       0.00637
  39     1.339        2.0595        0.0000        5.4439        5.4439       3.384427       0.00797
  38     1.782        2.0595        0.0000        5.4434        5.4434       3.383884       0.01034
  37     2.292        2.0595        0.0000        5.4427        5.4427       3.383168       0.01186
  36     2.964        2.0595        0.0000        5.4416        5.4416       3.382130       0.01304
  35     3.853        2.0595        0.0000        5.4402        5.4402       3.380652       0.01402
  34     5.035        2.0595        0.0000        5.4381        5.4381       3.378596       0.01469
  33     6.613        2.0595        0.0000        5.4353        5.4353       3.375814       0.01487
  32     8.786        2.0595        0.0000        5.4317        5.4317       3.372180       0.01411
  31     11.80        2.0595        0.0000        5.4269        5.4269       3.367396       0.01339
  30     15.07        2.0595        0.0000        5.4224        5.4224       3.362865       0.01170
  29     18.79        2.0595        0.0000        5.4180        5.4180       3.358446       0.01002
  28     23.16        2.0595        0.0000        5.4135        5.4135       3.353949       0.00869
  27     28.12        2.0596        0.0000        5.4088        5.4088       3.349287       0.00793
  26     33.73        2.0596        0.0000        5.4036        5.4036       3.344025       0.00791
  25     40.54        2.0596        0.0000        5.3966        5.3967       3.337050       0.00865
  24     48.69        2.0597        0.0000        5.3872        5.3872       3.327524       0.00986
  23     57.69        2.0597        0.0000        5.3754        5.3754       3.315671       0.01111
  22     68.43        2.0598        0.0000        5.3599        5.3599       3.300086       0.01225
  21     81.20        2.0600        0.0000        5.3401        5.3401       3.280114       0.01320
  20     96.49        2.0602        0.0000        5.3155        5.3155       3.255355       0.01367
  19     114.6        2.0604        0.0001        5.2860        5.2861       3.225604       0.01389
  18     136.5        2.0608        0.0001        5.2518        5.2519       3.191034       0.01329
  17     162.9        2.0613        0.0001        5.2134        5.2135       3.152131       0.01243
  16     196.4        2.0621        0.0001        5.1686        5.1687       3.106578       0.01147
  15     218.7        2.0627        0.0001        5.1420        5.1421       3.079333       0.01034
  14     243.0        2.0635        0.0001        5.1148        5.1149       3.051351       0.00970
  13     269.0        2.0646        0.0001        5.0864        5.0865       3.021874       0.00956
  12     297.5        2.0661        0.0001        5.0555        5.0556       2.989449       0.00962
  11     328.5        2.0682        0.0001        5.0214        5.0216       2.953357       0.00981
  10     361.9        2.0710        0.0002        4.9835        4.9836       2.912619       0.01031
   9     398.1        2.0745        0.0002        4.9403        4.9405       2.865957       0.01087
   8     437.6        2.0792        0.0002        4.8889        4.8891       2.809890       0.01199
   7     480.5        2.0852        0.0002        4.8268        4.8270       2.741846       0.01336
   6     533.0        2.0943        0.0002        4.7387        4.7390       2.644626       0.01564
   5     589.8        2.1070        0.0002        4.6264        4.6266       2.519650       0.01855
   4     651.6        2.1254        0.0003        4.4775        4.4778       2.352351       0.02288
   3     718.7        2.1526        0.0003        4.2914        4.2916       2.139077       0.02680
   2     792.3        2.1936        0.0003        4.0694        4.0697       1.876084       0.03016
   1     891.5        2.2776        0.0003        3.7598        3.7601       1.482501       0.03349
   0    1013.0        2.4463        0.0003        3.4062        3.4065       0.960274       0.03626



 Wavenumbers:  3250. -  4000. cm-1, ATM      1
 LEVEL PRESSURE   UPWARD FLUX   DIFDOWN FLUX  DIRDOWN FLUX  DOWNWARD FLUX   NET FLUX    HEATING RATE
          mb          W/m2          W/m2          W/m2        W/m2          W/m2       degree/day
  51    .06700        0.2991        0.0000        9.1795        9.1795       8.880433       0.00000
  50    .07753        0.2991        0.0000        9.1748        9.1748       8.875746       3.75641
  49    .09103        0.2991        0.0000        9.1716        9.1716       8.872536       2.00613
  48    0.1069        0.2991        0.0000        9.1693        9.1693       8.870198       1.24463
  47    0.1255        0.2991        0.0000        9.1672        9.1672       8.868130       0.93773
  46    0.1487        0.2991        0.0000        9.1650        9.1650       8.865910       0.80912
  45    0.1794        0.2991        0.0000        9.1624        9.1624       8.863299       0.71680
  44    0.2165        0.2991        0.0000        9.1598        9.1598       8.860665       0.59922
  43    0.2613        0.2991        0.0000        9.1571        9.1571       8.858014       0.49972
  42    0.3336        0.2991        0.0000        9.1535        9.1535       8.854363       0.42565
  41    0.4307        0.2991        0.0000        9.1494        9.1494       8.850296       0.35359
  40    0.5894        0.2991        0.0000        9.1435        9.1435       8.844409       0.31309
  39     1.339        0.2991        0.0000        9.1204        9.1204       8.821342       0.25969
  38     1.782        0.2991        0.0000        9.1100        9.1100       8.810877       0.19925
  37     2.292        0.2991        0.0000        9.0998        9.0998       8.800736       0.16795
  36     2.964        0.2991        0.0000        9.0884        9.0884       8.789307       0.14348
  35     3.853        0.2991        0.0000        9.0749        9.0749       8.775804       0.12814
  34     5.035        0.2991        0.0000        9.0580        9.0580       8.758923       0.12059
  33     6.613        0.2991        0.0000        9.0357        9.0357       8.736588       0.11941
  32     8.786        0.2991        0.0000        9.0045        9.0045       8.705404       0.12110
  31     11.80        0.2991        0.0000        8.9577        8.9578       8.658673       0.13083
  30     15.07        0.2991        0.0000        8.9055        8.9055       8.606453       0.13482
  29     18.79        0.2991        0.0000        8.8450        8.8450       8.545975       0.13712
  28     23.16        0.2991        0.0000        8.7743        8.7744       8.475285       0.13669
  27     28.12        0.2991        0.0000        8.6959        8.6959       8.396884       0.13328
  26     33.73        0.2991        0.0000        8.6138        8.6139       8.314818       0.12339
  25     40.54        0.2990        0.0001        8.5238        8.5239       8.224811       0.11166
  24     48.69        0.2990        0.0001        8.4278        8.4278       8.128799       0.09936
  23     57.69        0.2990        0.0001        8.3329        8.3330       8.033969       0.08889
  22     68.43        0.2990        0.0001        8.2272        8.2273       7.928294       0.08307
  21     81.20        0.2990        0.0001        8.1052        8.1053       7.806305       0.08061
  20     96.49        0.2990        0.0001        7.9633        7.9634       7.664438       0.07830
  19     114.6        0.2990        0.0001        7.8011        7.8013       7.502314       0.07570
  18     136.5        0.2989        0.0002        7.6230        7.6232       7.324259       0.06847
  17     162.9        0.2989        0.0002        7.4291        7.4293       7.130351       0.06198
  16     196.4        0.2989        0.0002        7.1966        7.1969       6.897985       0.05849
  15     218.7        0.2989        0.0003        7.0331        7.0334       6.734529       0.06206
  14     243.0        0.2989        0.0003        6.8230        6.8232       6.524393       0.07288
  13     269.0        0.2989        0.0003        6.5413        6.5416       6.242678       0.09139
  12     297.5        0.2990        0.0003        6.2248        6.2251       5.926120       0.09389
  11     328.5        0.2991        0.0003        5.8996        5.8999       5.600797       0.08845
  10     361.9        0.2994        0.0003        5.5606        5.5610       5.261578       0.08583
   9     398.1        0.2998        0.0004        5.1883        5.1886       4.888758       0.08686
   8     437.6        0.3006        0.0004        4.7712        4.7716       4.470993       0.08932
   7     480.5        0.3018        0.0004        4.3336        4.3340       4.032204       0.08618
   6     533.0        0.3039        0.0004        3.8334        3.8338       3.529843       0.08081
   5     589.8        0.3076        0.0003        3.3421        3.3424       3.034796       0.07348
   4     651.6        0.3145        0.0003        2.8359        2.8363       2.521803       0.07015
   3     718.7        0.3268        0.0003        2.3447        2.3450       2.018179       0.06329
   2     792.3        0.3499        0.0003        1.8697        1.8700       1.520076       0.05713
   1     891.5        0.4101        0.0002        1.3212        1.3215       0.911349       0.05180
   0    1013.0        0.5814        0.0002        0.8094        0.8096       0.228210       0.04743



 Wavenumbers:  4000. -  4650. cm-1, ATM      1
 LEVEL PRESSURE   UPWARD FLUX   DIFDOWN FLUX  DIRDOWN FLUX  DOWNWARD FLUX   NET FLUX    HEATING RATE
          mb          W/m2          W/m2          W/m2        W/m2          W/m2       degree/day
  51    .06700        5.7786        0.0000       10.7795       10.7795       5.000910       0.00000
  50    .07753        5.7786        0.0000       10.7795       10.7795       5.000908       0.00082
  49    .09103        5.7786        0.0000       10.7795       10.7795       5.000907       0.00081
  48    0.1069        5.7786        0.0000       10.7795       10.7795       5.000906       0.00079
  47    0.1255        5.7786        0.0000       10.7795       10.7795       5.000904       0.00077
  46    0.1487        5.7786        0.0000       10.7795       10.7795       5.000902       0.00078
  45    0.1794        5.7786        0.0000       10.7795       10.7795       5.000899       0.00081
  44    0.2165        5.7786        0.0000       10.7795       10.7795       5.000895       0.00079
  43    0.2613        5.7786        0.0000       10.7795       10.7795       5.000891       0.00078
  42    0.3336        5.7786        0.0000       10.7795       10.7795       5.000884       0.00080
  41    0.4307        5.7786        0.0000       10.7795       10.7795       5.000875       0.00080
  40    0.5894        5.7786        0.0000       10.7795       10.7795       5.000860       0.00083
  39     1.339        5.7786        0.0000       10.7794       10.7794       5.000767       0.00105
  38     1.782        5.7786        0.0000       10.7793       10.7793       5.000694       0.00138
  37     2.292        5.7786        0.0000       10.7792       10.7792       5.000597       0.00162
  36     2.964        5.7786        0.0000       10.7791       10.7791       5.000451       0.00183
  35     3.853        5.7786        0.0000       10.7788       10.7789       5.000235       0.00205
  34     5.035        5.7786        0.0000       10.7785       10.7785       4.999916       0.00228
  33     6.613        5.7786        0.0000       10.7780       10.7781       4.999447       0.00251
  32     8.786        5.7786        0.0000       10.7773       10.7774       4.998754       0.00269
  31     11.80        5.7786        0.0001       10.7762       10.7763       4.997664       0.00305
  30     15.07        5.7787        0.0001       10.7750       10.7750       4.996384       0.00331
  29     18.79        5.7787        0.0001       10.7734       10.7735       4.994833       0.00352
  28     23.16        5.7787        0.0001       10.7715       10.7716       4.992904       0.00373
  27     28.12        5.7787        0.0001       10.7692       10.7693       4.990564       0.00398
  26     33.73        5.7788        0.0002       10.7663       10.7665       4.987672       0.00435
  25     40.54        5.7789        0.0002       10.7624       10.7626       4.983739       0.00488
  24     48.69        5.7790        0.0002       10.7573       10.7575       4.978483       0.00544
  23     57.69        5.7792        0.0003       10.7512       10.7514       4.972231       0.00586
  22     68.43        5.7795        0.0003       10.7435       10.7439       4.964367       0.00618
  21     81.20        5.7799        0.0004       10.7341       10.7345       4.954643       0.00643
  20     96.49        5.7805        0.0005       10.7227       10.7232       4.942756       0.00656
  19     114.6        5.7812        0.0005       10.7090       10.7095       4.928324       0.00674
  18     136.5        5.7822        0.0007       10.6924       10.6931       4.910846       0.00672
  17     162.9        5.7836        0.0008       10.6724       10.6732       4.889567       0.00680
  16     196.4        5.7858        0.0009       10.6460       10.6470       4.861207       0.00714
  15     218.7        5.7874        0.0010       10.6281       10.6291       4.841700       0.00741
  14     243.0        5.7895        0.0012       10.6073       10.6085       4.818947       0.00789
  13     269.0        5.7923        0.0013       10.5830       10.5842       4.791946       0.00876
  12     297.5        5.7958        0.0014       10.5538       10.5552       4.759377       0.00966
  11     328.5        5.8003        0.0016       10.5196       10.5212       4.720881       0.01047
  10     361.9        5.8058        0.0017       10.4799       10.4816       4.675776       0.01141
   9     398.1        5.8128        0.0019       10.4337       10.4355       4.622776       0.01235
   8     437.6        5.8215        0.0020       10.3790       10.3810       4.559511       0.01353
   7     480.5        5.8324        0.0022       10.3138       10.3160       4.483595       0.01491
   6     533.0        5.8485        0.0025       10.2227       10.2251       4.376624       0.01721
   5     589.8        5.8697        0.0027       10.1072       10.1098       4.240134       0.02026
   4     651.6        5.8995        0.0029        9.9543        9.9573       4.057758       0.02494
   3     718.7        5.9396        0.0032        9.7665        9.7697       3.830145       0.02860
   2     792.3        5.9965        0.0035        9.5454        9.5488       3.552346       0.03186
   1     891.5        6.1085        0.0038        9.2274        9.2312       3.122655       0.03656
   0    1013.0        6.3283        0.0042        8.8080        8.8121       2.483824       0.04436



 Wavenumbers:  4650. -  5150. cm-1, ATM      1
 LEVEL PRESSURE   UPWARD FLUX   DIFDOWN FLUX  DIRDOWN FLUX  DOWNWARD FLUX   NET FLUX    HEATING RATE
          mb          W/m2          W/m2          W/m2        W/m2          W/m2       degree/day
  51    .06700        4.0056        0.0000       10.2033       10.2033       6.197700       0.00000
  50    .07753        4.0056        0.0000       10.2031       10.2031       6.197470       0.18423
  49    .09103        4.0056        0.0000       10.2028       10.2028       6.197182       0.17964
  48    0.1069        4.0056        0.0000       10.2025       10.2025       6.196854       0.17480
  47    0.1255        4.0056        0.0000       10.2021       10.2021       6.196479       0.16989
  46    0.1487        4.0056        0.0000       10.2017       10.2017       6.196010       0.17098
  45    0.1794        4.0056        0.0000       10.2010       10.2010       6.195376       0.17407
  44    0.2165        4.0056        0.0000       10.2003       10.2003       6.194635       0.16850
  43    0.2613        4.0056        0.0000       10.1994       10.1994       6.193772       0.16279
  42    0.3336        4.0056        0.0000       10.1980       10.1980       6.192374       0.16293
  41    0.4307        4.0056        0.0000       10.1962       10.1962       6.190579       0.15613
  40    0.5894        4.0056        0.0000       10.1934       10.1934       6.187774       0.14915
  39     1.339        4.0056        0.0000       10.1821       10.1821       6.176455       0.12744
  38     1.782        4.0056        0.0000       10.1767       10.1767       6.171052       0.10286
  37     2.292        4.0056        0.0000       10.1713       10.1714       6.165717       0.08836
  36     2.964        4.0056        0.0000       10.1655       10.1656       6.159921       0.07276
  35     3.853        4.0056        0.0000       10.1594       10.1595       6.153832       0.05779
  34     5.035        4.0056        0.0000       10.1532       10.1532       6.147610       0.04444
  33     6.613        4.0056        0.0000       10.1468       10.1469       6.141250       0.03400
  32     8.786        4.0056        0.0001       10.1399       10.1400       6.134317       0.02692
  31     11.80        4.0057        0.0001       10.1309       10.1310       6.125346       0.02512
  30     15.07        4.0057        0.0001       10.1211       10.1212       6.115524       0.02536
  29     18.79        4.0057        0.0001       10.1092       10.1093       6.103575       0.02709
  28     23.16        4.0058        0.0002       10.0940       10.0941       6.088338       0.02946
  27     28.12        4.0059        0.0002       10.0750       10.0752       6.069320       0.03233
  26     33.73        4.0060        0.0002       10.0521       10.0523       6.046307       0.03460
  25     40.54        4.0062        0.0003       10.0224       10.0227       6.016495       0.03699
  24     48.69        4.0065        0.0003        9.9845        9.9849       5.978417       0.03940
  23     57.69        4.0068        0.0004        9.9414        9.9418       5.934953       0.04074
  22     68.43        4.0073        0.0005        9.8891        9.8895       5.882261       0.04142
  21     81.20        4.0079        0.0005        9.8272        9.8278       5.819838       0.04125
  20     96.49        4.0089        0.0006        9.7561        9.7567       5.747855       0.03973
  19     114.6        4.0101        0.0008        9.6769        9.6777       5.667578       0.03748
  18     136.5        4.0119        0.0009        9.5915        9.5924       5.580501       0.03348
  17     162.9        4.0143        0.0011        9.5005        9.5016       5.487294       0.02979
  16     196.4        4.0180        0.0013        9.3959        9.3972       5.379142       0.02722
  15     218.7        4.0209        0.0014        9.3320        9.3334       5.312586       0.02527
  14     243.0        4.0243        0.0016        9.2645        9.2661       5.241731       0.02457
  13     269.0        4.0286        0.0017        9.1918        9.1936       5.164970       0.02490
  12     297.5        4.0338        0.0019        9.1119        9.1138       5.079983       0.02521
  11     328.5        4.0403        0.0021        9.0232        9.0253       4.985035       0.02582
  10     361.9        4.0482        0.0023        8.9239        8.9262       4.878042       0.02707
   9     398.1        4.0579        0.0025        8.8123        8.8147       4.756834       0.02824
   8     437.6        4.0701        0.0027        8.6862        8.6889       4.618770       0.02952
   7     480.5        4.0853        0.0029        8.5445        8.5475       4.462127       0.03076
   6     533.0        4.1078        0.0032        8.3606        8.3638       4.256017       0.03316
   5     589.8        4.1373        0.0035        8.1520        8.1554       4.018080       0.03532
   4     651.6        4.1766        0.0037        7.9157        7.9194       3.742845       0.03764
   3     718.7        4.2294        0.0040        7.6501        7.6541       3.424644       0.03999
   2     792.3        4.3019        0.0043        7.3568        7.3610       3.059103       0.04192
   1     891.5        4.4344        0.0046        6.9580        6.9626       2.528217       0.04518
   0    1013.0        4.6690        0.0050        6.4963        6.5013       1.832343       0.04832



 Wavenumbers:  5150. -  6150. cm-1, ATM      1
 LEVEL PRESSURE   UPWARD FLUX   DIFDOWN FLUX  DIRDOWN FLUX  DOWNWARD FLUX   NET FLUX    HEATING RATE
          mb          W/m2          W/m2          W/m2        W/m2          W/m2       degree/day
  51    .06700       10.0193        0.0000       25.5798       25.5798      15.560543       0.00000
  50    .07753       10.0193        0.0000       25.5798       25.5798      15.560537       0.00438
  49    .09103       10.0193        0.0000       25.5798       25.5798      15.560530       0.00444
  48    0.1069       10.0193        0.0000       25.5798       25.5798      15.560522       0.00450
  47    0.1255       10.0193        0.0000       25.5798       25.5798      15.560512       0.00457
  46    0.1487       10.0193        0.0000       25.5798       25.5798      15.560498       0.00480
  45    0.1794       10.0193        0.0000       25.5798       25.5798      15.560480       0.00511
  44    0.2165       10.0193        0.0000       25.5797       25.5797      15.560457       0.00518
  43    0.2613       10.0193        0.0000       25.5797       25.5797      15.560429       0.00525
  42    0.3336       10.0193        0.0000       25.5796       25.5797      15.560382       0.00555
  41    0.4307       10.0193        0.0000       25.5796       25.5796      15.560317       0.00563
  40    0.5894       10.0193        0.0000       25.5795       25.5795      15.560208       0.00578
  39     1.339       10.0193        0.0000       25.5789       25.5789      15.559675       0.00600
  38     1.782       10.0193        0.0001       25.5786       25.5786      15.559357       0.00606
  37     2.292       10.0193        0.0001       25.5782       25.5783      15.558990       0.00608
  36     2.964       10.0193        0.0001       25.5777       25.5778      15.558514       0.00598
  35     3.853       10.0193        0.0001       25.5770       25.5772      15.557894       0.00588
  34     5.035       10.0193        0.0002       25.5762       25.5764      15.557074       0.00586
  33     6.613       10.0193        0.0002       25.5751       25.5753      15.555975       0.00587
  32     8.786       10.0193        0.0003       25.5736       25.5738      15.554495       0.00575
  31     11.80       10.0194        0.0004       25.5714       25.5718      15.552389       0.00590
  30     15.07       10.0194        0.0005       25.5691       25.5696      15.550150       0.00578
  29     18.79       10.0195        0.0006       25.5666       25.5672      15.547666       0.00563
  28     23.16       10.0196        0.0007       25.5637       25.5645      15.544813       0.00552
  27     28.12       10.0198        0.0009       25.5605       25.5614      15.541601       0.00546
  26     33.73       10.0200        0.0011       25.5570       25.5580      15.538062       0.00532
  25     40.54       10.0202        0.0013       25.5528       25.5541      15.533826       0.00526
  24     48.69       10.0206        0.0015       25.5479       25.5494      15.528815       0.00519
  23     57.69       10.0211        0.0018       25.5426       25.5445      15.523355       0.00512
  22     68.43       10.0217        0.0021       25.5365       25.5386      15.516909       0.00507
  21     81.20       10.0225        0.0025       25.5292       25.5317      15.509254       0.00506
  20     96.49       10.0234        0.0030       25.5205       25.5235      15.500058       0.00508
  19     114.6       10.0246        0.0036       25.5099       25.5135      15.488907       0.00521
  18     136.5       10.0261        0.0043       25.4971       25.5014      15.475262       0.00525
  17     162.9       10.0279        0.0051       25.4782       25.4832      15.455352       0.00636
  16     196.4       10.0303        0.0061       25.4384       25.4445      15.414192       0.01036
  15     218.7       10.0320        0.0068       25.3784       25.3852      15.353268       0.02313
  14     243.0       10.0339        0.0075       25.2634       25.2710      15.237106       0.04029
  13     269.0       10.0360        0.0083       25.0877       25.0960      15.059975       0.05746
  12     297.5       10.0386        0.0091       24.8437       24.8528      14.814238       0.07288
  11     328.5       10.0415        0.0100       24.5237       24.5337      14.492172       0.08757
  10     361.9       10.0450        0.0109       24.1240       24.1348      14.089810       0.10180
   9     398.1       10.0492        0.0118       23.6642       23.6759      13.626742       0.10788
   8     437.6       10.0543        0.0127       23.1549       23.1676      13.113304       0.10978
   7     480.5       10.0607        0.0137       22.5903       22.6040      12.543313       0.11194
   6     533.0       10.0702        0.0148       21.8293       21.8441      11.773875       0.12378
   5     589.8       10.0837        0.0159       20.9138       20.9296      10.845893       0.13774
   4     651.6       10.1052        0.0168       19.8060       19.8228       9.717638       0.15429
   3     718.7       10.1398        0.0177       18.6107       18.6285       8.488635       0.15445
   2     792.3       10.1994        0.0186       17.3896       17.4082       7.208841       0.14678
   1     891.5       10.3421        0.0197       16.0291       16.0488       5.706653       0.12783
   0    1013.0       10.7153        0.0211       14.8983       14.9194       4.204185       0.10432



 Wavenumbers:  6150. -  7700. cm-1, ATM      1
 LEVEL PRESSURE   UPWARD FLUX   DIFDOWN FLUX  DIRDOWN FLUX  DOWNWARD FLUX   NET FLUX    HEATING RATE
          mb          W/m2          W/m2          W/m2        W/m2          W/m2       degree/day
  51    .06700       17.6129        0.0000       47.3108       47.3108      29.697901       0.00000
  50    .07753       17.6129        0.0000       47.3108       47.3108      29.697880       0.01730
  49    .09103       17.6129        0.0000       47.3108       47.3108      29.697853       0.01712
  48    0.1069       17.6129        0.0000       47.3108       47.3108      29.697821       0.01692
  47    0.1255       17.6129        0.0000       47.3107       47.3107      29.697784       0.01673
  46    0.1487       17.6129        0.0000       47.3107       47.3107      29.697737       0.01716
  45    0.1794       17.6129        0.0000       47.3106       47.3106      29.697672       0.01783
  44    0.2165       17.6129        0.0000       47.3105       47.3105      29.697594       0.01767
  43    0.2613       17.6129        0.0000       47.3104       47.3104      29.697501       0.01752
  42    0.3336       17.6129        0.0000       47.3102       47.3103      29.697346       0.01811
  41    0.4307       17.6129        0.0000       47.3100       47.3101      29.697138       0.01806
  40    0.5894       17.6129        0.0001       47.3096       47.3097      29.696796       0.01820
  39     1.339       17.6128        0.0002       47.3078       47.3080      29.695166       0.01835
  38     1.782       17.6128        0.0002       47.3068       47.3070      29.694210       0.01819
  37     2.292       17.6128        0.0003       47.3056       47.3059      29.693112       0.01820
  36     2.964       17.6127        0.0004       47.3040       47.3044      29.691683       0.01793
  35     3.853       17.6127        0.0005       47.3020       47.3025      29.689817       0.01771
  34     5.035       17.6126        0.0007       47.2993       47.2999      29.687359       0.01756
  33     6.613       17.6124        0.0009       47.2957       47.2965      29.684098       0.01743
  32     8.786       17.6123        0.0011       47.2909       47.2920      29.679746       0.01690
  31     11.80       17.6120        0.0015       47.2841       47.2856      29.673605       0.01719
  30     15.07       17.6118        0.0020       47.2769       47.2789      29.667124       0.01673
  29     18.79       17.6115        0.0025       47.2690       47.2714      29.659945       0.01628
  28     23.16       17.6112        0.0030       47.2598       47.2629      29.651729       0.01589
  27     28.12       17.6108        0.0037       47.2496       47.2533      29.642530       0.01564
  26     33.73       17.6103        0.0044       47.2384       47.2428      29.632502       0.01508
  25     40.54       17.6098        0.0053       47.2252       47.2305      29.620734       0.01460
  24     48.69       17.6092        0.0064       47.2098       47.2162      29.607036       0.01417
  23     57.69       17.6085        0.0076       47.1934       47.2010      29.592461       0.01366
  22     68.43       17.6077        0.0090       47.1743       47.1833      29.575636       0.01323
  21     81.20       17.6067        0.0106       47.1522       47.1629      29.556180       0.01286
  20     96.49       17.6055        0.0126       47.1265       47.1391      29.533597       0.01246
  19     114.6       17.6041        0.0150       47.0965       47.1115      29.507331       0.01226
  18     136.5       17.6025        0.0178       47.0614       47.0792      29.476737       0.01176
  17     162.9       17.6006        0.0212       47.0174       47.0386      29.438013       0.01238
  16     196.4       17.5981        0.0256       46.9470       46.9726      29.374470       0.01599
  15     218.7       17.5966        0.0284       46.8677       46.8961      29.299429       0.02849
  14     243.0       17.5953        0.0315       46.7217       46.7532      29.157912       0.04908
  13     269.0       17.5943        0.0348       46.4780       46.5127      28.918498       0.07766
  12     297.5       17.5937        0.0382       46.1284       46.1666      28.572993       0.10247
  11     328.5       17.5937        0.0419       45.6907       45.7326      28.138904       0.11803
  10     361.9       17.5947        0.0458       45.1265       45.1723      27.577514       0.14204
   9     398.1       17.5974        0.0497       44.4083       44.4581      26.860677       0.16701
   8     437.6       17.6026        0.0538       43.5333       43.5871      25.984474       0.18734
   7     480.5       17.6116        0.0580       42.5427       42.6007      24.989098       0.19549
   6     533.0       17.6291        0.0628       41.2665       41.3294      23.700285       0.20733
   5     589.8       17.6598        0.0676       39.7500       39.8176      22.157811       0.22895
   4     651.6       17.7174        0.0719       37.8220       37.8939      20.176495       0.27095
   3     718.7       17.8205        0.0758       35.6210       35.6968      17.876356       0.28906
   2     792.3       18.0081        0.0792       33.2326       33.3117      15.303619       0.29506
   1     891.5       18.4699        0.0830       30.2337       30.3166      11.846776       0.29416
   0    1013.0       19.6296        0.0870       27.2393       27.3263       7.696683       0.28816



 Wavenumbers:  7700. -  8050. cm-1, ATM      1
 LEVEL PRESSURE   UPWARD FLUX   DIFDOWN FLUX  DIRDOWN FLUX  DOWNWARD FLUX   NET FLUX    HEATING RATE
          mb          W/m2          W/m2          W/m2        W/m2          W/m2       degree/day
  51    .06700        6.5951        0.0000       11.1810       11.1810       4.585839       0.00000
  50    .07753        6.5951        0.0000       11.1809       11.1809       4.585817       0.01791
  49    .09103        6.5951        0.0000       11.1809       11.1809       4.585788       0.01755
  48    0.1069        6.5951        0.0000       11.1809       11.1809       4.585756       0.01718
  47    0.1255        6.5952        0.0000       11.1809       11.1809       4.585719       0.01681
  46    0.1487        6.5952        0.0000       11.1808       11.1808       4.585672       0.01706
  45    0.1794        6.5952        0.0000       11.1808       11.1808       4.585608       0.01755
  44    0.2165        6.5952        0.0000       11.1807       11.1807       4.585533       0.01722
  43    0.2613        6.5952        0.0000       11.1806       11.1806       4.585443       0.01690
  42    0.3336        6.5952        0.0000       11.1805       11.1805       4.585295       0.01729
  41    0.4307        6.5953        0.0000       11.1803       11.1804       4.585098       0.01710
  40    0.5894        6.5953        0.0000       11.1801       11.1801       4.584777       0.01708
  39     1.339        6.5956        0.0001       11.1788       11.1789       4.583257       0.01711
  38     1.782        6.5958        0.0001       11.1781       11.1782       4.582364       0.01700
  37     2.292        6.5960        0.0001       11.1772       11.1773       4.581331       0.01711
  36     2.964        6.5963        0.0002       11.1761       11.1762       4.579974       0.01703
  35     3.853        6.5966        0.0002       11.1746       11.1748       4.578182       0.01701
  34     5.035        6.5971        0.0003       11.1726       11.1729       4.575801       0.01701
  33     6.613        6.5977        0.0004       11.1699       11.1703       4.572621       0.01700
  32     8.786        6.5985        0.0005       11.1664       11.1669       4.568337       0.01664
  31     11.80        6.5997        0.0007       11.1613       11.1619       4.562212       0.01715
  30     15.07        6.6010        0.0009       11.1558       11.1567       4.555640       0.01697
  29     18.79        6.6025        0.0011       11.1496       11.1507       4.548223       0.01682
  28     23.16        6.6042        0.0013       11.1424       11.1438       4.539571       0.01673
  27     28.12        6.6061        0.0016       11.1342       11.1358       4.529690       0.01680
  26     33.73        6.6084        0.0019       11.1251       11.1270       4.518652       0.01660
  25     40.54        6.6110        0.0023       11.1141       11.1164       4.505345       0.01651
  24     48.69        6.6143        0.0028       11.1009       11.1036       4.489346       0.01656
  23     57.69        6.6179        0.0033       11.0864       11.0897       4.471827       0.01642
  22     68.43        6.6222        0.0039       11.0693       11.0732       4.451040       0.01634
  21     81.20        6.6273        0.0046       11.0491       11.0537       4.426385       0.01629
  20     96.49        6.6335        0.0054       11.0253       11.0307       4.397164       0.01613
  19     114.6        6.6410        0.0064       10.9972       11.0037       4.362691       0.01610
  18     136.5        6.6499        0.0076       10.9644       10.9721       4.322128       0.01560
  17     162.9        6.6607        0.0091       10.9259       10.9350       4.274226       0.01531
  16     196.4        6.6750        0.0109       10.8768       10.8877       4.212716       0.01548
  15     218.7        6.6845        0.0121       10.8451       10.8572       4.172659       0.01521
  14     243.0        6.6950        0.0134       10.8110       10.8244       4.129389       0.01501
  13     269.0        6.7066        0.0149       10.7745       10.7894       4.082785       0.01512
  12     297.5        6.7193        0.0164       10.7356       10.7520       4.032708       0.01485
  11     328.5        6.7333        0.0181       10.6941       10.7122       3.978881       0.01464
  10     361.9        6.7487        0.0198       10.6500       10.6698       3.921191       0.01460
   9     398.1        6.7656        0.0218       10.6031       10.6249       3.859336       0.01441
   8     437.6        6.7842        0.0238       10.5534       10.5773       3.793056       0.01417
   7     480.5        6.8047        0.0260       10.5008       10.5268       3.722064       0.01394
   6     533.0        6.8309        0.0288       10.4366       10.4654       3.634525       0.01408
   5     589.8        6.8602        0.0317       10.3681       10.3998       3.539629       0.01409
   4     651.6        6.8933        0.0348       10.2946       10.3294       3.436092       0.01416
   3     718.7        6.9310        0.0382       10.2153       10.2535       3.322512       0.01427
   2     792.3        6.9743        0.0418       10.1293       10.1711       3.196773       0.01442
   1     891.5        7.0381        0.0467       10.0104       10.0571       3.018954       0.01513
   0    1013.0        7.1239        0.0525        9.8624        9.9149       2.791033       0.01583



 Wavenumbers:  8050. - 12850. cm-1, ATM      1
 LEVEL PRESSURE   UPWARD FLUX   DIFDOWN FLUX  DIRDOWN FLUX  DOWNWARD FLUX   NET FLUX    HEATING RATE
          mb          W/m2          W/m2          W/m2        W/m2          W/m2       degree/day
  51    .06700       96.8590        0.0000      156.5418      156.5418      59.682791       0.00000
  50    .07753       96.8589        0.0000      156.5417      156.5417      59.682791       0.00000
  49    .09103       96.8589        0.0001      156.5417      156.5417      59.682791       0.00000
  48    0.1069       96.8589        0.0001      156.5416      156.5417      59.682791       0.00000
  47    0.1255       96.8589        0.0002      156.5415      156.5417      59.682791       0.00000
  46    0.1487       96.8589        0.0002      156.5414      156.5417      59.682791      -0.00000
  45    0.1794       96.8588        0.0003      156.5413      156.5416      59.682791       0.00000
  44    0.2165       96.8588        0.0004      156.5412      156.5416      59.682791       0.00000
  43    0.2613       96.8587        0.0006      156.5410      156.5415      59.682791      -0.00000
  42    0.3336       96.8587        0.0008      156.5407      156.5415      59.682791       0.00000
  41    0.4307       96.8586        0.0010      156.5403      156.5413      59.682791       0.00000
  40    0.5894       96.8584        0.0015      156.5397      156.5412      59.682791       0.00000
  39     1.339       96.8575        0.0036      156.5367      156.5403      59.682791      -0.00000
  38     1.782       96.8571        0.0049      156.5350      156.5398      59.682791       0.00000
  37     2.292       96.8565        0.0063      156.5330      156.5393      59.682791      -0.00000
  36     2.964       96.8557        0.0082      156.5303      156.5385      59.682791      -0.00000
  35     3.853       96.8548        0.0107      156.5268      156.5376      59.682791       0.00000
  34     5.035       96.8535        0.0140      156.5222      156.5362      59.682791      -0.00000
  33     6.613       96.8517        0.0185      156.5160      156.5345      59.682791      -0.00000
  32     8.786       96.8494        0.0245      156.5076      156.5321      59.682791       0.00000
  31     11.80       96.8460        0.0331      156.4957      156.5288      59.682791       0.00000
  30     15.07       96.8424        0.0424      156.4828      156.5252      59.682791       0.00000
  29     18.79       96.8383        0.0528      156.4682      156.5211      59.682791      -0.00000
  28     23.16       96.8335        0.0651      156.4512      156.5163      59.682791      -0.00000
  27     28.12       96.8280        0.0791      156.4317      156.5108      59.682791       0.00000
  26     33.73       96.8218        0.0948      156.4099      156.5046      59.682791      -0.00000
  25     40.54       96.8144        0.1137      156.3834      156.4972      59.682791      -0.00000
  24     48.69       96.8054        0.1367      156.3515      156.4882      59.682791       0.00000
  23     57.69       96.7955        0.1619      156.3164      156.4783      59.682791       0.00000
  22     68.43       96.7837        0.1920      156.2746      156.4665      59.682791      -0.00000
  21     81.20       96.7697        0.2279      156.2246      156.4524      59.682791      -0.00000
  20     96.49       96.7528        0.2707      156.1649      156.4356      59.682791       0.00000
  19     114.6       96.7329        0.3217      156.0932      156.4148      59.681961       0.00039
  18     136.5       96.7092        0.3822      156.0079      156.3901      59.680927       0.00040
  17     162.9       96.6809        0.4545      155.9056      156.3601      59.679202       0.00055
  16     196.4       96.6441        0.5485      155.7703      156.3188      59.674724       0.00113
  15     218.7       96.6200        0.6103      155.6758      156.2861      59.666117       0.00327
  14     243.0       96.5941        0.6777      155.5610      156.2387      59.644638       0.00745
  13     269.0       96.5666        0.7509      155.4126      156.1634      59.596779       0.01553
  12     297.5       96.5383        0.8300      155.2132      156.0432      59.504906       0.02725
  11     328.5       96.5094        0.9157      154.9603      155.8759      59.366510       0.03763
  10     361.9       96.4808        1.0080      154.6462      155.6542      59.173384       0.04886
   9     398.1       96.4538        1.1075      154.2595      155.3670      58.913220       0.06061
   8     437.6       96.4310        1.2144      153.7859      155.0003      58.569297       0.07353
   7     480.5       96.4153        1.3290      153.2196      154.5486      58.133318       0.08562
   6     533.0       96.4123        1.4699      152.4354      153.9053      57.492998       0.10301
   5     589.8       96.4387        1.6214      151.4388      153.0602      56.621452       0.12937
   4     651.6       96.5285        1.7825      150.0674      151.8499      55.321462       0.17778
   3     718.7       96.7234        1.9529      148.2480      150.2009      53.477522       0.23173
   2     792.3       97.1120        2.1302      145.8499      147.9801      50.868114       0.29927
   1     891.5       98.0882        2.3601      141.9651      144.3253      46.237054       0.39408
   0    1013.0      100.3256        2.6232      136.8093      139.4325      39.106915       0.49508



 Wavenumbers: 12850. - 16000. cm-1, ATM      1
 LEVEL PRESSURE   UPWARD FLUX   DIFDOWN FLUX  DIRDOWN FLUX  DOWNWARD FLUX   NET FLUX    HEATING RATE
          mb          W/m2          W/m2          W/m2        W/m2          W/m2       degree/day
  51    .06700       76.4153        0.0000       98.0872       98.0872      21.671934       0.00000
  50    .07753       76.4153        0.0001       98.0864       98.0864      21.671142       0.63517
  49    .09103       76.4153        0.0002       98.0853       98.0854      21.670146       0.62219
  48    0.1069       76.4153        0.0003       98.0841       98.0843      21.669002       0.60897
  47    0.1255       76.4153        0.0004       98.0826       98.0830      21.667688       0.59606
  46    0.1487       76.4153        0.0005       98.0809       98.0814      21.666028       0.60504
  45    0.1794       76.4154        0.0007       98.0784       98.0792      21.663769       0.62009
  44    0.2165       76.4155        0.0010       98.0756       98.0766      21.661111       0.60467
  43    0.2613       76.4156        0.0012       98.0723       98.0736      21.657983       0.58949
  42    0.3336       76.4158        0.0017       98.0670       98.0687      21.652876       0.59544
  41    0.4307       76.4163        0.0023       98.0602       98.0625      21.646268       0.57461
  40    0.5894       76.4171        0.0033       98.0496       98.0529      21.635844       0.55432
  39     1.339       76.4240        0.0081       98.0043       98.0125      21.588453       0.53354
  38     1.782       76.4303        0.0109       97.9793       97.9902      21.559899       0.54362
  37     2.292       76.4397        0.0142       97.9498       97.9639      21.524266       0.59018
  36     2.964       76.4552        0.0184       97.9088       97.9272      21.472067       0.65526
  35     3.853       76.4801        0.0241       97.8503       97.8744      21.394252       0.73848
  34     5.035       76.5177        0.0315       97.7680       97.7995      21.281790       0.80338
  33     6.613       76.5702        0.0415       97.6562       97.6977      21.127500       0.82483
  32     8.786       76.6385        0.0549       97.5107       97.5656      20.927092       0.77831
  31     11.80       76.7275        0.0741       97.3179       97.3920      20.664482       0.73523
  30     15.07       76.8128        0.0947       97.1283       97.2230      20.410194       0.65652
  29     18.79       76.9001        0.1179       96.9300       97.0480      20.147891       0.59472
  28     23.16       76.9914        0.1450       96.7166       96.8616      19.870248       0.53687
  27     28.12       77.0834        0.1760       96.4935       96.6695      19.586102       0.48303
  26     33.73       77.1688        0.2107       96.2731       96.4838      19.315055       0.40753
  25     40.54       77.2514        0.2526       96.0408       96.2934      19.042019       0.33873
  24     48.69       77.3311        0.3031       95.7946       96.0977      18.766591       0.28502
  23     57.69       77.3995        0.3586       95.5573       95.9159      18.516404       0.23451
  22     68.43       77.4602        0.4248       95.3106       95.7354      18.275186       0.18963
  21     81.20       77.5041        0.5037       95.0644       95.5681      18.064003       0.13955
  20     96.49       77.5300        0.5979       94.8153       95.4132      17.883149       0.09982
  19     114.6       77.5561        0.7105       94.5412       95.2517      17.695574       0.08758
  18     136.5       77.5765        0.8440       94.2324       95.0765      17.499963       0.07522
  17     162.9       77.5912        1.0030       93.8760       94.8790      17.287815       0.06781
  16     196.4       77.5897        1.2092       93.4358       94.6450      17.055293       0.05853
  15     218.7       77.5815        1.3446       93.1534       94.4980      16.916482       0.05270
  14     243.0       77.5696        1.4918       92.8483       94.3400      16.770487       0.05064
  13     269.0       77.5535        1.6512       92.5205       94.1718      16.618276       0.04938
  12     297.5       77.5335        1.8235       92.1691       93.9926      16.459099       0.04721
  11     328.5       77.5112        2.0097       91.7909       93.8006      16.289341       0.04616
  10     361.9       77.4871        2.2100       91.3853       93.5954      16.108285       0.04581
   9     398.1       77.4614        2.4257       90.9511       93.3768      15.915452       0.04493
   8     437.6       77.4354        2.6573       90.4858       93.1431      15.707796       0.04440
   7     480.5       77.4097        2.9056       89.9881       92.8937      15.484029       0.04395
   6     533.0       77.3828        3.2112       89.3742       92.5855      15.202661       0.04526
   5     589.8       77.3622        3.5407       88.7076       92.2483      14.886063       0.04699
   4     651.6       77.3553        3.8949       87.9758       91.8708      14.515436       0.05068
   3     718.7       77.3707        4.2745       87.1712       91.4457      14.075035       0.05535
   2     792.3       77.4254        4.6791       86.2786       90.9576      13.532250       0.06225
   1     891.5       77.5850        5.2215       85.0143       90.2359      12.650888       0.07500
   0    1013.0       77.9404        5.8664       83.4249       89.2913      11.350854       0.09027



 Wavenumbers: 16000. - 22650. cm-1, ATM      1
 LEVEL PRESSURE   UPWARD FLUX   DIFDOWN FLUX  DIRDOWN FLUX  DOWNWARD FLUX   NET FLUX    HEATING RATE
          mb          W/m2          W/m2          W/m2        W/m2          W/m2       degree/day
  51    .06700      141.5593        0.0000      156.3892      156.3892      14.829953       0.00000
  50    .07753      141.5593        0.0004      156.3887      156.3891      14.829805       0.11897
  49    .09103      141.5593        0.0009      156.3879      156.3888      14.829589       0.13494
  48    0.1069      141.5592        0.0015      156.3871      156.3885      14.829300       0.15387
  47    0.1255      141.5593        0.0021      156.3861      156.3882      14.828913       0.17539
  46    0.1487      141.5593        0.0030      156.3847      156.3877      14.828343       0.20784
  45    0.1794      141.5595        0.0041      156.3828      156.3869      14.827451       0.24471
  44    0.2165      141.5597        0.0054      156.3805      156.3859      14.826242       0.27503
  43    0.2613      141.5600        0.0070      156.3776      156.3846      14.824602       0.30920
  42    0.3336      141.5608        0.0097      156.3726      156.3823      14.821483       0.36361
  41    0.4307      141.5621        0.0132      156.3657      156.3789      14.816782       0.40874
  40    0.5894      141.5647        0.0189      156.3537      156.3725      14.807817       0.47678
  39     1.339      141.5877        0.0459      156.2834      156.3293      14.741578       0.74573
  38     1.782      141.6089        0.0617      156.2324      156.2941      14.685151       1.07429
  37     2.292      141.6407        0.0801      156.1641      156.2442      14.603471       1.35283
  36     2.964      141.6935        0.1042      156.0605      156.1647      14.471148       1.66105
  35     3.853      141.7788        0.1360      155.9041      156.0400      14.261182       1.99261
  34     5.035      141.9076        0.1782      155.6774      155.8555      13.947926       2.23777
  33     6.613      142.0875        0.2345      155.3656      155.6001      13.512583       2.32734
  32     8.786      142.3218        0.3102      154.9577      155.2679      12.946090       2.20005
  31     11.80      142.6268        0.4185      154.4153      154.8338      12.206940       2.06939
  30     15.07      142.9191        0.5346      153.8804      154.4149      11.495876       1.83583
  29     18.79      143.2175        0.6655      153.3191      153.9846      10.767076       1.65241
  28     23.16      143.5294        0.8181      152.7126      153.5307      10.001267       1.48083
  27     28.12      143.8434        0.9925      152.0755      153.0680       9.224578       1.32032
  26     33.73      144.1333        1.1874      151.4409      152.6283       8.495006       1.09693
  25     40.54      144.4124        1.4226      150.7637      152.1863       7.773899       0.89461
  24     48.69      144.6799        1.7060      150.0339      151.7398       7.059964       0.73881
  23     57.69      144.9068        2.0168      149.3151      151.3320       6.425180       0.59502
  22     68.43      145.1050        2.3867      148.5476      150.9343       5.829262       0.46847
  21     81.20      145.2424        2.8270      147.7517      150.5787       5.336282       0.32575
  20     96.49      145.3145        3.3512      146.9127      150.2639       4.949403       0.21353
  19     114.6      145.3524        3.9719      145.9763      149.9482       4.595781       0.16512
  18     136.5      145.3656        4.7047      144.9088      149.6135       4.247907       0.13377
  17     162.9      145.3525        5.5733      143.6786      149.2519       3.899448       0.11138
  16     196.4      145.2731        6.6940      142.1652      148.8593       3.586115       0.07887
  15     218.7      145.1982        7.4264      141.2037      148.6301       3.431913       0.05854
  14     243.0      145.1061        8.2191      140.1760      148.3951       3.289029       0.04956
  13     269.0      144.9952        9.0743      139.0812      148.1555       3.160225       0.04178
  12     297.5      144.8647        9.9939      137.9173      147.9111       3.046391       0.03376
  11     328.5      144.7186       10.9823      136.6734      147.6557       2.937042       0.02973
  10     361.9      144.5565       12.0403      135.3489      147.3893       2.832807       0.02637
   9     398.1      144.3774       13.1721      133.9389      147.1110       2.733602       0.02311
   8     437.6      144.1821       14.3796      132.4401      146.8196       2.637544       0.02054
   7     480.5      143.9695       15.6648      130.8503      146.5151       2.545624       0.01805
   6     533.0      143.7051       17.2345      128.9147      146.1492       2.444166       0.01632
   5     589.8      143.4191       18.9115      126.8513      145.7627       2.343602       0.01493
   4     651.6      143.1129       20.6971      124.6565      145.3536       2.240751       0.01407
   3     718.7      142.7870       22.5932      122.3271      144.9203       2.133298       0.01350
   2     792.3      142.4443       24.5983      119.8622      144.4604       2.016109       0.01344
   1     891.5      141.9969       27.2625      116.5788      143.8414       1.844425       0.01461
   0    1013.0      141.4846       30.3978      112.7013      143.0991       1.614496       0.01597



 Wavenumbers: 22650. - 29000. cm-1, ATM      1
 LEVEL PRESSURE   UPWARD FLUX   DIFDOWN FLUX  DIRDOWN FLUX  DOWNWARD FLUX   NET FLUX    HEATING RATE
          mb          W/m2          W/m2          W/m2        W/m2          W/m2       degree/day
  51    .06700       58.3821        0.0000       59.0156       59.0156       0.633508       0.00000
  50    .07753       58.3820        0.0005       59.0151       59.0155       0.633508      -0.00000
  49    .09103       58.3819        0.0010       59.0144       59.0154       0.633508       0.00000
  48    0.1069       58.3818        0.0017       59.0136       59.0153       0.633508       0.00000
  47    0.1255       58.3816        0.0025       59.0127       59.0151       0.633508      -0.00000
  46    0.1487       58.3814        0.0034       59.0115       59.0149       0.633508      -0.00000
  45    0.1794       58.3812        0.0048       59.0099       59.0147       0.633508       0.00000
  44    0.2165       58.3809        0.0063       59.0080       59.0144       0.633508       0.00000
  43    0.2613       58.3805        0.0082       59.0058       59.0140       0.633508      -0.00000
  42    0.3336       58.3799        0.0113       59.0022       59.0134       0.633508       0.00000
  41    0.4307       58.3791        0.0153       58.9973       59.0126       0.633508      -0.00000
  40    0.5894       58.3778        0.0220       58.9894       59.0113       0.633508       0.00000
  39     1.339       58.3717        0.0534       58.9518       59.0052       0.633508       0.00000
  38     1.782       58.3681        0.0719       58.9297       59.0016       0.633508       0.00000
  37     2.292       58.3639        0.0933       58.9042       58.9974       0.633508      -0.00000
  36     2.964       58.3584        0.1213       58.8706       58.9920       0.633508       0.00000
  35     3.853       58.3512        0.1584       58.8264       58.9847       0.633508      -0.00000
  34     5.035       58.3416        0.2076       58.7676       58.9751       0.633508       0.00000
  33     6.613       58.3288        0.2732       58.6891       58.9623       0.633508       0.00000
  32     8.786       58.3116        0.3617       58.5834       58.9451       0.633508       0.00000
  31     11.80       58.2869        0.4880       58.4325       58.9205       0.633508       0.00000
  30     15.07       58.2605        0.6234       58.2706       58.8940       0.633508       0.00000
  29     18.79       58.2308        0.7760       58.0882       58.8643       0.633508      -0.00000
  28     23.16       58.1961        0.9539       57.8757       58.8296       0.633508      -0.00000
  27     28.12       58.1565        1.1567       57.6333       58.7900       0.633508       0.00000
  26     33.73       58.1124        1.3828       57.3631       58.7459       0.633508       0.00000
  25     40.54       58.0593        1.6549       57.0379       58.6928       0.633508      -0.00000
  24     48.69       57.9956        1.9812       56.6479       58.6291       0.633508       0.00000
  23     57.69       57.9260        2.3375       56.2221       58.5596       0.633508       0.00000
  22     68.43       57.8438        2.7587       55.7186       58.4773       0.633508      -0.00000
  21     81.20       57.7466        3.2562       55.1239       58.3801       0.633508      -0.00000
  20     96.49       57.6320        3.8427       54.4228       58.2655       0.633508       0.00000
  19     114.6       57.4976        4.5301       53.6010       58.1311       0.633508       0.00000
  18     136.5       57.3407        5.3324       52.6418       57.9742       0.633508       0.00000
  17     162.9       57.1571        6.2703       51.5204       57.7906       0.633508       0.00000
  16     196.4       56.9244        7.4584       50.0995       57.5579       0.633508       0.00000
  15     218.7       56.7747        8.2219       49.1863       57.4082       0.633508       0.00000
  14     243.0       56.6148        9.0369       48.2114       57.2483       0.633508       0.00000
  13     269.0       56.4447        9.9031       47.1752       57.0782       0.633508       0.00000
  12     297.5       56.2647       10.8195       46.0787       56.8982       0.633508      -0.00000
  11     328.5       56.0743       11.7874       44.9203       56.7078       0.633508      -0.00000
  10     361.9       55.8741       12.8044       43.7032       56.5076       0.633508       0.00000
   9     398.1       55.6639       13.8704       42.4271       56.2975       0.633508      -0.00000
   8     437.6       55.4443       14.9832       41.0947       56.0778       0.633508       0.00000
   7     480.5       55.2157       16.1402       39.7090       55.8492       0.633508       0.00000
   6     533.0       54.9435       17.5152       38.0618       55.5770       0.633508      -0.00000
   5     589.8       54.6610       18.9389       36.3557       55.2945       0.633508       0.00000
   4     651.6       54.3695       20.4050       34.5980       55.0030       0.633508       0.00000
   3     718.7       54.0699       21.9078       32.7956       54.7034       0.633508      -0.00000
   2     792.3       53.7641       23.4370       30.9606       54.3976       0.633508       0.00000
   1     891.5       53.3753       25.3740       28.6347       54.0088       0.633508       0.00000
   0    1013.0       52.9409       27.5260       26.0484       53.5745       0.633508       0.00000



 Wavenumbers: 29000. - 38000. cm-1, ATM      1
 LEVEL PRESSURE   UPWARD FLUX   DIFDOWN FLUX  DIRDOWN FLUX  DOWNWARD FLUX   NET FLUX    HEATING RATE
          mb          W/m2          W/m2          W/m2        W/m2          W/m2       degree/day
  51    .06700        8.7365        0.0000       20.8114       20.8114      12.074866       0.00000
  50    .07753        8.7363        0.0003       20.8070       20.8074      12.071059       3.05152
  49    .09103        8.7361        0.0007       20.8009       20.8016      12.065522       3.46081
  48    0.1069        8.7358        0.0012       20.7928       20.7939      12.058112       3.94425
  47    0.1255        8.7355        0.0017       20.7820       20.7837      12.048207       4.49029
  46    0.1487        8.7352        0.0024       20.7665       20.7688      12.033644       5.30838
  45    0.1794        8.7347        0.0033       20.7424       20.7457      12.010980       6.22197
  44    0.2165        8.7342        0.0044       20.7103       20.7147      11.980457       6.94332
  43    0.2613        8.7336        0.0056       20.6675       20.6731      11.939463       7.72723
  42    0.3336        8.7327        0.0077       20.5880       20.5956      11.862903       8.92613
  41    0.4307        8.7317        0.0104       20.4722       20.4826      11.750952       9.73389
  40    0.5894        8.7301        0.0147       20.2637       20.2784      11.548271      10.77831
  39     1.339        8.7267        0.0331       19.0984       19.1315      10.404817      12.87322
  38     1.782        8.7271        0.0427       18.4394       18.4820       9.754911      12.37315
  37     2.292        8.7298        0.0530       17.7714       17.8244       9.094593      10.93659
  36     2.964        8.7363        0.0656       17.0421       17.1078       8.371512       9.07685
  35     3.853        8.7490        0.0816       16.2679       16.3494       7.600400       7.31799
  34     5.035        8.7700        0.1017       15.4803       15.5820       6.812005       5.63197
  33     6.613        8.8006        0.1275       14.7157       14.8432       6.042560       4.11346
  32     8.786        8.8410        0.1612       13.9936       14.1548       5.313791       2.83027
  31     11.80        8.8937        0.2082       13.2835       13.4918       4.598066       2.00380
  30     15.07        8.9445        0.2570       12.7394       12.9963       4.051825       1.41029
  29     18.79        8.9970        0.3110       12.2666       12.5776       3.580621       1.06836
  28     23.16        9.0528        0.3725       11.8300       12.2025       3.149743       0.83318
  27     28.12        9.1099        0.4413       11.4279       11.8692       2.759321       0.66369
  26     33.73        9.1625        0.5172       11.0695       11.5866       2.424077       0.50405
  25     40.54        9.2125        0.6078       10.7209       11.3287       2.116176       0.38199
  24     48.69        9.2596        0.7153       10.3742       11.0895       1.829892       0.29626
  23     57.69        9.2982        0.8317       10.0549       10.8866       1.588381       0.22638
  22     68.43        9.3294        0.9682        9.7327       10.7009       1.371586       0.17043
  21     81.20        9.3441        1.1294        9.4134       10.5428       1.198726       0.11422
  20     96.49        9.3405        1.3189        9.0887       10.4076       1.067150       0.07262
  19     114.6        9.3265        1.5378        8.7388       10.2766       0.950038       0.05468
  18     136.5        9.3053        1.7881        8.3549       10.1430       0.837676       0.04321
  17     162.9        9.2768        2.0733        7.9311       10.0045       0.727671       0.03516
  16     196.4        9.2291        2.4267        7.4333        9.8600       0.630856       0.02437
  15     218.7        9.1948        2.6489        7.1296        9.7785       0.583641       0.01793
  14     243.0        9.1572        2.8812        6.8161        9.6973       0.540047       0.01512
  13     269.0        9.1162        3.1227        6.4944        9.6171       0.500905       0.01270
  12     297.5        9.0717        3.3723        6.1659        9.5381       0.466403       0.01023
  11     328.5        9.0253        3.6290        5.8296        9.4587       0.433373       0.00898
  10     361.9        8.9774        3.8904        5.4889        9.3793       0.401962       0.00795
   9     398.1        8.9280        4.1559        5.1443        9.3002       0.372198       0.00693
   8     437.6        8.8778        4.4240        4.7973        9.2214       0.343510       0.00613
   7     480.5        8.8271        4.6926        4.4507        9.1434       0.316279       0.00535
   6     533.0        8.7689        4.9984        4.0571        9.0555       0.286604       0.00477
   5     589.8        8.7116        5.2992        3.6703        8.9695       0.257874       0.00426
   4     651.6        8.6559        5.5928        3.2928        8.8856       0.229767       0.00384
   3     718.7        8.6024        5.8762        2.9284        8.8046       0.202240       0.00346
   2     792.3        8.5520        6.1460        2.5813        8.7273       0.175302       0.00309
   1     891.5        8.4939        6.4626        2.1734        8.6360       0.142046       0.00283
   0    1013.0        8.4382        6.7797        1.7638        8.5435       0.105328       0.00255



 Wavenumbers: 38000. - 50000. cm-1, ATM      1
 LEVEL PRESSURE   UPWARD FLUX   DIFDOWN FLUX  DIRDOWN FLUX  DOWNWARD FLUX   NET FLUX    HEATING RATE
          mb          W/m2          W/m2          W/m2        W/m2          W/m2       degree/day
  51    .06700        0.0061        0.0000        1.2836        1.2836       1.277518       0.00000
  50    .07753        0.0061        0.0001        1.2812        1.2812       1.275183       1.87150
  49    .09103        0.0060        0.0002        1.2777        1.2778       1.271851       2.08247
  48    0.1069        0.0059        0.0002        1.2731        1.2734       1.267473       2.33059
  47    0.1255        0.0058        0.0004        1.2672        1.2675       1.261717       2.60908
  46    0.1487        0.0057        0.0005        1.2586        1.2591       1.253391       3.03499
  45    0.1794        0.0055        0.0007        1.2455        1.2462       1.240623       3.50520
  44    0.2165        0.0054        0.0009        1.2282        1.2291       1.223697       3.85037
  43    0.2613        0.0052        0.0011        1.2054        1.2065       1.201348       4.21261
  42    0.3336        0.0049        0.0015        1.1639        1.1654       1.160524       4.75970
  41    0.4307        0.0045        0.0020        1.1051        1.1070       1.102565       5.03943
  40    0.5894        0.0039        0.0026        1.0039        1.0064       1.002524       5.32007
  39     1.339        0.0022        0.0035        0.5438        0.5473       0.545105       5.14971
  38     1.782        0.0016        0.0032        0.3635        0.3666       0.365006       3.42879
  37     2.292        0.0012        0.0027        0.2356        0.2383       0.237058       2.11916
  36     2.964        0.0009        0.0022        0.1455        0.1477       0.146786       1.13318
  35     3.853        0.0006        0.0017        0.0858        0.0875       0.086906       0.56828
  34     5.035        0.0004        0.0013        0.0488        0.0501       0.049701       0.26578
  33     6.613        0.0003        0.0010        0.0273        0.0282       0.027974       0.11615
  32     8.786        0.0002        0.0007        0.0144        0.0151       0.014928       0.05067
  31     11.80        0.0001        0.0004        0.0065        0.0070       0.006903       0.02247
  30     15.07        0.0000        0.0003        0.0031        0.0034       0.003329       0.00923
  29     18.79        0.0000        0.0002        0.0014        0.0016       0.001583       0.00396
  28     23.16        0.0000        0.0001        0.0006        0.0007       0.000720       0.00167
  27     28.12        0.0000        0.0001        0.0003        0.0003       0.000317       0.00069
  26     33.73        0.0000        0.0000        0.0001        0.0001       0.000140       0.00027
  25     40.54        0.0000        0.0000        0.0000        0.0001       0.000057       0.00010
  24     48.69        0.0000        0.0000        0.0000        0.0000       0.000021       0.00004
  23     57.69        0.0000        0.0000        0.0000        0.0000       0.000008       0.00001
  22     68.43        0.0000        0.0000        0.0000        0.0000       0.000003       0.00000
  21     81.20        0.0000        0.0000        0.0000        0.0000       0.000001       0.00000
  20     96.49        0.0000        0.0000        0.0000        0.0000       0.000000       0.00000
  19     114.6        0.0000        0.0000        0.0000        0.0000       0.000000       0.00000
  18     136.5        0.0000        0.0000        0.0000        0.0000       0.000000       0.00000
  17     162.9        0.0000        0.0000        0.0000        0.0000       0.000000       0.00000
  16     196.4        0.0000        0.0000        0.0000        0.0000       0.000000       0.00000
  15     218.7        0.0000        0.0000        0.0000        0.0000       0.000000       0.00000
  14     243.0        0.0000        0.0000        0.0000        0.0000       0.000000       0.00000
  13     269.0        0.0000        0.0000        0.0000        0.0000       0.000000       0.00000
  12     297.5        0.0000        0.0000        0.0000        0.0000       0.000000       0.00000
  11     328.5        0.0000        0.0000        0.0000        0.0000       0.000000       0.00000
  10     361.9        0.0000        0.0000        0.0000        0.0000       0.000000       0.00000
   9     398.1        0.0000        0.0000        0.0000        0.0000       0.000000       0.00000
   8     437.6        0.0000        0.0000        0.0000        0.0000       0.000000       0.00000
   7     480.5        0.0000        0.0000        0.0000        0.0000       0.000000       0.00000
   6     533.0        0.0000        0.0000        0.0000        0.0000       0.000000       0.00000
   5     589.8        0.0000        0.0000        0.0000        0.0000       0.000000       0.00000
   4     651.6        0.0000        0.0000        0.0000        0.0000       0.000000       0.00000
   3     718.7        0.0000        0.0000        0.0000        0.0000       0.000000       0.00000
   2     792.3        0.0000        0.0000        0.0000        0.0000       0.000000       0.00000
   1     891.5        0.0000        0.0000        0.0000        0.0000       0.000000       0.00000
   0    1013.0        0.0000        0.0000        0.0000        0.0000       0.000000       0.00000



 Wavenumbers:   820. -  2600. cm-1, ATM      1
 LEVEL PRESSURE   UPWARD FLUX   DIFDOWN FLUX  DIRDOWN FLUX  DOWNWARD FLUX   NET FLUX    HEATING RATE
          mb          W/m2          W/m2          W/m2        W/m2          W/m2       degree/day
  51    .06700        1.7775        0.0000        6.0047        6.0047       4.227111       0.00000
  50    .07753        1.7775        0.0000        6.0009        6.0009       4.223321       3.03712
  49    .09103        1.7775        0.0000        6.0001        6.0001       4.222519       0.50166
  48    0.1069        1.7775        0.0000        5.9992        5.9992       4.221629       0.47373
  47    0.1255        1.7775        0.0000        5.9982        5.9982       4.220630       0.45285
  46    0.1487        1.7775        0.0000        5.9970        5.9970       4.219428       0.43800
  45    0.1794        1.7775        0.0000        5.9955        5.9955       4.217928       0.41174
  44    0.2165        1.7775        0.0000        5.9939        5.9939       4.216355       0.35790
  43    0.2613        1.7775        0.0000        5.9923        5.9923       4.214726       0.30716
  42    0.3336        1.7775        0.0000        5.9900        5.9900       4.212411       0.26991
  41    0.4307        1.7775        0.0000        5.9872        5.9872       4.209706       0.23517
  40    0.5894        1.7775        0.0000        5.9830        5.9830       4.205478       0.22480
  39     1.339        1.7775        0.0000        5.9636        5.9636       4.186038       0.21886
  38     1.782        1.7775        0.0000        5.9528        5.9528       4.175293       0.20458
  37     2.292        1.7775        0.0000        5.9408        5.9408       4.163255       0.19937
  36     2.964        1.7775        0.0000        5.9255        5.9255       4.147944       0.19220
  35     3.853        1.7776        0.0000        5.9060        5.9060       4.128496       0.18456
  34     5.035        1.7776        0.0000        5.8814        5.8814       4.103850       0.17606
  33     6.613        1.7776        0.0000        5.8496        5.8496       4.072000       0.17027
  32     8.786        1.7776        0.0000        5.8073        5.8073       4.029728       0.16417
  31     11.80        1.7776        0.0000        5.7515        5.7515       3.973918       0.15625
  30     15.07        1.7776        0.0000        5.7023        5.7023       3.924690       0.12710
  29     18.79        1.7776        0.0000        5.6614        5.6615       3.883838       0.09262
  28     23.16        1.7776        0.0000        5.6300        5.6300       3.852343       0.06090
  27     28.12        1.7777        0.0000        5.6070        5.6070       3.829306       0.03916
  26     33.73        1.7777        0.0000        5.5886        5.5886       3.810874       0.02771
  25     40.54        1.7777        0.0000        5.5695        5.5695       3.791753       0.02372
  24     48.69        1.7778        0.0000        5.5471        5.5471       3.769317       0.02322
  23     57.69        1.7779        0.0000        5.5222        5.5222       3.744327       0.02342
  22     68.43        1.7780        0.0000        5.4921        5.4921       3.714131       0.02374
  21     81.20        1.7781        0.0000        5.4567        5.4567       3.678584       0.02349
  20     96.49        1.7782        0.0000        5.4151        5.4151       3.636876       0.02302
  19     114.6        1.7784        0.0000        5.3674        5.3674       3.588989       0.02236
  18     136.5        1.7787        0.0000        5.3141        5.3141       3.535464       0.02058
  17     162.9        1.7790        0.0000        5.2539        5.2539       3.474901       0.01936
  16     196.4        1.7794        0.0000        5.1780        5.1780       3.398606       0.01920
  15     218.7        1.7798        0.0000        5.1246        5.1246       3.344863       0.02040
  14     243.0        1.7802        0.0000        5.0571        5.0571       3.276859       0.02359
  13     269.0        1.7808        0.0000        4.9699        4.9699       3.189075       0.02848
  12     297.5        1.7817        0.0000        4.8583        4.8584       3.076704       0.03333
  11     328.5        1.7827        0.0000        4.7397        4.7398       2.957016       0.03254
  10     361.9        1.7841        0.0000        4.6211        4.6211       2.837026       0.03036
   9     398.1        1.7857        0.0000        4.5025        4.5025       2.716775       0.02802
   8     437.6        1.7878        0.0001        4.3727        4.3728       2.584966       0.02818
   7     480.5        1.7904        0.0001        4.2203        4.2204       2.430011       0.03043
   6     533.0        1.7942        0.0001        4.0086        4.0086       2.214457       0.03468
   5     589.8        1.7995        0.0001        3.7628        3.7629       1.963381       0.03727
   4     651.6        1.8080        0.0001        3.5065        3.5066       1.698609       0.03621
   3     718.7        1.8212        0.0001        3.3079        3.3080       1.486840       0.02661
   2     792.3        1.8428        0.0001        3.1695        3.1695       1.326746       0.01836
   1     891.5        1.8906        0.0001        3.0044        3.0044       1.113800       0.01812
   0    1013.0        1.9977        0.0001        2.7818        2.7819       0.784221       0.02288

  Modules and versions used in this calculation:

       rrtmg_sw.1col.f90:  $Revision$                    rrtmg_sw_init.f90:  $Revision$        
     rrtmgsw_cldprop.f90:  $Revision$                  rrtmgsw_cldprmc.f90:  NOT USED          
     rrtmg_sw_reftra.f90:  $Revision$                  rrtmg_sw_spcvrt.f90:  NOT USED          
     rrtmg_sw_spcvmc.f90:  NOT USED                    rrtmgsw_setcoef.f90:  NOT USED          
     rrtmg_sw_taumol.f90:  $Revision$                  rrtmg_sw_vrtqdr.f90:  NOT USED          
                rrtatm.f:  NOT USED                             util_xxx.f:  NOT USED          
                 extra.f:  NOT USED                       rrtmg_sw_k_g.f90:  $Revision$        

