

 Wavenumbers:   820. - 50000. cm-1, ATM      1
 LEVEL PRESSURE   UPWARD FLUX   DIFDOWN FLUX  DIRDOWN FLUX  DOWNWARD FLUX   NET FLUX    HEATING RATE
          mb          W/m2          W/m2          W/m2        W/m2          W/m2       degree/day
  51    .06700      425.9479        0.0000      617.8126      617.8126     191.864693       0.00000
  50    .07753      425.9475        0.0014      617.7950      617.7964     191.848841      12.70581
  49    .09103      425.9471        0.0031      617.7784      617.7815     191.834380       9.03836
  48    0.1069      425.9466        0.0050      617.7591      617.7641     191.817504       8.98300
  47    0.1255      425.9461        0.0073      617.7354      617.7427     191.796591       9.48099
  46    0.1487      425.9456        0.0101      617.7029      617.7130     191.767438      10.62665
  45    0.1794      425.9449        0.0140      617.6548      617.6688     191.723913      11.94872
  44    0.2165      425.9442        0.0185      617.5931      617.6116     191.667413      12.85281
  43    0.2613      425.9435        0.0239      617.5135      617.5374     191.593873      13.86189
  42    0.3336      425.9428        0.0328      617.3704      617.4032     191.460419      15.55944
  41    0.4307      425.9422        0.0444      617.1678      617.2122     191.269976      16.55859
  40    0.5894      425.9423        0.0633      616.8129      616.8762     190.933856      17.87445
  39     1.339      425.9617        0.1485      614.9730      615.1215     189.159867      19.97189
  38     1.782      425.9861        0.1965      614.0041      614.2007     188.214559      17.99714
  37     2.292      426.0263        0.2511      613.0520      613.3031     187.276864      15.53068
  36     2.964      426.0969        0.3221      612.0148      612.3369     186.239973      13.01611
  35     3.853      426.2151        0.4151      610.8730      611.2881     185.073015      11.07464
  34     5.035      426.3967        0.5379      609.6200      610.1579     183.761236       9.37081
  33     6.613      426.6524        0.7009      608.2540      608.9549     182.302582       7.79797
  32     8.786      426.9854        0.9196      606.7564      607.6760     180.690644       6.26018
  31     11.80      427.4169        1.2310      605.0084      606.2394     178.822432       5.23041
  30     15.07      427.8280        1.5633      603.4292      604.9925     177.164437       4.28062
  29     18.79      428.2457        1.9372      601.8619      603.7991     175.553405       3.65271
  28     23.16      428.6796        2.3716      600.2314      602.6031     173.923420       3.15186
  27     28.12      429.1129        2.8662      598.5573      601.4235     172.310604       2.74168
  26     33.73      429.5056        3.4175      596.8956      600.3131     170.807543       2.25989
  25     40.54      429.8727        4.0813      595.1072      599.1885     169.315816       1.85066
  24     48.69      430.2113        4.8779      593.1571      598.0350     167.823748       1.54406
  23     57.69      430.4824        5.7487      591.2030      596.9517     166.469317       1.26958
  22     68.43      430.6958        6.7804      589.0667      595.8471     165.151205       1.03621
  21     81.20      430.7982        8.0036      586.7612      594.7649     163.966640       0.78274
  20     96.49      430.7794        9.4521      584.2375      593.6896     162.910169       0.58310
  19     114.6      430.6965       11.1561      581.3813      592.5373     161.840822       0.49931
  18     136.5      430.5525       13.1515      578.1261      591.2776     160.725178       0.42899
  17     162.9      430.3418       15.4936      574.3838      589.8774     159.535592       0.38024
  16     196.4      429.9782       18.4808      569.7243      588.2050     158.226829       0.32943
  15     218.7      429.7091       20.4124      566.6574      587.0698     157.360782       0.32881
  14     243.0      429.4058       22.4847      563.2041      585.6888     156.283039       0.37380
  13     269.0      429.0669       24.6993      559.2848      583.9841     154.917231       0.44306
  12     297.5      428.6930       27.0570      554.8830      581.9400     153.246975       0.49538
  11     328.5      428.2919       29.5642      550.0335      579.5977     151.305741       0.52782
  10     361.9      427.8660       32.2172      544.6943      576.9116     149.045538       0.57185
   9     398.1      427.4175       35.0212      538.8300      573.8511     146.433678       0.60850
   8     437.6      426.9530       37.9753      532.4006      570.3758     143.422847       0.64373
   7     480.5      426.4780       41.0781      525.4382      566.5163     140.038339       0.66470
   6     533.0      425.9346       44.8106      516.7416      561.5522     135.617595       0.71116
   5     589.8      425.4190       48.7309      507.0786      555.8095     130.390516       0.77587
   4     651.6      424.9927       52.8311      496.0565      548.8876     123.894855       0.88830
   3     718.7      424.7311       57.1043      483.9628      541.0671     116.336044       0.94993
   2     792.3      424.7897       61.5338      470.7994      532.3333     107.543516       1.00840
   1     891.5      425.6928       67.2807      453.1899      520.4706      94.777821       1.08630
   0    1013.0      428.6884       73.8595      433.1016      506.9611      78.272685       1.14604



 Wavenumbers:  2600. -  3250. cm-1, ATM      1
 LEVEL PRESSURE   UPWARD FLUX   DIFDOWN FLUX  DIRDOWN FLUX  DOWNWARD FLUX   NET FLUX    HEATING RATE
          mb          W/m2          W/m2          W/m2        W/m2          W/m2       degree/day
  51    .06700        0.0443        0.0000        5.4450        5.4450       5.400702       0.00000
  50    .07753        0.0443        0.0000        5.4450        5.4450       5.400694       0.00640
  49    .09103        0.0443        0.0000        5.4450        5.4450       5.400684       0.00627
  48    0.1069        0.0443        0.0000        5.4450        5.4450       5.400672       0.00613
  47    0.1255        0.0443        0.0000        5.4450        5.4450       5.400659       0.00599
  46    0.1487        0.0443        0.0000        5.4450        5.4450       5.400642       0.00608
  45    0.1794        0.0443        0.0000        5.4450        5.4450       5.400620       0.00625
  44    0.2165        0.0443        0.0000        5.4449        5.4449       5.400593       0.00612
  43    0.2613        0.0443        0.0000        5.4449        5.4449       5.400561       0.00600
  42    0.3336        0.0443        0.0000        5.4448        5.4448       5.400508       0.00617
  41    0.4307        0.0443        0.0000        5.4448        5.4448       5.400437       0.00620
  40    0.5894        0.0443        0.0000        5.4446        5.4446       5.400317       0.00637
  39     1.339        0.0443        0.0000        5.4439        5.4439       5.399609       0.00797
  38     1.782        0.0443        0.0000        5.4434        5.4434       5.399066       0.01034
  37     2.292        0.0443        0.0000        5.4427        5.4427       5.398351       0.01186
  36     2.964        0.0443        0.0000        5.4416        5.4416       5.397312       0.01304
  35     3.853        0.0443        0.0000        5.4402        5.4402       5.395835       0.01402
  34     5.035        0.0443        0.0000        5.4381        5.4381       5.393779       0.01468
  33     6.613        0.0443        0.0000        5.4353        5.4353       5.390998       0.01487
  32     8.786        0.0443        0.0000        5.4317        5.4317       5.387366       0.01411
  31     11.80        0.0443        0.0000        5.4269        5.4269       5.382586       0.01338
  30     15.07        0.0443        0.0000        5.4224        5.4224       5.378060       0.01169
  29     18.79        0.0443        0.0000        5.4180        5.4180       5.373648       0.01000
  28     23.16        0.0443        0.0000        5.4135        5.4135       5.369163       0.00867
  27     28.12        0.0443        0.0000        5.4088        5.4088       5.364516       0.00790
  26     33.73        0.0443        0.0000        5.4036        5.4036       5.359277       0.00788
  25     40.54        0.0443        0.0000        5.3966        5.3967       5.352337       0.00861
  24     48.69        0.0443        0.0000        5.3872        5.3872       5.342863       0.00980
  23     57.69        0.0443        0.0000        5.3754        5.3754       5.331083       0.01104
  22     68.43        0.0443        0.0000        5.3599        5.3599       5.315600       0.01217
  21     81.20        0.0443        0.0000        5.3401        5.3401       5.295774       0.01310
  20     96.49        0.0443        0.0000        5.3155        5.3155       5.271218       0.01355
  19     114.6        0.0443        0.0000        5.2860        5.2860       5.241728       0.01377
  18     136.5        0.0443        0.0000        5.2518        5.2518       5.207521       0.01315
  17     162.9        0.0443        0.0001        5.2134        5.2134       5.169122       0.01227
  16     196.4        0.0443        0.0001        5.1685        5.1686       5.124287       0.01129
  15     218.7        0.0443        0.0001        5.1418        5.1419       5.097576       0.01014
  14     243.0        0.0443        0.0001        5.1145        5.1145       5.070211       0.00949
  13     269.0        0.0443        0.0001        5.0857        5.0858       5.041411       0.00934
  12     297.5        0.0444        0.0001        5.0540        5.0541       5.009743       0.00939
  11     328.5        0.0444        0.0001        5.0189        5.0190       4.974576       0.00956
  10     361.9        0.0445        0.0001        4.9799        4.9800       4.935558       0.00987
   9     398.1        0.0445        0.0001        4.9353        4.9354       4.890918       0.01040
   8     437.6        0.0446        0.0001        4.8817        4.8819       4.837269       0.01147
   7     480.5        0.0447        0.0002        4.8171        4.8172       4.772514       0.01272
   6     533.0        0.0449        0.0002        4.7247        4.7249       4.679963       0.01489
   5     589.8        0.0452        0.0002        4.6070        4.6072       4.562052       0.01750
   4     651.6        0.0456        0.0002        4.4514        4.4516       4.406015       0.02134
   3     718.7        0.0461        0.0002        4.2578        4.2580       4.211915       0.02439
   2     792.3        0.0470        0.0002        4.0286        4.0288       3.981818       0.02639
   1     891.5        0.0489        0.0002        3.7127        3.7129       3.664084       0.02704
   0    1013.0        0.0526        0.0002        3.3511        3.3513       3.298681       0.02537



 Wavenumbers:  3250. -  4000. cm-1, ATM      1
 LEVEL PRESSURE   UPWARD FLUX   DIFDOWN FLUX  DIRDOWN FLUX  DOWNWARD FLUX   NET FLUX    HEATING RATE
          mb          W/m2          W/m2          W/m2        W/m2          W/m2       degree/day
  51    .06700        0.0100        0.0000        9.1795        9.1795       9.169556       0.00000
  50    .07753        0.0100        0.0000        9.1748        9.1748       9.164868       3.75737
  49    .09103        0.0100        0.0000        9.1716        9.1716       9.161657       2.00711
  48    0.1069        0.0100        0.0000        9.1693        9.1693       9.159313       1.24758
  47    0.1255        0.0100        0.0000        9.1672        9.1672       9.157243       0.93853
  46    0.1487        0.0100        0.0000        9.1650        9.1650       9.155018       0.81097
  45    0.1794        0.0100        0.0000        9.1624        9.1624       9.152402       0.71818
  44    0.2165        0.0100        0.0000        9.1597        9.1597       9.149763       0.60036
  43    0.2613        0.0100        0.0000        9.1571        9.1571       9.147106       0.50075
  42    0.3336        0.0100        0.0000        9.1534        9.1534       9.143447       0.42668
  41    0.4307        0.0100        0.0000        9.1493        9.1493       9.139363       0.35504
  40    0.5894        0.0100        0.0000        9.1434        9.1434       9.133459       0.31398
  39     1.339        0.0100        0.0000        9.1203        9.1203       9.110339       0.26029
  38     1.782        0.0100        0.0000        9.1098        9.1098       9.099850       0.19968
  37     2.292        0.0100        0.0000        9.0997        9.0997       9.089692       0.16825
  36     2.964        0.0100        0.0000        9.0882        9.0882       9.078244       0.14371
  35     3.853        0.0100        0.0000        9.0747        9.0747       9.064714       0.12840
  34     5.035        0.0100        0.0000        9.0578        9.0578       9.047800       0.12083
  33     6.613        0.0100        0.0000        9.0354        9.0354       9.025422       0.11963
  32     8.786        0.0100        0.0000        9.0041        9.0041       8.994176       0.12135
  31     11.80        0.0100        0.0000        8.9573        8.9573       8.947328       0.13116
  30     15.07        0.0100        0.0000        8.9049        8.9050       8.895016       0.13506
  29     18.79        0.0099        0.0000        8.8444        8.8444       8.834469       0.13728
  28     23.16        0.0099        0.0000        8.7736        8.7737       8.763734       0.13678
  27     28.12        0.0099        0.0000        8.6952        8.6952       8.685313       0.13331
  26     33.73        0.0099        0.0000        8.6131        8.6131       8.603196       0.12346
  25     40.54        0.0099        0.0001        8.5231        8.5232       8.513260       0.11158
  24     48.69        0.0099        0.0001        8.4270        8.4270       8.417124       0.09949
  23     57.69        0.0099        0.0001        8.3320        8.3321       8.322175       0.08900
  22     68.43        0.0099        0.0001        8.2262        8.2263       8.216376       0.08317
  21     81.20        0.0099        0.0001        8.1040        8.1041       8.094265       0.08069
  20     96.49        0.0098        0.0001        7.9620        7.9621       7.952280       0.07837
  19     114.6        0.0098        0.0001        7.7998        7.8000       7.790158       0.07570
  18     136.5        0.0098        0.0002        7.6213        7.6215       7.611658       0.06864
  17     162.9        0.0098        0.0002        7.4269        7.4271       7.417365       0.06210
  16     196.4        0.0097        0.0002        7.1928        7.1931       7.183329       0.05891
  15     218.7        0.0097        0.0002        7.0258        7.0261       7.016370       0.06339
  14     243.0        0.0097        0.0003        6.8076        6.8079       6.798216       0.07566
  13     269.0        0.0097        0.0003        6.5170        6.5172       6.507574       0.09428
  12     297.5        0.0096        0.0003        6.1897        6.1900       6.180395       0.09704
  11     328.5        0.0096        0.0003        5.8545        5.8548       5.845227       0.09113
  10     361.9        0.0096        0.0003        5.5020        5.5024       5.492767       0.08918
   9     398.1        0.0096        0.0003        5.1166        5.1170       5.107370       0.08979
   8     437.6        0.0096        0.0003        4.6882        4.6885       4.678927       0.09160
   7     480.5        0.0096        0.0003        4.2431        4.2434       4.233782       0.08742
   6     533.0        0.0097        0.0003        3.7405        3.7408       3.731142       0.08086
   5     589.8        0.0098        0.0003        3.2490        3.2493       3.239521       0.07297
   4     651.6        0.0100        0.0003        2.7449        2.7452       2.735230       0.06896
   3     718.7        0.0104        0.0003        2.2553        2.2556       2.245249       0.06158
   2     792.3        0.0111        0.0002        1.7837        1.7839       1.772779       0.05419
   1     891.5        0.0132        0.0002        1.2381        1.2383       1.225104       0.04660
   0    1013.0        0.0191        0.0001        0.7377        0.7378       0.718695       0.03516



 Wavenumbers:  4000. -  4650. cm-1, ATM      1
 LEVEL PRESSURE   UPWARD FLUX   DIFDOWN FLUX  DIRDOWN FLUX  DOWNWARD FLUX   NET FLUX    HEATING RATE
          mb          W/m2          W/m2          W/m2        W/m2          W/m2       degree/day
  51    .06700        1.5002        0.0000       10.7795       10.7795       9.279303       0.00000
  50    .07753        1.5002        0.0000       10.7795       10.7795       9.279301       0.00082
  49    .09103        1.5002        0.0000       10.7795       10.7795       9.279300       0.00080
  48    0.1069        1.5002        0.0000       10.7795       10.7795       9.279299       0.00079
  47    0.1255        1.5002        0.0000       10.7795       10.7795       9.279297       0.00077
  46    0.1487        1.5002        0.0000       10.7795       10.7795       9.279295       0.00078
  45    0.1794        1.5002        0.0000       10.7795       10.7795       9.279292       0.00080
  44    0.2165        1.5002        0.0000       10.7795       10.7795       9.279289       0.00078
  43    0.2613        1.5002        0.0000       10.7795       10.7795       9.279284       0.00077
  42    0.3336        1.5002        0.0000       10.7795       10.7795       9.279278       0.00079
  41    0.4307        1.5002        0.0000       10.7795       10.7795       9.279268       0.00080
  40    0.5894        1.5002        0.0000       10.7795       10.7795       9.279253       0.00082
  39     1.339        1.5002        0.0000       10.7794       10.7794       9.279161       0.00104
  38     1.782        1.5002        0.0000       10.7793       10.7793       9.279089       0.00137
  37     2.292        1.5002        0.0000       10.7792       10.7792       9.278992       0.00160
  36     2.964        1.5002        0.0000       10.7791       10.7791       9.278848       0.00181
  35     3.853        1.5002        0.0000       10.7788       10.7789       9.278634       0.00203
  34     5.035        1.5002        0.0000       10.7785       10.7785       9.278318       0.00225
  33     6.613        1.5002        0.0000       10.7780       10.7781       9.277854       0.00248
  32     8.786        1.5002        0.0000       10.7774       10.7774       9.277169       0.00266
  31     11.80        1.5002        0.0000       10.7763       10.7763       9.276092       0.00301
  30     15.07        1.5002        0.0001       10.7750       10.7750       9.274829       0.00326
  29     18.79        1.5002        0.0001       10.7734       10.7735       9.273301       0.00346
  28     23.16        1.5002        0.0001       10.7715       10.7716       9.271403       0.00367
  27     28.12        1.5002        0.0001       10.7692       10.7693       9.269106       0.00391
  26     33.73        1.5002        0.0001       10.7663       10.7665       9.266272       0.00426
  25     40.54        1.5002        0.0002       10.7625       10.7626       9.262427       0.00477
  24     48.69        1.5002        0.0002       10.7573       10.7575       9.257302       0.00530
  23     57.69        1.5002        0.0002       10.7512       10.7515       9.251225       0.00570
  22     68.43        1.5003        0.0003       10.7436       10.7439       9.243606       0.00599
  21     81.20        1.5003        0.0003       10.7342       10.7346       9.234221       0.00620
  20     96.49        1.5004        0.0004       10.7229       10.7232       9.222802       0.00630
  19     114.6        1.5006        0.0004       10.7091       10.7095       9.208980       0.00645
  18     136.5        1.5008        0.0005       10.6926       10.6931       9.192330       0.00640
  17     162.9        1.5010        0.0006       10.6726       10.6732       9.172176       0.00644
  16     196.4        1.5015        0.0007       10.6462       10.6470       9.145482       0.00672
  15     218.7        1.5018        0.0008       10.6282       10.6290       9.127199       0.00694
  14     243.0        1.5023        0.0009       10.6074       10.6083       9.105970       0.00736
  13     269.0        1.5029        0.0010       10.5827       10.5837       9.080746       0.00818
  12     297.5        1.5038        0.0011       10.5529       10.5541       9.050315       0.00903
  11     328.5        1.5048        0.0012       10.5180       10.5193       9.014460       0.00975
  10     361.9        1.5061        0.0014       10.4774       10.4788       8.972624       0.01058
   9     398.1        1.5078        0.0015       10.4299       10.4314       8.923558       0.01143
   8     437.6        1.5100        0.0016       10.3734       10.3751       8.865073       0.01250
   7     480.5        1.5127        0.0018       10.3057       10.3075       8.794761       0.01381
   6     533.0        1.5168        0.0020       10.2105       10.2125       8.695715       0.01593
   5     589.8        1.5222        0.0021       10.0896       10.0918       8.569610       0.01872
   4     651.6        1.5297        0.0023        9.9304        9.9327       8.403034       0.02278
   3     718.7        1.5400        0.0025        9.7365        9.7390       8.199033       0.02564
   2     792.3        1.5548        0.0027        9.5099        9.5126       7.957830       0.02766
   1     891.5        1.5843        0.0030        9.1817        9.1846       7.600322       0.03042
   0    1013.0        1.6434        0.0032        8.7438        8.7470       7.103592       0.03449



 Wavenumbers:  4650. -  5150. cm-1, ATM      1
 LEVEL PRESSURE   UPWARD FLUX   DIFDOWN FLUX  DIRDOWN FLUX  DOWNWARD FLUX   NET FLUX    HEATING RATE
          mb          W/m2          W/m2          W/m2        W/m2          W/m2       degree/day
  51    .06700        0.3799        0.0000       10.2033       10.2033       9.823428       0.00000
  50    .07753        0.3799        0.0000       10.2031       10.2031       9.823198       0.18439
  49    .09103        0.3799        0.0000       10.2028       10.2028       9.822910       0.17979
  48    0.1069        0.3799        0.0000       10.2025       10.2025       9.822581       0.17495
  47    0.1255        0.3799        0.0000       10.2021       10.2021       9.822206       0.17004
  46    0.1487        0.3799        0.0000       10.2017       10.2017       9.821737       0.17113
  45    0.1794        0.3799        0.0000       10.2010       10.2010       9.821102       0.17421
  44    0.2165        0.3799        0.0000       10.2003       10.2003       9.820361       0.16864
  43    0.2613        0.3799        0.0000       10.1994       10.1994       9.819496       0.16292
  42    0.3336        0.3799        0.0000       10.1980       10.1980       9.818098       0.16306
  41    0.4307        0.3799        0.0000       10.1962       10.1962       9.816301       0.15626
  40    0.5894        0.3799        0.0000       10.1934       10.1934       9.813494       0.14927
  39     1.339        0.3799        0.0000       10.1821       10.1821       9.802166       0.12753
  38     1.782        0.3799        0.0000       10.1767       10.1767       9.796760       0.10293
  37     2.292        0.3799        0.0000       10.1713       10.1713       9.791422       0.08841
  36     2.964        0.3799        0.0000       10.1655       10.1655       9.785623       0.07279
  35     3.853        0.3799        0.0000       10.1594       10.1594       9.779532       0.05780
  34     5.035        0.3799        0.0000       10.1532       10.1532       9.773311       0.04444
  33     6.613        0.3799        0.0000       10.1468       10.1468       9.766955       0.03398
  32     8.786        0.3799        0.0000       10.1399       10.1399       9.760034       0.02688
  31     11.80        0.3799        0.0001       10.1309       10.1309       9.751085       0.02505
  30     15.07        0.3798        0.0001       10.1211       10.1211       9.741295       0.02528
  29     18.79        0.3798        0.0001       10.1091       10.1092       9.729393       0.02699
  28     23.16        0.3798        0.0001       10.0939       10.0940       9.714221       0.02934
  27     28.12        0.3798        0.0002       10.0749       10.0751       9.695293       0.03218
  26     33.73        0.3798        0.0002       10.0520       10.0522       9.672402       0.03442
  25     40.54        0.3798        0.0002       10.0223       10.0225       9.642763       0.03677
  24     48.69        0.3798        0.0003        9.9844        9.9847       9.604931       0.03915
  23     57.69        0.3797        0.0003        9.9412        9.9415       9.561784       0.04044
  22     68.43        0.3797        0.0004        9.8889        9.8893       9.509534       0.04108
  21     81.20        0.3797        0.0004        9.8270        9.8275       9.447724       0.04084
  20     96.49        0.3798        0.0005        9.7558        9.7564       9.376595       0.03926
  19     114.6        0.3798        0.0006        9.6767        9.6773       9.297491       0.03694
  18     136.5        0.3799        0.0007        9.5912        9.5919       9.212034       0.03286
  17     162.9        0.3800        0.0009        9.5002        9.5010       9.121079       0.02907
  16     196.4        0.3802        0.0010        9.3955        9.3965       9.016354       0.02636
  15     218.7        0.3803        0.0011        9.3316        9.3327       8.952402       0.02428
  14     243.0        0.3805        0.0012        9.2640        9.2652       8.884698       0.02348
  13     269.0        0.3808        0.0014        9.1912        9.1926       8.811737       0.02367
  12     297.5        0.3812        0.0015        9.1110        9.1125       8.731325       0.02385
  11     328.5        0.3817        0.0016        9.0219        9.0235       8.641866       0.02432
  10     361.9        0.3823        0.0018        8.9219        8.9237       8.541476       0.02540
   9     398.1        0.3830        0.0019        8.8095        8.8114       8.428389       0.02635
   8     437.6        0.3840        0.0021        8.6820        8.6841       8.300067       0.02744
   7     480.5        0.3853        0.0023        8.5380        8.5403       8.155043       0.02848
   6     533.0        0.3872        0.0025        8.3507        8.3532       7.965995       0.03041
   5     589.8        0.3898        0.0027        8.1393        8.1420       7.752195       0.03173
   4     651.6        0.3932        0.0029        7.8984        7.9013       7.508028       0.03339
   3     718.7        0.3980        0.0031        7.6284        7.6315       7.233513       0.03450
   2     792.3        0.4046        0.0033        7.3283        7.3316       6.926924       0.03516
   1     891.5        0.4169        0.0035        6.9215        6.9249       6.508003       0.03565
   0    1013.0        0.4390        0.0037        6.4532        6.4569       6.017915       0.03403



 Wavenumbers:  5150. -  6150. cm-1, ATM      1
 LEVEL PRESSURE   UPWARD FLUX   DIFDOWN FLUX  DIRDOWN FLUX  DOWNWARD FLUX   NET FLUX    HEATING RATE
          mb          W/m2          W/m2          W/m2        W/m2          W/m2       degree/day
  51    .06700        3.1313        0.0000       25.5798       25.5798      22.448560       0.00000
  50    .07753        3.1313        0.0000       25.5798       25.5798      22.448554       0.00478
  49    .09103        3.1313        0.0000       25.5798       25.5798      22.448547       0.00485
  48    0.1069        3.1313        0.0000       25.5798       25.5798      22.448537       0.00492
  47    0.1255        3.1313        0.0000       25.5798       25.5798      22.448526       0.00500
  46    0.1487        3.1313        0.0000       25.5798       25.5798      22.448512       0.00526
  45    0.1794        3.1313        0.0000       25.5797       25.5797      22.448492       0.00559
  44    0.2165        3.1313        0.0000       25.5797       25.5797      22.448467       0.00567
  43    0.2613        3.1313        0.0000       25.5797       25.5797      22.448436       0.00576
  42    0.3336        3.1313        0.0000       25.5796       25.5796      22.448384       0.00609
  41    0.4307        3.1313        0.0000       25.5796       25.5796      22.448313       0.00617
  40    0.5894        3.1312        0.0000       25.5794       25.5794      22.448194       0.00634
  39     1.339        3.1312        0.0000       25.5788       25.5788      22.447611       0.00655
  38     1.782        3.1312        0.0000       25.5784       25.5785      22.447266       0.00658
  37     2.292        3.1312        0.0001       25.5780       25.5781      22.446868       0.00658
  36     2.964        3.1312        0.0001       25.5775       25.5776      22.446355       0.00645
  35     3.853        3.1312        0.0001       25.5768       25.5769      22.445688       0.00632
  34     5.035        3.1312        0.0001       25.5759       25.5760      22.444810       0.00627
  33     6.613        3.1312        0.0002       25.5746       25.5748      22.443639       0.00626
  32     8.786        3.1311        0.0002       25.5730       25.5732      22.442068       0.00610
  31     11.80        3.1311        0.0003       25.5706       25.5709      22.439845       0.00622
  30     15.07        3.1311        0.0004       25.5681       25.5686      22.437495       0.00607
  29     18.79        3.1310        0.0005       25.5654       25.5659      22.434903       0.00588
  28     23.16        3.1310        0.0006       25.5623       25.5629      22.431944       0.00572
  27     28.12        3.1309        0.0008       25.5588       25.5596      22.428633       0.00563
  26     33.73        3.1309        0.0009       25.5550       25.5559      22.425021       0.00543
  25     40.54        3.1309        0.0011       25.5505       25.5516      22.420750       0.00530
  24     48.69        3.1308        0.0013       25.5453       25.5466      22.415767       0.00516
  23     57.69        3.1308        0.0015       25.5397       25.5412      22.410402       0.00503
  22     68.43        3.1308        0.0018       25.5331       25.5350      22.404128       0.00493
  21     81.20        3.1309        0.0022       25.5254       25.5276      22.396732       0.00489
  20     96.49        3.1309        0.0026       25.5162       25.5188      22.387888       0.00488
  19     114.6        3.1309        0.0031       25.5051       25.5081      22.377188       0.00500
  18     136.5        3.1310        0.0037       25.4915       25.4951      22.364106       0.00503
  17     162.9        3.1311        0.0043       25.4714       25.4758      22.344627       0.00623
  16     196.4        3.1313        0.0052       25.4291       25.4343      22.302998       0.01048
  15     218.7        3.1314        0.0058       25.3652       25.3710      22.239568       0.02408
  14     243.0        3.1316        0.0064       25.2444       25.2508      22.119226       0.04174
  13     269.0        3.1318        0.0071       25.0616       25.0687      21.936857       0.05916
  12     297.5        3.1322        0.0078       24.8026       24.8104      21.678201       0.07671
  11     328.5        3.1326        0.0085       24.4605       24.4689      21.336336       0.09295
  10     361.9        3.1332        0.0092       24.0404       24.0496      20.916418       0.10624
   9     398.1        3.1339        0.0099       23.5654       23.5753      20.441426       0.11066
   8     437.6        3.1349        0.0107       23.0409       23.0516      19.916722       0.11218
   7     480.5        3.1363        0.0115       22.4536       22.4651      19.328799       0.11547
   6     533.0        3.1385        0.0123       21.6584       21.6707      18.532150       0.12816
   5     589.8        3.1420        0.0131       20.7132       20.7263      17.584279       0.14070
   4     651.6        3.1479        0.0138       19.5843       19.5981      16.450140       0.15510
   3     718.7        3.1580        0.0144       18.3780       18.3923      15.234347       0.15279
   2     792.3        3.1758        0.0149       17.1648       17.1796      14.003843       0.14113
   1     891.5        3.2190        0.0155       15.8369       15.8525      12.633495       0.11661
   0    1013.0        3.3316        0.0165       14.7482       14.7647      11.433129       0.08335



 Wavenumbers:  6150. -  7700. cm-1, ATM      1
 LEVEL PRESSURE   UPWARD FLUX   DIFDOWN FLUX  DIRDOWN FLUX  DOWNWARD FLUX   NET FLUX    HEATING RATE
          mb          W/m2          W/m2          W/m2        W/m2          W/m2       degree/day
  51    .06700        5.7311        0.0000       47.3108       47.3108      41.579707       0.00000
  50    .07753        5.7311        0.0000       47.3108       47.3108      41.579685       0.01778
  49    .09103        5.7311        0.0000       47.3108       47.3108      41.579657       0.01760
  48    0.1069        5.7311        0.0000       47.3108       47.3108      41.579624       0.01741
  47    0.1255        5.7311        0.0000       47.3107       47.3107      41.579586       0.01723
  46    0.1487        5.7311        0.0000       47.3107       47.3107      41.579537       0.01769
  45    0.1794        5.7311        0.0000       47.3106       47.3106      41.579470       0.01839
  44    0.2165        5.7311        0.0000       47.3105       47.3105      41.579390       0.01824
  43    0.2613        5.7311        0.0000       47.3104       47.3104      41.579294       0.01811
  42    0.3336        5.7311        0.0000       47.3102       47.3102      41.579134       0.01873
  41    0.4307        5.7311        0.0000       47.3100       47.3100      41.578919       0.01869
  40    0.5894        5.7311        0.0001       47.3096       47.3097      41.578564       0.01884
  39     1.339        5.7310        0.0001       47.3077       47.3079      41.576876       0.01901
  38     1.782        5.7310        0.0002       47.3067       47.3069      41.575886       0.01884
  37     2.292        5.7309        0.0003       47.3054       47.3057      41.574749       0.01884
  36     2.964        5.7309        0.0003       47.3038       47.3041      41.573270       0.01855
  35     3.853        5.7308        0.0004       47.3017       47.3021      41.571341       0.01831
  34     5.035        5.7307        0.0006       47.2989       47.2995      41.568801       0.01815
  33     6.613        5.7305        0.0007       47.2952       47.2959      41.565432       0.01801
  32     8.786        5.7303        0.0010       47.2903       47.2912      41.560939       0.01745
  31     11.80        5.7300        0.0013       47.2833       47.2846      41.554605       0.01773
  30     15.07        5.7297        0.0017       47.2759       47.2776      41.547925       0.01725
  29     18.79        5.7293        0.0021       47.2677       47.2699      41.540534       0.01676
  28     23.16        5.7289        0.0026       47.2584       47.2610      41.532084       0.01634
  27     28.12        5.7285        0.0032       47.2479       47.2511      41.522634       0.01606
  26     33.73        5.7279        0.0038       47.2364       47.2403      41.512345       0.01547
  25     40.54        5.7273        0.0046       47.2230       47.2276      41.500287       0.01496
  24     48.69        5.7265        0.0055       47.2073       47.2128      41.486273       0.01450
  23     57.69        5.7256        0.0065       47.1905       47.1970      41.471379       0.01396
  22     68.43        5.7246        0.0077       47.1711       47.1788      41.454205       0.01350
  21     81.20        5.7234        0.0092       47.1486       47.1578      41.434358       0.01311
  20     96.49        5.7220        0.0109       47.1224       47.1333      41.411324       0.01271
  19     114.6        5.7202        0.0130       47.0918       47.1048      41.384543       0.01251
  18     136.5        5.7182        0.0154       47.0561       47.0715      41.353348       0.01200
  17     162.9        5.7157        0.0183       47.0110       47.0293      41.313536       0.01273
  16     196.4        5.7126        0.0220       46.9379       46.9599      41.247359       0.01666
  15     218.7        5.7106        0.0245       46.8535       46.8781      41.167482       0.03033
  14     243.0        5.7085        0.0271       46.6977       46.7248      41.016369       0.05241
  13     269.0        5.7063        0.0299       46.4399       46.4698      40.763523       0.08202
  12     297.5        5.7042        0.0329       46.0705       46.1034      40.399238       0.10804
  11     328.5        5.7022        0.0360       45.6044       45.6404      39.938233       0.12535
  10     361.9        5.7003        0.0392       45.0016       45.0408      39.340446       0.15125
   9     398.1        5.6989        0.0425       44.2421       44.2846      38.585726       0.17583
   8     437.6        5.6981        0.0458       43.3292       43.3750      37.676918       0.19431
   7     480.5        5.6985        0.0492       42.3036       42.3527      36.654241       0.20085
   6     533.0        5.7011        0.0530       40.9812       41.0342      35.333109       0.21253
   5     589.8        5.7079        0.0567       39.4020       39.4587      33.750779       0.23487
   4     651.6        5.7234        0.0598       37.4097       37.4695      31.746144       0.27414
   3     718.7        5.7535        0.0624       35.1656       35.2280      29.474442       0.28549
   2     792.3        5.8113        0.0645       32.7482       32.8127      27.001441       0.28363
   1     891.5        5.9575        0.0666       29.7421       29.8087      23.851207       0.26807
   0    1013.0        6.3314        0.0688       26.7594       26.8281      20.496719       0.23292



 Wavenumbers:  7700. -  8050. cm-1, ATM      1
 LEVEL PRESSURE   UPWARD FLUX   DIFDOWN FLUX  DIRDOWN FLUX  DOWNWARD FLUX   NET FLUX    HEATING RATE
          mb          W/m2          W/m2          W/m2        W/m2          W/m2       degree/day
  51    .06700        5.8021        0.0000       11.1810       11.1810       5.378880       0.00000
  50    .07753        5.8021        0.0000       11.1809       11.1809       5.378858       0.01746
  49    .09103        5.8021        0.0000       11.1809       11.1809       5.378831       0.01711
  48    0.1069        5.8021        0.0000       11.1809       11.1809       5.378800       0.01675
  47    0.1255        5.8021        0.0000       11.1809       11.1809       5.378763       0.01639
  46    0.1487        5.8021        0.0000       11.1808       11.1808       5.378718       0.01664
  45    0.1794        5.8021        0.0000       11.1808       11.1808       5.378655       0.01712
  44    0.2165        5.8021        0.0000       11.1807       11.1807       5.378582       0.01679
  43    0.2613        5.8022        0.0000       11.1806       11.1806       5.378494       0.01648
  42    0.3336        5.8022        0.0000       11.1805       11.1805       5.378350       0.01686
  41    0.4307        5.8022        0.0000       11.1803       11.1804       5.378158       0.01668
  40    0.5894        5.8023        0.0000       11.1801       11.1801       5.377845       0.01666
  39     1.339        5.8025        0.0001       11.1788       11.1789       5.376363       0.01668
  38     1.782        5.8027        0.0001       11.1781       11.1782       5.375492       0.01657
  37     2.292        5.8028        0.0001       11.1772       11.1773       5.374485       0.01669
  36     2.964        5.8031        0.0002       11.1761       11.1762       5.373162       0.01661
  35     3.853        5.8034        0.0002       11.1746       11.1748       5.371414       0.01658
  34     5.035        5.8038        0.0003       11.1726       11.1729       5.369093       0.01658
  33     6.613        5.8043        0.0004       11.1699       11.1703       5.365992       0.01658
  32     8.786        5.8050        0.0005       11.1664       11.1668       5.361815       0.01622
  31     11.80        5.8061        0.0006       11.1613       11.1619       5.355843       0.01672
  30     15.07        5.8072        0.0008       11.1558       11.1566       5.349437       0.01654
  29     18.79        5.8085        0.0010       11.1496       11.1507       5.342208       0.01639
  28     23.16        5.8099        0.0013       11.1424       11.1437       5.333775       0.01631
  27     28.12        5.8116        0.0015       11.1342       11.1358       5.324146       0.01637
  26     33.73        5.8136        0.0018       11.1251       11.1269       5.313391       0.01617
  25     40.54        5.8159        0.0022       11.1141       11.1163       5.300428       0.01608
  24     48.69        5.8187        0.0027       11.1009       11.1035       5.284845       0.01613
  23     57.69        5.8218        0.0031       11.0864       11.0896       5.267786       0.01599
  22     68.43        5.8255        0.0037       11.0694       11.0731       5.247550       0.01591
  21     81.20        5.8300        0.0044       11.0491       11.0536       5.223557       0.01585
  20     96.49        5.8354        0.0052       11.0253       11.0305       5.195132       0.01569
  19     114.6        5.8419        0.0062       10.9973       11.0035       5.161611       0.01565
  18     136.5        5.8496        0.0074       10.9644       10.9718       5.122192       0.01516
  17     162.9        5.8590        0.0087       10.9259       10.9347       5.075671       0.01487
  16     196.4        5.8714        0.0105       10.8768       10.8873       5.015984       0.01502
  15     218.7        5.8796        0.0117       10.8451       10.8568       4.977142       0.01475
  14     243.0        5.8887        0.0130       10.8110       10.8240       4.935210       0.01454
  13     269.0        5.8988        0.0143       10.7745       10.7889       4.890077       0.01464
  12     297.5        5.9098        0.0158       10.7356       10.7514       4.841611       0.01437
  11     328.5        5.9220        0.0174       10.6941       10.7115       4.789553       0.01415
  10     361.9        5.9353        0.0191       10.6500       10.6691       4.733799       0.01411
   9     398.1        5.9501        0.0210       10.6031       10.6241       4.674065       0.01392
   8     437.6        5.9663        0.0230       10.5534       10.5764       4.610102       0.01368
   7     480.5        5.9841        0.0251       10.5007       10.5258       4.541638       0.01345
   6     533.0        6.0069        0.0277       10.4365       10.4642       4.457290       0.01357
   5     589.8        6.0325        0.0305       10.3677       10.3982       4.365770       0.01358
   4     651.6        6.0614        0.0336       10.2939       10.3275       4.266067       0.01363
   3     718.7        6.0945        0.0368       10.2143       10.2511       4.156602       0.01376
   2     792.3        6.1326        0.0403       10.1276       10.1678       4.035255       0.01392
   1     891.5        6.1889        0.0449       10.0074       10.0524       3.863471       0.01462
   0    1013.0        6.2651        0.0505        9.8573        9.9078       3.642751       0.01533



 Wavenumbers:  8050. - 12850. cm-1, ATM      1
 LEVEL PRESSURE   UPWARD FLUX   DIFDOWN FLUX  DIRDOWN FLUX  DOWNWARD FLUX   NET FLUX    HEATING RATE
          mb          W/m2          W/m2          W/m2        W/m2          W/m2       degree/day
  51    .06700      115.4209        0.0000      156.5418      156.5418      41.120812       0.00000
  50    .07753      115.4209        0.0000      156.5417      156.5417      41.120812      -0.00000
  49    .09103      115.4209        0.0001      156.5417      156.5417      41.120812       0.00000
  48    0.1069      115.4209        0.0001      156.5416      156.5417      41.120812       0.00000
  47    0.1255      115.4209        0.0002      156.5415      156.5417      41.120812      -0.00000
  46    0.1487      115.4209        0.0002      156.5414      156.5417      41.120812       0.00000
  45    0.1794      115.4208        0.0003      156.5413      156.5416      41.120812       0.00000
  44    0.2165      115.4208        0.0005      156.5412      156.5416      41.120812       0.00000
  43    0.2613      115.4208        0.0006      156.5410      156.5416      41.120812      -0.00000
  42    0.3336      115.4207        0.0008      156.5407      156.5415      41.120812       0.00000
  41    0.4307      115.4206        0.0011      156.5403      156.5414      41.120812      -0.00000
  40    0.5894      115.4204        0.0016      156.5397      156.5413      41.120812       0.00000
  39     1.339      115.4197        0.0038      156.5367      156.5405      41.120812       0.00000
  38     1.782      115.4193        0.0051      156.5350      156.5401      41.120812      -0.00000
  37     2.292      115.4188        0.0067      156.5330      156.5397      41.120812       0.00000
  36     2.964      115.4182        0.0087      156.5303      156.5390      41.120812       0.00000
  35     3.853      115.4174        0.0113      156.5268      156.5382      41.120812       0.00000
  34     5.035      115.4163        0.0149      156.5222      156.5371      41.120812      -0.00000
  33     6.613      115.4148        0.0196      156.5160      156.5356      41.120812       0.00000
  32     8.786      115.4128        0.0260      156.5076      156.5336      41.120812       0.00000
  31     11.80      115.4099        0.0351      156.4957      156.5307      41.120812      -0.00000
  30     15.07      115.4068        0.0449      156.4828      156.5277      41.120812       0.00000
  29     18.79      115.4034        0.0559      156.4682      156.5242      41.120812       0.00000
  28     23.16      115.3993        0.0689      156.4512      156.5201      41.120812      -0.00000
  27     28.12      115.3946        0.0837      156.4317      156.5154      41.120812       0.00000
  26     33.73      115.3894        0.1004      156.4099      156.5102      41.120812       0.00000
  25     40.54      115.3831        0.1205      156.3834      156.5039      41.120812      -0.00000
  24     48.69      115.3754        0.1447      156.3515      156.4963      41.120812       0.00000
  23     57.69      115.3671        0.1714      156.3164      156.4879      41.120812       0.00000
  22     68.43      115.3570        0.2033      156.2746      156.4778      41.120812      -0.00000
  21     81.20      115.3451        0.2413      156.2246      156.4659      41.120812      -0.00000
  20     96.49      115.3308        0.2867      156.1649      156.4516      41.120812       0.00000
  19     114.6      115.3139        0.3407      156.0931      156.4338      41.119884       0.00043
  18     136.5      115.2937        0.4048      156.0077      156.4125      41.118727       0.00044
  17     162.9      115.2697        0.4813      155.9052      156.3865      41.116800       0.00062
  16     196.4      115.2386        0.5809      155.7695      156.3504      41.111809       0.00126
  15     218.7      115.2182        0.6464      155.6740      156.3204      41.102228       0.00364
  14     243.0      115.1964        0.7178      155.5569      156.2747      41.078342       0.00828
  13     269.0      115.1736        0.7953      155.4035      156.1988      41.025220       0.01723
  12     297.5      115.1507        0.8791      155.1951      156.0743      40.923573       0.03015
  11     328.5      115.1280        0.9699      154.9294      155.8993      40.771232       0.04142
  10     361.9      115.1067        1.0677      154.5992      155.6669      40.560212       0.05339
   9     398.1      115.0886        1.1731      154.1934      155.3665      40.277918       0.06577
   8     437.6      115.0768        1.2863      153.6973      154.9836      39.906821       0.07934
   7     480.5      115.0751        1.4077      153.1047      154.5124      39.437360       0.09220
   6     533.0      115.0933        1.5570      152.2819      153.8389      38.745640       0.11128
   5     589.8      115.1498        1.7175      151.2306      152.9481      37.798256       0.14062
   4     651.6      115.2868        1.8881      149.7791      151.6671      36.380319       0.19391
   3     718.7      115.5567        2.0682      147.8559      149.9241      34.367465       0.25296
   2     792.3      116.0694        2.2561      145.3245      147.5806      31.511169       0.32759
   1     891.5      117.3251        2.4991      141.2463      143.7454      26.420351       0.43320
   0    1013.0      120.1703        2.7771      135.8843      138.6614      18.491102       0.55057



 Wavenumbers: 12850. - 16000. cm-1, ATM      1
 LEVEL PRESSURE   UPWARD FLUX   DIFDOWN FLUX  DIRDOWN FLUX  DOWNWARD FLUX   NET FLUX    HEATING RATE
          mb          W/m2          W/m2          W/m2        W/m2          W/m2       degree/day
  51    .06700       84.6656        0.0000       98.0872       98.0872      13.421663       0.00000
  50    .07753       84.6656        0.0001       98.0864       98.0864      13.420868       0.63675
  49    .09103       84.6656        0.0002       98.0853       98.0855      13.419870       0.62398
  48    0.1069       84.6656        0.0003       98.0841       98.0843      13.418722       0.61102
  47    0.1255       84.6656        0.0004       98.0826       98.0830      13.417402       0.59839
  46    0.1487       84.6657        0.0005       98.0809       98.0814      13.415735       0.60780
  45    0.1794       84.6657        0.0008       98.0784       98.0792      13.413464       0.62334
  44    0.2165       84.6658        0.0010       98.0756       98.0766      13.410790       0.60832
  43    0.2613       84.6660        0.0013       98.0723       98.0736      13.407641       0.59360
  42    0.3336       84.6663        0.0018       98.0670       98.0688      13.402492       0.60028
  41    0.4307       84.6668        0.0024       98.0602       98.0626      13.395821       0.58005
  40    0.5894       84.6678        0.0035       98.0496       98.0530      13.385278       0.56066
  39     1.339       84.6758        0.0084       98.0043       98.0128      13.337005       0.54347
  38     1.782       84.6829        0.0113       97.9793       97.9906      13.307699       0.55793
  37     2.292       84.6935        0.0147       97.9498       97.9645      13.270977       0.60821
  36     2.964       84.7109        0.0191       97.9088       97.9279      13.217014       0.67740
  35     3.853       84.7389        0.0249       97.8503       97.8753      13.136397       0.76507
  34     5.035       84.7809        0.0327       97.7680       97.8007      13.019751       0.83328
  33     6.613       84.8396        0.0430       97.6562       97.6992      12.859634       0.85599
  32     8.786       84.9160        0.0569       97.5107       97.5676      12.651623       0.80784
  31     11.80       85.0157        0.0769       97.3179       97.3947      12.379054       0.76311
  30     15.07       85.1114        0.0982       97.1283       97.2265      12.115144       0.68136
  29     18.79       85.2094        0.1223       96.9300       97.0523      11.842935       0.61718
  28     23.16       85.3122        0.1504       96.7166       96.8670      11.554833       0.55710
  27     28.12       85.4161        0.1826       96.4935       96.6761      11.260025       0.50115
  26     33.73       85.5128        0.2186       96.2731       96.4917      10.978904       0.42267
  25     40.54       85.6070        0.2621       96.0408       96.3029      10.695851       0.35116
  24     48.69       85.6986        0.3145       95.7946       96.1091      10.410441       0.29535
  23     57.69       85.7781        0.3721       95.5573       95.9294      10.151316       0.24289
  22     68.43       85.8498        0.4408       95.3106       95.7514       9.901649       0.19627
  21     81.20       85.9037        0.5227       95.0644       95.5871       9.683417       0.14420
  20     96.49       85.9388        0.6205       94.8153       95.4358       9.496955       0.10291
  19     114.6       85.9756        0.7375       94.5412       95.2787       9.303089       0.09052
  18     136.5       86.0075        0.8763       94.2324       95.1087       9.101202       0.07763
  17     162.9       86.0348        1.0415       93.8760       94.9175       8.882658       0.06986
  16     196.4       86.0475        1.2558       93.4358       94.6916       8.644141       0.06004
  15     218.7       86.0477        1.3966       93.1534       94.5499       8.502208       0.05389
  14     243.0       86.0446        1.5496       92.8482       94.3978       8.353156       0.05170
  13     269.0       86.0379        1.7154       92.5204       94.2358       8.197945       0.05035
  12     297.5       86.0276        1.8946       92.1688       94.0634       8.035756       0.04810
  11     328.5       86.0159        2.0882       91.7904       93.8786       7.862734       0.04704
  10     361.9       86.0030        2.2967       91.3844       93.6811       7.678071       0.04672
   9     398.1       85.9897        2.5211       90.9496       93.4707       7.481081       0.04589
   8     437.6       85.9771        2.7622       90.4834       93.2456       7.268528       0.04545
   7     480.5       85.9663        3.0207       89.9845       93.0051       7.038882       0.04510
   6     533.0       85.9585        3.3389       89.3686       92.7075       6.749037       0.04663
   5     589.8       85.9599        3.6823       88.6982       92.3805       6.420570       0.04876
   4     651.6       85.9793        4.0512       87.9619       92.0131       6.033787       0.05289
   3     718.7       86.0274        4.4464       87.1504       91.5968       5.569396       0.05836
   2     792.3       86.1241        4.8682       86.2458       91.1140       4.989892       0.06646
   1     891.5       86.3570        5.4335       84.9593       90.3927       4.035781       0.08119
   0    1013.0       86.8325        6.1054       83.3348       89.4401       2.607624       0.09916



 Wavenumbers: 16000. - 22650. cm-1, ATM      1
 LEVEL PRESSURE   UPWARD FLUX   DIFDOWN FLUX  DIRDOWN FLUX  DOWNWARD FLUX   NET FLUX    HEATING RATE
          mb          W/m2          W/m2          W/m2        W/m2          W/m2       degree/day
  51    .06700      141.7790        0.0000      156.3892      156.3892      14.610241       0.00000
  50    .07753      141.7790        0.0004      156.3887      156.3891      14.610093       0.11904
  49    .09103      141.7790        0.0009      156.3879      156.3888      14.609877       0.13501
  48    0.1069      141.7790        0.0015      156.3871      156.3885      14.609588       0.15396
  47    0.1255      141.7790        0.0021      156.3861      156.3882      14.609200       0.17550
  46    0.1487      141.7790        0.0030      156.3847      156.3877      14.608630       0.20796
  45    0.1794      141.7792        0.0041      156.3828      156.3869      14.607738       0.24486
  44    0.2165      141.7794        0.0054      156.3805      156.3859      14.606528       0.27519
  43    0.2613      141.7798        0.0070      156.3776      156.3847      14.604887       0.30938
  42    0.3336      141.7805        0.0097      156.3726      156.3823      14.601766       0.36383
  41    0.4307      141.7818        0.0132      156.3657      156.3789      14.597063       0.40898
  40    0.5894      141.7845        0.0189      156.3537      156.3726      14.588092       0.47706
  39     1.339      141.8075        0.0459      156.2834      156.3293      14.521814       0.74617
  38     1.782      141.8288        0.0618      156.2324      156.2941      14.465353       1.07492
  37     2.292      141.8606        0.0801      156.1641      156.2442      14.383625       1.35363
  36     2.964      141.9135        0.1042      156.0605      156.1647      14.251224       1.66203
  35     3.853      141.9990        0.1360      155.9041      156.0401      14.041134       1.99379
  34     5.035      142.1279        0.1783      155.6774      155.8556      13.727692       2.23910
  33     6.613      142.3081        0.2346      155.3656      155.6002      13.292090       2.32873
  32     8.786      142.5428        0.3104      154.9577      155.2681      12.725259       2.20137
  31     11.80      142.8484        0.4188      154.4153      154.8340      11.985666       2.07063
  30     15.07      143.1411        0.5349      153.8804      154.4153      11.274175       1.83693
  29     18.79      143.4400        0.6659      153.3191      153.9850      10.544935       1.65341
  28     23.16      143.7525        0.8186      152.7126      153.5312       9.778661       1.48173
  27     28.12      144.0671        0.9931      152.0755      153.0686       9.001498       1.32112
  26     33.73      144.3576        1.1881      151.4409      152.6290       8.271480       1.09760
  25     40.54      144.6373        1.4235      150.7637      152.1872       7.549928       0.89517
  24     48.69      144.9054        1.7071      150.0339      151.7409       6.835551       0.73927
  23     57.69      145.1329        2.0181      149.3151      151.3333       6.200372       0.59539
  22     68.43      145.3317        2.3882      148.5476      150.9358       5.604082       0.46876
  21     81.20      145.4697        2.8289      147.7517      150.5805       5.110792       0.32596
  20     96.49      145.5424        3.3534      146.9127      150.2661       4.723669       0.21366
  19     114.6      145.5809        3.9744      145.9763      149.9508       4.369809       0.16523
  18     136.5      145.5949        4.7078      144.9088      149.6166       4.021699       0.13386
  17     162.9      145.5826        5.5770      143.6786      149.2556       3.673001       0.11146
  16     196.4      145.5042        6.6985      142.1652      148.8637       3.359452       0.07892
  15     218.7      145.4298        7.4313      141.2036      148.6350       3.205139       0.05859
  14     243.0      145.3384        8.2246      140.1760      148.4006       3.062146       0.04959
  13     269.0      145.2283        9.0803      139.0812      148.1615       2.933229       0.04182
  12     297.5      145.0985       10.0006      137.9172      147.9178       2.819270       0.03380
  11     328.5      144.9532       10.9897      136.6733      147.6630       2.709773       0.02977
  10     361.9      144.7919       12.0485      135.3488      147.3973       2.605357       0.02642
   9     398.1      144.6139       13.1811      133.9387      147.1198       2.505923       0.02317
   8     437.6      144.4196       14.3895      132.4397      146.8291       2.409562       0.02060
   7     480.5      144.2082       15.6757      130.8497      146.5254       2.317243       0.01813
   6     533.0      143.9452       17.2466      128.9138      146.1604       2.215158       0.01642
   5     589.8      143.6610       18.9249      126.8498      145.7747       2.113683       0.01506
   4     651.6      143.3568       20.7119      124.6543      145.3662       2.009386       0.01426
   3     718.7      143.0336       22.6096      122.3237      144.9333       1.899708       0.01378
   2     792.3      142.6942       24.6163      119.8568      144.4731       1.778937       0.01385
   1     891.5      142.2526       27.2827      116.5696      143.8524       1.599766       0.01525
   0    1013.0      141.7492       30.4206      112.6856      143.1063       1.357024       0.01685



 Wavenumbers: 22650. - 29000. cm-1, ATM      1
 LEVEL PRESSURE   UPWARD FLUX   DIFDOWN FLUX  DIRDOWN FLUX  DOWNWARD FLUX   NET FLUX    HEATING RATE
          mb          W/m2          W/m2          W/m2        W/m2          W/m2       degree/day
  51    .06700       58.6820        0.0000       59.0156       59.0156       0.333635       0.00000
  50    .07753       58.6819        0.0005       59.0151       59.0155       0.333635       0.00000
  49    .09103       58.6818        0.0010       59.0144       59.0154       0.333635       0.00000
  48    0.1069       58.6816        0.0017       59.0136       59.0153       0.333635       0.00000
  47    0.1255       58.6815        0.0025       59.0127       59.0151       0.333635      -0.00000
  46    0.1487       58.6813        0.0035       59.0115       59.0149       0.333635       0.00000
  45    0.1794       58.6811        0.0048       59.0099       59.0147       0.333635       0.00000
  44    0.2165       58.6808        0.0063       59.0080       59.0144       0.333635      -0.00000
  43    0.2613       58.6804        0.0082       59.0058       59.0140       0.333635       0.00000
  42    0.3336       58.6798        0.0113       59.0022       59.0134       0.333635      -0.00000
  41    0.4307       58.6790        0.0154       58.9973       59.0127       0.333635       0.00000
  40    0.5894       58.6777        0.0220       58.9894       59.0114       0.333635       0.00000
  39     1.339       58.6717        0.0535       58.9518       59.0053       0.333635       0.00000
  38     1.782       58.6681        0.0720       58.9297       59.0017       0.333635       0.00000
  37     2.292       58.6640        0.0934       58.9042       58.9976       0.333635      -0.00000
  36     2.964       58.6586        0.1216       58.8706       58.9922       0.333635       0.00000
  35     3.853       58.6514        0.1587       58.8264       58.9851       0.333635       0.00000
  34     5.035       58.6419        0.2080       58.7676       58.9756       0.333635      -0.00000
  33     6.613       58.6293        0.2738       58.6891       58.9629       0.333635       0.00000
  32     8.786       58.6122        0.3624       58.5834       58.9458       0.333635       0.00000
  31     11.80       58.5878        0.4890       58.4325       58.9215       0.333635      -0.00000
  30     15.07       58.5617        0.6247       58.2706       58.8953       0.333635       0.00000
  29     18.79       58.5323        0.7776       58.0882       58.8659       0.333635      -0.00000
  28     23.16       58.4979        0.9559       57.8757       58.8316       0.333635      -0.00000
  27     28.12       58.4588        1.1591       57.6333       58.7924       0.333635       0.00000
  26     33.73       58.4152        1.3857       57.3631       58.7488       0.333635      -0.00000
  25     40.54       58.3626        1.6584       57.0379       58.6963       0.333635       0.00000
  24     48.69       58.2996        1.9854       56.6479       58.6333       0.333635       0.00000
  23     57.69       58.2309        2.3424       56.2221       58.5645       0.333635       0.00000
  22     68.43       58.1495        2.7646       55.7186       58.4832       0.333635      -0.00000
  21     81.20       58.0534        3.2632       55.1239       58.3871       0.333635       0.00000
  20     96.49       57.9401        3.8510       54.4228       58.2738       0.333635      -0.00000
  19     114.6       57.8073        4.5400       53.6010       58.1410       0.333635       0.00000
  18     136.5       57.6522        5.3441       52.6418       57.9859       0.333635      -0.00000
  17     162.9       57.4709        6.2842       51.5204       57.8045       0.333635       0.00000
  16     196.4       57.2410        7.4752       50.0995       57.5747       0.333635       0.00000
  15     218.7       57.0933        8.2406       49.1863       57.4269       0.333635       0.00000
  14     243.0       56.9354        9.0577       48.2114       57.2691       0.333635      -0.00000
  13     269.0       56.7676        9.9261       47.1752       57.1013       0.333635       0.00000
  12     297.5       56.5900       10.8449       46.0787       56.9236       0.333635       0.00000
  11     328.5       56.4023       11.8156       44.9203       56.7359       0.333635      -0.00000
  10     361.9       56.2049       12.8354       43.7031       56.5386       0.333635       0.00000
   9     398.1       55.9979       13.9045       42.4270       56.3316       0.333635      -0.00000
   8     437.6       55.7817       15.0207       41.0946       56.1153       0.333635       0.00000
   7     480.5       55.5566       16.1813       39.7089       55.8902       0.333635      -0.00000
   6     533.0       55.2889       17.5608       38.0617       55.6225       0.333635       0.00000
   5     589.8       55.0113       18.9894       36.3555       55.3449       0.333635       0.00000
   4     651.6       54.7250       20.4609       34.5978       55.0587       0.333635      -0.00000
   3     718.7       54.4311       21.9694       32.7954       54.7648       0.333635       0.00000
   2     792.3       54.1315       23.5049       30.9603       54.4652       0.333635       0.00000
   1     891.5       53.7511       25.4504       28.6343       54.0847       0.333635      -0.00000
   0    1013.0       53.3271       27.6127       26.0481       53.6607       0.333635      -0.00000



 Wavenumbers: 29000. - 38000. cm-1, ATM      1
 LEVEL PRESSURE   UPWARD FLUX   DIFDOWN FLUX  DIRDOWN FLUX  DOWNWARD FLUX   NET FLUX    HEATING RATE
          mb          W/m2          W/m2          W/m2        W/m2          W/m2       degree/day
  51    .06700        8.7676        0.0000       20.8114       20.8114      12.043769       0.00000
  50    .07753        8.7674        0.0003       20.8070       20.8074      12.039962       3.05155
  49    .09103        8.7672        0.0007       20.8009       20.8016      12.034425       3.46085
  48    0.1069        8.7669        0.0012       20.7928       20.7939      12.027015       3.94429
  47    0.1255        8.7666        0.0017       20.7820       20.7837      12.017110       4.49034
  46    0.1487        8.7663        0.0024       20.7665       20.7688      12.002547       5.30844
  45    0.1794        8.7658        0.0033       20.7424       20.7457      11.979882       6.22204
  44    0.2165        8.7653        0.0044       20.7103       20.7147      11.949360       6.94340
  43    0.2613        8.7647        0.0056       20.6675       20.6731      11.908365       7.72732
  42    0.3336        8.7638        0.0077       20.5880       20.5957      11.831804       8.92625
  41    0.4307        8.7628        0.0104       20.4722       20.4826      11.719851       9.73402
  40    0.5894        8.7612        0.0147       20.2637       20.2784      11.517168      10.77846
  39     1.339        8.7578        0.0331       19.0984       19.1315      10.373691      12.87347
  38     1.782        8.7583        0.0427       18.4394       18.4821       9.723766      12.37351
  37     2.292        8.7610        0.0530       17.7714       17.8244       9.063422      10.93703
  36     2.964        8.7675        0.0657       17.0421       17.1078       8.340298       9.07739
  35     3.853        8.7804        0.0816       16.2679       16.3495       7.569119       7.31863
  34     5.035        8.8015        0.1018       15.4803       15.5821       6.780626       5.63267
  33     6.613        8.8322        0.1276       14.7157       14.8433       6.011044       4.11418
  32     8.786        8.8728        0.1614       13.9936       14.1549       5.282098       2.83096
  31     11.80        8.9258        0.2084       13.2835       13.4920       4.566140       2.00446
  30     15.07        8.9769        0.2573       12.7394       12.9966       4.019670       1.41088
  29     18.79        9.0297        0.3114       12.2666       12.5780       3.548228       1.06890
  28     23.16        9.0858        0.3729       11.8300       12.2029       3.117093       0.83368
  27     28.12        9.1433        0.4418       11.4279       11.8697       2.726402       0.66415
  26     33.73        9.1963        0.5178       11.0695       11.5872       2.390898       0.50444
  25     40.54        9.2467        0.6085       10.7209       11.3294       2.082731       0.38232
  24     48.69        9.2942        0.7162       10.3742       11.0904       1.796174       0.29654
  23     57.69        9.3332        0.8328       10.0549       10.8877       1.554412       0.22662
  22     68.43        9.3648        0.9695        9.7327       10.7022       1.337372       0.17062
  21     81.20        9.3800        1.1309        9.4134       10.5443       1.164302       0.11436
  20     96.49        9.3769        1.3207        9.0887       10.4094       1.032554       0.07272
  19     114.6        9.3635        1.5400        8.7388       10.2788       0.915281       0.05476
  18     136.5        9.3428        1.7907        8.3549       10.1456       0.802753       0.04327
  17     162.9        9.3151        2.0765        7.9311       10.0076       0.692574       0.03522
  16     196.4        9.2682        2.4305        7.4333        9.8638       0.595593       0.02441
  15     218.7        9.2345        2.6532        7.1296        9.7828       0.548293       0.01796
  14     243.0        9.1975        2.8860        6.8161        9.7021       0.504615       0.01515
  13     269.0        9.1570        3.1280        6.4944        9.6224       0.465395       0.01272
  12     297.5        9.1132        3.3782        6.1659        9.5441       0.430821       0.01025
  11     328.5        9.0675        3.6356        5.8296        9.4652       0.397718       0.00900
  10     361.9        9.0204        3.8977        5.4889        9.3866       0.366234       0.00797
   9     398.1        8.9719        4.1639        5.1443        9.3083       0.336397       0.00695
   8     437.6        8.9226        4.4329        4.7973        9.2302       0.307635       0.00615
   7     480.5        8.8728        4.7024        4.4507        9.1531       0.280329       0.00536
   6     533.0        8.8158        5.0093        4.0571        9.0663       0.250568       0.00479
   5     589.8        8.7598        5.3112        3.6703        8.9815       0.221750       0.00428
   4     651.6        8.7054        5.6061        3.2928        8.8990       0.193550       0.00386
   3     718.7        8.6534        5.8910        2.9284        8.8193       0.165927       0.00347
   2     792.3        8.6046        6.1623        2.5813        8.7435       0.138887       0.00310
   1     891.5        8.5489        6.4810        2.1734        8.6544       0.105496       0.00284
   0    1013.0        8.4958        6.8007        1.7638        8.5645       0.068616       0.00256



 Wavenumbers: 38000. - 50000. cm-1, ATM      1
 LEVEL PRESSURE   UPWARD FLUX   DIFDOWN FLUX  DIRDOWN FLUX  DOWNWARD FLUX   NET FLUX    HEATING RATE
          mb          W/m2          W/m2          W/m2        W/m2          W/m2       degree/day
  51    .06700        0.0061        0.0000        1.2836        1.2836       1.277518       0.00000
  50    .07753        0.0061        0.0001        1.2812        1.2812       1.275183       1.87150
  49    .09103        0.0060        0.0002        1.2777        1.2778       1.271851       2.08247
  48    0.1069        0.0059        0.0002        1.2731        1.2734       1.267473       2.33059
  47    0.1255        0.0058        0.0004        1.2672        1.2675       1.261717       2.60908
  46    0.1487        0.0057        0.0005        1.2586        1.2591       1.253391       3.03499
  45    0.1794        0.0055        0.0007        1.2455        1.2462       1.240623       3.50520
  44    0.2165        0.0054        0.0009        1.2282        1.2291       1.223697       3.85037
  43    0.2613        0.0052        0.0011        1.2054        1.2065       1.201348       4.21261
  42    0.3336        0.0049        0.0015        1.1639        1.1654       1.160524       4.75970
  41    0.4307        0.0045        0.0020        1.1051        1.1070       1.102565       5.03943
  40    0.5894        0.0039        0.0026        1.0039        1.0064       1.002524       5.32007
  39     1.339        0.0022        0.0035        0.5438        0.5473       0.545105       5.14971
  38     1.782        0.0016        0.0032        0.3635        0.3666       0.365006       3.42879
  37     2.292        0.0012        0.0027        0.2356        0.2383       0.237058       2.11916
  36     2.964        0.0009        0.0022        0.1455        0.1477       0.146786       1.13318
  35     3.853        0.0006        0.0017        0.0858        0.0875       0.086906       0.56828
  34     5.035        0.0004        0.0013        0.0488        0.0501       0.049701       0.26578
  33     6.613        0.0003        0.0010        0.0273        0.0282       0.027974       0.11615
  32     8.786        0.0002        0.0007        0.0144        0.0151       0.014928       0.05067
  31     11.80        0.0001        0.0004        0.0065        0.0070       0.006903       0.02247
  30     15.07        0.0000        0.0003        0.0031        0.0034       0.003329       0.00923
  29     18.79        0.0000        0.0002        0.0014        0.0016       0.001583       0.00396
  28     23.16        0.0000        0.0001        0.0006        0.0007       0.000720       0.00167
  27     28.12        0.0000        0.0001        0.0003        0.0003       0.000317       0.00069
  26     33.73        0.0000        0.0000        0.0001        0.0001       0.000140       0.00027
  25     40.54        0.0000        0.0000        0.0000        0.0001       0.000057       0.00010
  24     48.69        0.0000        0.0000        0.0000        0.0000       0.000021       0.00004
  23     57.69        0.0000        0.0000        0.0000        0.0000       0.000008       0.00001
  22     68.43        0.0000        0.0000        0.0000        0.0000       0.000003       0.00000
  21     81.20        0.0000        0.0000        0.0000        0.0000       0.000001       0.00000
  20     96.49        0.0000        0.0000        0.0000        0.0000       0.000000       0.00000
  19     114.6        0.0000        0.0000        0.0000        0.0000       0.000000       0.00000
  18     136.5        0.0000        0.0000        0.0000        0.0000       0.000000       0.00000
  17     162.9        0.0000        0.0000        0.0000        0.0000       0.000000       0.00000
  16     196.4        0.0000        0.0000        0.0000        0.0000       0.000000       0.00000
  15     218.7        0.0000        0.0000        0.0000        0.0000       0.000000       0.00000
  14     243.0        0.0000        0.0000        0.0000        0.0000       0.000000       0.00000
  13     269.0        0.0000        0.0000        0.0000        0.0000       0.000000       0.00000
  12     297.5        0.0000        0.0000        0.0000        0.0000       0.000000       0.00000
  11     328.5        0.0000        0.0000        0.0000        0.0000       0.000000       0.00000
  10     361.9        0.0000        0.0000        0.0000        0.0000       0.000000       0.00000
   9     398.1        0.0000        0.0000        0.0000        0.0000       0.000000       0.00000
   8     437.6        0.0000        0.0000        0.0000        0.0000       0.000000       0.00000
   7     480.5        0.0000        0.0000        0.0000        0.0000       0.000000       0.00000
   6     533.0        0.0000        0.0000        0.0000        0.0000       0.000000       0.00000
   5     589.8        0.0000        0.0000        0.0000        0.0000       0.000000       0.00000
   4     651.6        0.0000        0.0000        0.0000        0.0000       0.000000       0.00000
   3     718.7        0.0000        0.0000        0.0000        0.0000       0.000000       0.00000
   2     792.3        0.0000        0.0000        0.0000        0.0000       0.000000       0.00000
   1     891.5        0.0000        0.0000        0.0000        0.0000       0.000000       0.00000
   0    1013.0        0.0000        0.0000        0.0000        0.0000       0.000000       0.00000



 Wavenumbers:   820. -  2600. cm-1, ATM      1
 LEVEL PRESSURE   UPWARD FLUX   DIFDOWN FLUX  DIRDOWN FLUX  DOWNWARD FLUX   NET FLUX    HEATING RATE
          mb          W/m2          W/m2          W/m2        W/m2          W/m2       degree/day
  51    .06700        0.0277        0.0000        6.0047        6.0047       5.976919       0.00000
  50    .07753        0.0277        0.0000        6.0009        6.0009       5.973129       3.03797
  49    .09103        0.0277        0.0000        6.0001        6.0001       5.972325       0.50252
  48    0.1069        0.0277        0.0000        5.9992        5.9992       5.971433       0.47460
  47    0.1255        0.0277        0.0000        5.9982        5.9982       5.970432       0.45373
  46    0.1487        0.0277        0.0000        5.9970        5.9970       5.969228       0.43893
  45    0.1794        0.0277        0.0000        5.9955        5.9955       5.967725       0.41274
  44    0.2165        0.0277        0.0000        5.9939        5.9939       5.966147       0.35891
  43    0.2613        0.0277        0.0000        5.9922        5.9922       5.964512       0.30819
  42    0.3336        0.0277        0.0000        5.9899        5.9899       5.962188       0.27100
  41    0.4307        0.0277        0.0000        5.9872        5.9872       5.959470       0.23627
  40    0.5894        0.0277        0.0000        5.9830        5.9830       5.955222       0.22593
  39     1.339        0.0277        0.0000        5.9634        5.9634       5.935681       0.21999
  38     1.782        0.0277        0.0000        5.9526        5.9526       5.924878       0.20567
  37     2.292        0.0277        0.0000        5.9405        5.9405       5.912778       0.20041
  36     2.964        0.0277        0.0000        5.9251        5.9251       5.897391       0.19315
  35     3.853        0.0277        0.0000        5.9056        5.9056       5.877854       0.18541
  34     5.035        0.0277        0.0000        5.8808        5.8808       5.853108       0.17678
  33     6.613        0.0277        0.0000        5.8488        5.8488       5.821100       0.17111
  32     8.786        0.0277        0.0000        5.8065        5.8065       5.778723       0.16458
  31     11.80        0.0277        0.0000        5.7506        5.7506       5.722837       0.15646
  30     15.07        0.0277        0.0000        5.7013        5.7013       5.673614       0.12708
  29     18.79        0.0277        0.0000        5.6605        5.6606       5.632822       0.09249
  28     23.16        0.0277        0.0000        5.6291        5.6291       5.601341       0.06087
  27     28.12        0.0277        0.0000        5.6060        5.6060       5.578273       0.03921
  26     33.73        0.0277        0.0000        5.5875        5.5875       5.559771       0.02782
  25     40.54        0.0277        0.0000        5.5683        5.5683       5.540549       0.02385
  24     48.69        0.0277        0.0000        5.5457        5.5457       5.518008       0.02333
  23     57.69        0.0277        0.0000        5.5207        5.5207       5.492928       0.02351
  22     68.43        0.0277        0.0000        5.4904        5.4904       5.462655       0.02380
  21     81.20        0.0277        0.0000        5.4548        5.4548       5.427049       0.02353
  20     96.49        0.0277        0.0000        5.4130        5.4130       5.385305       0.02304
  19     114.6        0.0277        0.0000        5.3651        5.3652       5.337425       0.02236
  18     136.5        0.0277        0.0000        5.3117        5.3117       5.283972       0.02055
  17     162.9        0.0277        0.0000        5.2511        5.2511       5.223347       0.01938
  16     196.4        0.0277        0.0000        5.1741        5.1741       5.146405       0.01937
  15     218.7        0.0277        0.0000        5.1193        5.1193       5.091539       0.02083
  14     243.0        0.0277        0.0000        5.0490        5.0490       5.021245       0.02438
  13     269.0        0.0278        0.0000        4.9576        4.9576       4.929881       0.02964
  12     297.5        0.0278        0.0000        4.8408        4.8409       4.813091       0.03464
  11     328.5        0.0278        0.0000        4.7181        4.7182       4.690397       0.03336
  10     361.9        0.0278        0.0000        4.5967        4.5967       4.568940       0.03073
   9     398.1        0.0278        0.0000        4.4751        4.4751       4.447273       0.02835
   8     437.6        0.0278        0.0000        4.3394        4.3394       4.311588       0.02901
   7     480.5        0.0279        0.0000        4.1780        4.1780       4.150112       0.03171
   6     533.0        0.0279        0.0000        3.9561        3.9561       3.928193       0.03570
   5     589.8        0.0280        0.0000        3.7064        3.7064       3.678416       0.03708
   4     651.6        0.0281        0.0000        3.4576        3.4577       3.429518       0.03404
   3     718.7        0.0284        0.0001        3.2731        3.2732       3.244814       0.02321
   2     792.3        0.0287        0.0001        3.1397        3.1398       3.111106       0.01533
   1     891.5        0.0294        0.0001        2.9665        2.9666       2.937105       0.01481
   0    1013.0        0.0312        0.0001        2.7343        2.7344       2.703202       0.01624

  Modules and versions used in this calculation:

       rrtmg_sw.1col.f90:  $Revision$                    rrtmg_sw_init.f90:  $Revision$        
     rrtmgsw_cldprop.f90:  $Revision$                  rrtmgsw_cldprmc.f90:  NOT USED          
     rrtmg_sw_reftra.f90:  $Revision$                  rrtmg_sw_spcvrt.f90:  NOT USED          
     rrtmg_sw_spcvmc.f90:  NOT USED                    rrtmgsw_setcoef.f90:  NOT USED          
     rrtmg_sw_taumol.f90:  $Revision$                  rrtmg_sw_vrtqdr.f90:  NOT USED          
                rrtatm.f:  NOT USED                             util_xxx.f:  NOT USED          
                 extra.f:  NOT USED                       rrtmg_sw_k_g.f90:  $Revision$        

