

 Wavenumbers:   820. - 50000. cm-1, ATM      1
 LEVEL PRESSURE   UPWARD FLUX   DIFDOWN FLUX  DIRDOWN FLUX  DOWNWARD FLUX   NET FLUX    HEATING RATE
          mb          W/m2          W/m2          W/m2        W/m2          W/m2       degree/day
  51    .06700      438.5839        0.0000      617.8126      617.8126     179.228722       0.00000
  50    .07753      438.5835        0.0014      617.7950      617.7964     179.212904      12.67794
  49    .09103      438.5831        0.0031      617.7785      617.7815     179.198481       9.01463
  48    0.1069      438.5826        0.0050      617.7592      617.7642     179.181652       8.95841
  47    0.1255      438.5821        0.0073      617.7356      617.7429     179.160793       9.45665
  46    0.1487      438.5815        0.0101      617.7032      617.7133     179.131705      10.60282
  45    0.1794      438.5809        0.0140      617.6552      617.6691     179.088264      11.92550
  44    0.2165      438.5802        0.0185      617.5935      617.6121     179.031862      12.83048
  43    0.2613      438.5796        0.0239      617.5141      617.5380     178.958438      13.84004
  42    0.3336      438.5788        0.0328      617.3712      617.4040     178.825177      15.53692
  41    0.4307      438.5783        0.0445      617.1688      617.2133     178.634994      16.53603
  40    0.5894      438.5785        0.0634      616.8144      616.8778     178.299292      17.85219
  39     1.339      438.5982        0.1487      614.9765      615.1252     176.527003      19.95276
  38     1.782      438.6230        0.1967      614.0088      614.2055     175.582468      17.98242
  37     2.292      438.6636        0.2514      613.0578      613.3091     174.645501      15.51862
  36     2.964      438.7350        0.3224      612.0219      612.3443     173.609330      13.00708
  35     3.853      438.8544        0.4156      610.8818      611.2974     172.443016      11.06854
  34     5.035      439.0377        0.5385      609.6310      610.1695     171.131769       9.36700
  33     6.613      439.2957        0.7017      608.2675      608.9692     169.673523       7.79578
  32     8.786      439.6319        0.9206      606.7731      607.6937     168.061881       6.25904
  31     11.80      440.0675        1.2324      605.0289      606.2612     166.193742       5.23020
  30     15.07      440.4826        1.5650      603.4532      605.0182     164.535620       4.28095
  29     18.79      440.9044        1.9394      601.8895      603.8288     162.924429       3.65306
  28     23.16      441.3428        2.3743      600.2631      602.6374     161.294593       3.15158
  27     28.12      441.7807        2.8694      598.5936      601.4630     159.682316       2.74076
  26     33.73      442.1779        3.4214      596.9368      600.3582     158.180355       2.25824
  25     40.54      442.5496        4.0860      595.1539      599.2399     156.690256       1.84864
  24     48.69      442.8931        4.8835      593.2100      598.0935     155.200453       1.54171
  23     57.69      443.1688        5.7554      591.2623      597.0177     153.848947       1.26683
  22     68.43      443.3870        6.7883      589.1333      595.9216     152.534633       1.03323
  21     81.20      443.4940        8.0131      586.8363      594.8494     151.355438       0.77919
  20     96.49      443.4797        9.4633      584.3223      593.7856     150.305952       0.57924
  19     114.6      443.4007       11.1694      581.4794      592.6488     149.248139       0.49392
  18     136.5      443.2613       13.1673      578.2404      591.4076     148.146386       0.42365
  17     162.9      443.0561       15.5123      574.5240      590.0363     146.980155       0.37277
  16     196.4      442.6998       18.5033      569.9311      588.4344     145.734609       0.31352
  15     218.7      442.4355       20.4376      566.9815      587.4190     144.983523       0.28516
  14     243.0      442.1374       22.5127      563.7700      586.2827     144.145251       0.29074
  13     269.0      441.8040       24.7304      560.2405      584.9709     143.166923       0.31737
  12     297.5      441.4356       27.0916      556.3536      583.4452     142.009552       0.34326
  11     328.5      441.0398       29.6028      552.1527      581.7555     140.715691       0.35180
  10     361.9      440.6187       32.2604      547.6354      579.8958     139.277093       0.36398
   9     398.1      440.1735       35.0695      542.7340      577.8035     137.629951       0.38375
   8     437.6      439.7098       38.0295      537.3568      575.3863     135.676471       0.41767
   7     480.5      439.2315       41.1391      531.4923      572.6313     133.399872       0.44712
   6     533.0      438.6759       44.8805      524.1673      569.0478     130.371919       0.48710
   5     589.8      438.1318       48.8114      516.1140      564.9254     126.793650       0.53113
   4     651.6      437.6424       52.9254      507.0249      559.9503     122.307938       0.61343
   3     718.7      437.2594       57.2151      496.9228      554.1379     116.878433       0.68234
   2     792.3      437.0854       61.6684      485.7298      547.3982     110.312887       0.75299
   1     891.5      437.4041       67.4553      470.5357      537.9910     100.586897       0.82764
   0    1013.0      439.0164       74.0908      452.9664      527.0572      88.040799       0.87114



 Wavenumbers:  2600. -  3250. cm-1, ATM      1
 LEVEL PRESSURE   UPWARD FLUX   DIFDOWN FLUX  DIRDOWN FLUX  DOWNWARD FLUX   NET FLUX    HEATING RATE
          mb          W/m2          W/m2          W/m2        W/m2          W/m2       degree/day
  51    .06700        0.0539        0.0000        5.4450        5.4450       5.391154       0.00000
  50    .07753        0.0539        0.0000        5.4450        5.4450       5.391146       0.00640
  49    .09103        0.0539        0.0000        5.4450        5.4450       5.391136       0.00627
  48    0.1069        0.0539        0.0000        5.4450        5.4450       5.391125       0.00613
  47    0.1255        0.0539        0.0000        5.4450        5.4450       5.391111       0.00599
  46    0.1487        0.0539        0.0000        5.4450        5.4450       5.391095       0.00608
  45    0.1794        0.0539        0.0000        5.4450        5.4450       5.391072       0.00625
  44    0.2165        0.0539        0.0000        5.4449        5.4449       5.391045       0.00612
  43    0.2613        0.0539        0.0000        5.4449        5.4449       5.391013       0.00600
  42    0.3336        0.0539        0.0000        5.4448        5.4448       5.390960       0.00617
  41    0.4307        0.0539        0.0000        5.4448        5.4448       5.390889       0.00620
  40    0.5894        0.0539        0.0000        5.4446        5.4446       5.390769       0.00637
  39     1.339        0.0539        0.0000        5.4439        5.4439       5.390062       0.00797
  38     1.782        0.0539        0.0000        5.4434        5.4434       5.389519       0.01034
  37     2.292        0.0539        0.0000        5.4427        5.4427       5.388803       0.01186
  36     2.964        0.0539        0.0000        5.4416        5.4416       5.387764       0.01304
  35     3.853        0.0539        0.0000        5.4402        5.4402       5.386287       0.01402
  34     5.035        0.0539        0.0000        5.4381        5.4381       5.384231       0.01468
  33     6.613        0.0539        0.0000        5.4353        5.4353       5.381450       0.01487
  32     8.786        0.0539        0.0000        5.4317        5.4317       5.377818       0.01411
  31     11.80        0.0539        0.0000        5.4269        5.4269       5.373038       0.01338
  30     15.07        0.0539        0.0000        5.4224        5.4224       5.368512       0.01169
  29     18.79        0.0539        0.0000        5.4180        5.4180       5.364100       0.01000
  28     23.16        0.0539        0.0000        5.4135        5.4135       5.359615       0.00867
  27     28.12        0.0539        0.0000        5.4088        5.4088       5.354967       0.00790
  26     33.73        0.0539        0.0000        5.4036        5.4036       5.349728       0.00788
  25     40.54        0.0539        0.0000        5.3966        5.3967       5.342787       0.00861
  24     48.69        0.0539        0.0000        5.3872        5.3872       5.333312       0.00981
  23     57.69        0.0539        0.0000        5.3754        5.3754       5.321530       0.01104
  22     68.43        0.0539        0.0000        5.3599        5.3599       5.306046       0.01217
  21     81.20        0.0539        0.0000        5.3401        5.3401       5.286217       0.01310
  20     96.49        0.0539        0.0000        5.3155        5.3155       5.261657       0.01356
  19     114.6        0.0539        0.0000        5.2861        5.2861       5.232258       0.01373
  18     136.5        0.0539        0.0000        5.2520        5.2520       5.198127       0.01312
  17     162.9        0.0539        0.0001        5.2136        5.2137       5.159804       0.01225
  16     196.4        0.0539        0.0001        5.1691        5.1692       5.115243       0.01122
  15     218.7        0.0539        0.0001        5.1429        5.1430       5.089035       0.00995
  14     243.0        0.0539        0.0001        5.1168        5.1169       5.062911       0.00906
  13     269.0        0.0540        0.0001        5.0907        5.0908       5.036787       0.00847
  12     297.5        0.0540        0.0001        5.0642        5.0643       5.010302       0.00786
  11     328.5        0.0540        0.0001        5.0371        5.0372       4.983136       0.00739
  10     361.9        0.0541        0.0001        5.0086        5.0087       4.954590       0.00722
   9     398.1        0.0542        0.0001        4.9774        4.9775       4.923317       0.00729
   8     437.6        0.0543        0.0001        4.9414        4.9415       4.887233       0.00771
   7     480.5        0.0544        0.0002        4.8985        4.8987       4.844278       0.00844
   6     533.0        0.0546        0.0002        4.8399        4.8400       4.785451       0.00946
   5     589.8        0.0549        0.0002        4.7676        4.7678       4.712966       0.01076
   4     651.6        0.0552        0.0002        4.6736        4.6738       4.618600       0.01290
   3     718.7        0.0558        0.0002        4.5544        4.5547       4.498900       0.01504
   2     792.3        0.0566        0.0002        4.4049        4.4051       4.348582       0.01724
   1     891.5        0.0581        0.0003        4.1770        4.1773       4.119161       0.01952
   0    1013.0        0.0611        0.0003        3.8937        3.8939       3.832801       0.01988



 Wavenumbers:  3250. -  4000. cm-1, ATM      1
 LEVEL PRESSURE   UPWARD FLUX   DIFDOWN FLUX  DIRDOWN FLUX  DOWNWARD FLUX   NET FLUX    HEATING RATE
          mb          W/m2          W/m2          W/m2        W/m2          W/m2       degree/day
  51    .06700        0.0300        0.0000        9.1795        9.1795       9.149555       0.00000
  50    .07753        0.0300        0.0000        9.1749        9.1749       9.144886       3.74228
  49    .09103        0.0300        0.0000        9.1717        9.1717       9.141692       1.99626
  48    0.1069        0.0300        0.0000        9.1693        9.1693       9.139370       1.23598
  47    0.1255        0.0300        0.0000        9.1673        9.1673       9.137325       0.92727
  46    0.1487        0.0300        0.0000        9.1651        9.1651       9.135128       0.80078
  45    0.1794        0.0300        0.0000        9.1625        9.1625       9.132544       0.70935
  44    0.2165        0.0300        0.0000        9.1599        9.1599       9.129940       0.59248
  43    0.2613        0.0300        0.0000        9.1573        9.1573       9.127322       0.49341
  42    0.3336        0.0300        0.0000        9.1537        9.1537       9.123726       0.41929
  41    0.4307        0.0300        0.0000        9.1497        9.1497       9.119728       0.34758
  40    0.5894        0.0300        0.0000        9.1439        9.1439       9.113958       0.30687
  39     1.339        0.0300        0.0000        9.1213        9.1213       9.091294       0.25515
  38     1.782        0.0300        0.0000        9.1109        9.1109       9.080958       0.19679
  37     2.292        0.0300        0.0000        9.1009        9.1009       9.070928       0.16612
  36     2.964        0.0300        0.0000        9.0896        9.0896       9.059606       0.14212
  35     3.853        0.0300        0.0000        9.0762        9.0762       9.046225       0.12698
  34     5.035        0.0300        0.0000        9.0595        9.0595       9.029527       0.11929
  33     6.613        0.0300        0.0000        9.0374        9.0374       9.007460       0.11797
  32     8.786        0.0300        0.0000        9.0066        9.0066       8.976645       0.11967
  31     11.80        0.0300        0.0000        8.9603        8.9603       8.930352       0.12961
  30     15.07        0.0300        0.0000        8.9085        8.9086       8.878610       0.13359
  29     18.79        0.0299        0.0000        8.8485        8.8486       8.818603       0.13605
  28     23.16        0.0299        0.0000        8.7783        8.7783       8.748401       0.13575
  27     28.12        0.0299        0.0000        8.7002        8.7003       8.670337       0.13270
  26     33.73        0.0299        0.0000        8.6183        8.6184       8.588449       0.12312
  25     40.54        0.0299        0.0001        8.5284        8.5285       8.498536       0.11155
  24     48.69        0.0299        0.0001        8.4324        8.4324       8.402520       0.09936
  23     57.69        0.0299        0.0001        8.3378        8.3378       8.307941       0.08865
  22     68.43        0.0299        0.0001        8.2325        8.2326       8.202680       0.08275
  21     81.20        0.0299        0.0001        8.1113        8.1114       8.081499       0.08007
  20     96.49        0.0298        0.0001        7.9703        7.9704       7.940585       0.07777
  19     114.6        0.0298        0.0001        7.8102        7.8104       7.780563       0.07472
  18     136.5        0.0298        0.0002        7.6342        7.6344       7.604587       0.06767
  17     162.9        0.0298        0.0002        7.4439        7.4441       7.414333       0.06081
  16     196.4        0.0297        0.0002        7.2221        7.2224       7.192630       0.05581
  15     218.7        0.0297        0.0003        7.0807        7.0809       7.051224       0.05369
  14     243.0        0.0297        0.0003        6.9217        6.9220       6.892305       0.05512
  13     269.0        0.0297        0.0003        6.7354        6.7357       6.706069       0.06041
  12     297.5        0.0296        0.0003        6.5142        6.5145       6.484837       0.06562
  11     328.5        0.0296        0.0003        6.2756        6.2759       6.246304       0.06486
  10     361.9        0.0296        0.0004        6.0333        6.0337       6.004055       0.06129
   9     398.1        0.0296        0.0004        5.7815        5.7819       5.752292       0.05866
   8     437.6        0.0296        0.0004        5.4955        5.4959       5.466270       0.06115
   7     480.5        0.0297        0.0004        5.1717        5.1721       5.142434       0.06360
   6     533.0        0.0298        0.0004        4.7534        4.7538       4.724012       0.06731
   5     589.8        0.0299        0.0004        4.2970        4.2974       4.267449       0.06777
   4     651.6        0.0303        0.0004        3.7970        3.7974       3.767087       0.06843
   3     718.7        0.0309        0.0004        3.2937        3.2940       3.263101       0.06334
   2     792.3        0.0321        0.0004        2.7971        2.7975       2.765351       0.05709
   1     891.5        0.0351        0.0003        2.2142        2.2145       2.179359       0.04987
   0    1013.0        0.0428        0.0003        1.6523        1.6526       1.609811       0.03955



 Wavenumbers:  4000. -  4650. cm-1, ATM      1
 LEVEL PRESSURE   UPWARD FLUX   DIFDOWN FLUX  DIRDOWN FLUX  DOWNWARD FLUX   NET FLUX    HEATING RATE
          mb          W/m2          W/m2          W/m2        W/m2          W/m2       degree/day
  51    .06700        1.6317        0.0000       10.7795       10.7795       9.147812       0.00000
  50    .07753        1.6317        0.0000       10.7795       10.7795       9.147811       0.00085
  49    .09103        1.6317        0.0000       10.7795       10.7795       9.147810       0.00083
  48    0.1069        1.6317        0.0000       10.7795       10.7795       9.147808       0.00081
  47    0.1255        1.6317        0.0000       10.7795       10.7795       9.147806       0.00079
  46    0.1487        1.6317        0.0000       10.7795       10.7795       9.147804       0.00080
  45    0.1794        1.6317        0.0000       10.7795       10.7795       9.147801       0.00083
  44    0.2165        1.6317        0.0000       10.7795       10.7795       9.147798       0.00081
  43    0.2613        1.6317        0.0000       10.7795       10.7795       9.147793       0.00079
  42    0.3336        1.6317        0.0000       10.7795       10.7795       9.147786       0.00082
  41    0.4307        1.6317        0.0000       10.7795       10.7795       9.147777       0.00082
  40    0.5894        1.6317        0.0000       10.7795       10.7795       9.147761       0.00084
  39     1.339        1.6317        0.0000       10.7794       10.7794       9.147666       0.00107
  38     1.782        1.6317        0.0000       10.7793       10.7793       9.147592       0.00141
  37     2.292        1.6317        0.0000       10.7792       10.7792       9.147492       0.00165
  36     2.964        1.6317        0.0000       10.7791       10.7791       9.147343       0.00187
  35     3.853        1.6317        0.0000       10.7788       10.7788       9.147122       0.00210
  34     5.035        1.6317        0.0000       10.7785       10.7785       9.146796       0.00233
  33     6.613        1.6317        0.0000       10.7780       10.7780       9.146317       0.00256
  32     8.786        1.6317        0.0000       10.7773       10.7773       9.145609       0.00275
  31     11.80        1.6317        0.0000       10.7762       10.7762       9.144497       0.00311
  30     15.07        1.6317        0.0001       10.7748       10.7749       9.143192       0.00337
  29     18.79        1.6317        0.0001       10.7733       10.7733       9.141613       0.00358
  28     23.16        1.6317        0.0001       10.7713       10.7714       9.139653       0.00379
  27     28.12        1.6317        0.0001       10.7689       10.7690       9.137280       0.00403
  26     33.73        1.6317        0.0001       10.7660       10.7661       9.134352       0.00440
  25     40.54        1.6318        0.0002       10.7620       10.7622       9.130381       0.00493
  24     48.69        1.6318        0.0002       10.7567       10.7569       9.125089       0.00548
  23     57.69        1.6319        0.0002       10.7505       10.7507       9.118815       0.00588
  22     68.43        1.6320        0.0003       10.7427       10.7429       9.110950       0.00618
  21     81.20        1.6321        0.0003       10.7331       10.7334       9.101265       0.00640
  20     96.49        1.6324        0.0004       10.7215       10.7218       9.089481       0.00650
  19     114.6        1.6326        0.0004       10.7075       10.7079       9.075268       0.00664
  18     136.5        1.6330        0.0005       10.6907       10.6912       9.058160       0.00658
  17     162.9        1.6336        0.0006       10.6704       10.6710       9.037475       0.00661
  16     196.4        1.6344        0.0008       10.6438       10.6446       9.010222       0.00686
  15     218.7        1.6350        0.0008       10.6261       10.6269       8.991938       0.00694
  14     243.0        1.6357        0.0009       10.6063       10.6072       8.971480       0.00710
  13     269.0        1.6366        0.0010       10.5838       10.5849       8.948251       0.00754
  12     297.5        1.6378        0.0011       10.5582       10.5593       8.921595       0.00791
  11     328.5        1.6391        0.0012       10.5291       10.5304       8.891260       0.00825
  10     361.9        1.6408        0.0014       10.4963       10.4977       8.856899       0.00869
   9     398.1        1.6428        0.0015       10.4592       10.4607       8.817901       0.00909
   8     437.6        1.6453        0.0016       10.4168       10.4184       8.773166       0.00956
   7     480.5        1.6483        0.0018       10.3683       10.3701       8.721871       0.01007
   6     533.0        1.6525        0.0020       10.3040       10.3060       8.653505       0.01100
   5     589.8        1.6579        0.0022       10.2272       10.2294       8.571525       0.01217
   4     651.6        1.6650        0.0024       10.1306       10.1330       8.468022       0.01415
   3     718.7        1.6744        0.0026       10.0089       10.0115       8.337132       0.01645
   2     792.3        1.6872        0.0028        9.8553        9.8581       8.170906       0.01906
   1     891.5        1.7106        0.0031        9.6177        9.6208       7.910221       0.02218
   0    1013.0        1.7514        0.0034        9.3180        9.3215       7.570104       0.02362



 Wavenumbers:  4650. -  5150. cm-1, ATM      1
 LEVEL PRESSURE   UPWARD FLUX   DIFDOWN FLUX  DIRDOWN FLUX  DOWNWARD FLUX   NET FLUX    HEATING RATE
          mb          W/m2          W/m2          W/m2        W/m2          W/m2       degree/day
  51    .06700        0.4090        0.0000       10.2033       10.2033       9.794372       0.00000
  50    .07753        0.4090        0.0000       10.2031       10.2031       9.794143       0.18350
  49    .09103        0.4090        0.0000       10.2028       10.2028       9.793857       0.17893
  48    0.1069        0.4090        0.0000       10.2025       10.2025       9.793529       0.17411
  47    0.1255        0.4090        0.0000       10.2021       10.2021       9.793156       0.16922
  46    0.1487        0.4090        0.0000       10.2017       10.2017       9.792689       0.17030
  45    0.1794        0.4090        0.0000       10.2010       10.2010       9.792057       0.17337
  44    0.2165        0.4090        0.0000       10.2003       10.2003       9.791320       0.16782
  43    0.2613        0.4090        0.0000       10.1994       10.1994       9.790460       0.16214
  42    0.3336        0.4090        0.0000       10.1980       10.1980       9.789068       0.16227
  41    0.4307        0.4090        0.0000       10.1962       10.1962       9.787279       0.15550
  40    0.5894        0.4090        0.0000       10.1935       10.1935       9.784486       0.14854
  39     1.339        0.4090        0.0000       10.1822       10.1822       9.773213       0.12691
  38     1.782        0.4090        0.0000       10.1768       10.1768       9.767833       0.10243
  37     2.292        0.4090        0.0000       10.1715       10.1715       9.762521       0.08798
  36     2.964        0.4090        0.0000       10.1657       10.1657       9.756751       0.07243
  35     3.853        0.4090        0.0000       10.1596       10.1596       9.750690       0.05752
  34     5.035        0.4089        0.0000       10.1534       10.1534       9.744501       0.04422
  33     6.613        0.4089        0.0000       10.1471       10.1471       9.738177       0.03381
  32     8.786        0.4089        0.0000       10.1402       10.1402       9.731290       0.02675
  31     11.80        0.4089        0.0001       10.1312       10.1313       9.722387       0.02493
  30     15.07        0.4089        0.0001       10.1215       10.1216       9.712647       0.02515
  29     18.79        0.4089        0.0001       10.1096       10.1097       9.700804       0.02685
  28     23.16        0.4089        0.0001       10.0945       10.0946       9.685708       0.02919
  27     28.12        0.4089        0.0002       10.0756       10.0757       9.666874       0.03202
  26     33.73        0.4089        0.0002       10.0528       10.0530       9.644095       0.03425
  25     40.54        0.4089        0.0002       10.0232       10.0235       9.614600       0.03659
  24     48.69        0.4088        0.0003        9.9855        9.9858       9.576949       0.03896
  23     57.69        0.4089        0.0003        9.9425        9.9429       9.534005       0.04025
  22     68.43        0.4089        0.0004        9.8905        9.8909       9.481994       0.04089
  21     81.20        0.4089        0.0004        9.8289        9.8293       9.420458       0.04066
  20     96.49        0.4089        0.0005        9.7580        9.7586       9.349629       0.03909
  19     114.6        0.4090        0.0006        9.6792        9.6799       9.270845       0.03679
  18     136.5        0.4091        0.0007        9.5942        9.5949       9.185761       0.03272
  17     162.9        0.4093        0.0009        9.5035        9.5044       9.095078       0.02899
  16     196.4        0.4096        0.0010        9.3993        9.4003       8.990631       0.02629
  15     218.7        0.4099        0.0011        9.3357        9.3368       8.926904       0.02420
  14     243.0        0.4102        0.0012        9.2686        9.2699       8.859644       0.02333
  13     269.0        0.4106        0.0014        9.1969        9.1982       8.787604       0.02337
  12     297.5        0.4112        0.0015        9.1187        9.1202       8.709020       0.02331
  11     328.5        0.4118        0.0016        9.0327        9.0343       8.622525       0.02352
  10     361.9        0.4126        0.0018        8.9374        8.9392       8.526684       0.02425
   9     398.1        0.4135        0.0020        8.8320        8.8340       8.420433       0.02475
   8     437.6        0.4147        0.0021        8.7151        8.7172       8.302468       0.02522
   7     480.5        0.4162        0.0023        8.5861        8.5884       8.172187       0.02559
   6     533.0        0.4183        0.0025        8.4231        8.4256       8.007357       0.02652
   5     589.8        0.4210        0.0027        8.2430        8.2457       7.824792       0.02710
   4     651.6        0.4245        0.0029        8.0426        8.0455       7.621013       0.02787
   3     718.7        0.4293        0.0031        7.8202        7.8233       7.394047       0.02852
   2     792.3        0.4357        0.0034        7.5755        7.5788       7.143093       0.02878
   1     891.5        0.4471        0.0036        7.2445        7.2481       6.801022       0.02911
   0    1013.0        0.4663        0.0039        6.8544        6.8583       6.391961       0.02840



 Wavenumbers:  5150. -  6150. cm-1, ATM      1
 LEVEL PRESSURE   UPWARD FLUX   DIFDOWN FLUX  DIRDOWN FLUX  DOWNWARD FLUX   NET FLUX    HEATING RATE
          mb          W/m2          W/m2          W/m2        W/m2          W/m2       degree/day
  51    .06700        3.5107        0.0000       25.5798       25.5798      22.069150       0.00000
  50    .07753        3.5107        0.0000       25.5798       25.5798      22.069148       0.00158
  49    .09103        3.5107        0.0000       25.5798       25.5798      22.069146       0.00160
  48    0.1069        3.5107        0.0000       25.5798       25.5798      22.069143       0.00162
  47    0.1255        3.5107        0.0000       25.5798       25.5798      22.069139       0.00163
  46    0.1487        3.5107        0.0000       25.5798       25.5798      22.069134       0.00172
  45    0.1794        3.5107        0.0000       25.5798       25.5798      22.069128       0.00182
  44    0.2165        3.5107        0.0000       25.5798       25.5798      22.069120       0.00184
  43    0.2613        3.5107        0.0000       25.5798       25.5798      22.069110       0.00186
  42    0.3336        3.5107        0.0000       25.5798       25.5798      22.069093       0.00197
  41    0.4307        3.5107        0.0000       25.5797       25.5797      22.069070       0.00200
  40    0.5894        3.5107        0.0000       25.5797       25.5797      22.069031       0.00205
  39     1.339        3.5106        0.0000       25.5795       25.5795      22.068840       0.00215
  38     1.782        3.5106        0.0000       25.5793       25.5794      22.068723       0.00223
  37     2.292        3.5106        0.0001       25.5792       25.5792      22.068586       0.00227
  36     2.964        3.5106        0.0001       25.5789       25.5790      22.068406       0.00227
  35     3.853        3.5106        0.0001       25.5787       25.5788      22.068166       0.00227
  34     5.035        3.5106        0.0001       25.5783       25.5784      22.067845       0.00230
  33     6.613        3.5106        0.0002       25.5778       25.5780      22.067407       0.00234
  32     8.786        3.5106        0.0002       25.5771       25.5774      22.066808       0.00233
  31     11.80        3.5105        0.0003       25.5761       25.5765      22.065939       0.00243
  30     15.07        3.5105        0.0004       25.5751       25.5755      22.064994       0.00244
  29     18.79        3.5105        0.0005       25.5739       25.5744      22.063923       0.00243
  28     23.16        3.5104        0.0006       25.5725       25.5731      22.062667       0.00243
  27     28.12        3.5104        0.0008       25.5709       25.5716      22.061224       0.00245
  26     33.73        3.5104        0.0009       25.5691       25.5700      22.059582       0.00247
  25     40.54        3.5104        0.0011       25.5668       25.5679      22.057540       0.00253
  24     48.69        3.5104        0.0013       25.5641       25.5654      22.055024       0.00260
  23     57.69        3.5105        0.0016       25.5611       25.5626      22.052193       0.00265
  22     68.43        3.5105        0.0019       25.5574       25.5593      22.048762       0.00270
  21     81.20        3.5106        0.0022       25.5530       25.5552      22.044607       0.00275
  20     96.49        3.5107        0.0026       25.5477       25.5503      22.039557       0.00279
  19     114.6        3.5109        0.0031       25.5412       25.5443      22.033392       0.00288
  18     136.5        3.5111        0.0037       25.5332       25.5369      22.025826       0.00291
  17     162.9        3.5114        0.0044       25.5223       25.5267      22.015301       0.00336
  16     196.4        3.5117        0.0053       25.5018       25.5071      21.995339       0.00502
  15     218.7        3.5120        0.0059       25.4735       25.4794      21.967342       0.01063
  14     243.0        3.5123        0.0065       25.4149       25.4214      21.909101       0.02020
  13     269.0        3.5127        0.0072       25.3095       25.3167      21.804010       0.03409
  12     297.5        3.5133        0.0079       25.1577       25.1656      21.652345       0.04498
  11     328.5        3.5139        0.0087       24.9842       24.9930      21.479049       0.04712
  10     361.9        3.5147        0.0095       24.7758       24.7853      21.270611       0.05274
   9     398.1        3.5158        0.0104       24.5072       24.5176      21.001797       0.06263
   8     437.6        3.5172        0.0113       24.1636       24.1749      20.657645       0.07358
   7     480.5        3.5192        0.0122       23.7601       23.7723      20.253100       0.07945
   6     533.0        3.5224        0.0132       23.2421       23.2553      19.732877       0.08369
   5     589.8        3.5274        0.0143       22.6414       22.6557      19.128353       0.08973
   4     651.6        3.5358        0.0153       21.8607       21.8760      18.340247       0.10778
   3     718.7        3.5501        0.0163       20.9008       20.9170      17.366988       0.12231
   2     792.3        3.5756        0.0170       19.7906       19.8077      16.232109       0.13016
   1     891.5        3.6390        0.0179       18.3306       18.3485      14.709541       0.12956
   0    1013.0        3.8073        0.0189       16.8539       16.8728      13.065528       0.11415



 Wavenumbers:  6150. -  7700. cm-1, ATM      1
 LEVEL PRESSURE   UPWARD FLUX   DIFDOWN FLUX  DIRDOWN FLUX  DOWNWARD FLUX   NET FLUX    HEATING RATE
          mb          W/m2          W/m2          W/m2        W/m2          W/m2       degree/day
  51    .06700        7.0063        0.0000       47.3109       47.3109      40.304562       0.00000
  50    .07753        7.0063        0.0000       47.3108       47.3108      40.304544       0.01445
  49    .09103        7.0063        0.0000       47.3108       47.3108      40.304521       0.01421
  48    0.1069        7.0063        0.0000       47.3108       47.3108      40.304495       0.01397
  47    0.1255        7.0063        0.0000       47.3107       47.3108      40.304464       0.01373
  46    0.1487        7.0063        0.0000       47.3107       47.3107      40.304426       0.01399
  45    0.1794        7.0063        0.0000       47.3106       47.3107      40.304373       0.01445
  44    0.2165        7.0063        0.0000       47.3106       47.3106      40.304311       0.01423
  43    0.2613        7.0063        0.0000       47.3105       47.3105      40.304236       0.01403
  42    0.3336        7.0063        0.0000       47.3103       47.3104      40.304113       0.01441
  41    0.4307        7.0063        0.0000       47.3102       47.3102      40.303948       0.01430
  40    0.5894        7.0062        0.0001       47.3099       47.3099      40.303679       0.01433
  39     1.339        7.0062        0.0001       47.3084       47.3086      40.302402       0.01438
  38     1.782        7.0061        0.0002       47.3076       47.3078      40.301652       0.01427
  37     2.292        7.0061        0.0003       47.3066       47.3069      40.300788       0.01432
  36     2.964        7.0060        0.0003       47.3053       47.3057      40.299658       0.01418
  35     3.853        7.0059        0.0004       47.3037       47.3041      40.298173       0.01409
  34     5.035        7.0058        0.0006       47.3015       47.3020      40.296210       0.01402
  33     6.613        7.0057        0.0008       47.2985       47.2993      40.293600       0.01396
  32     8.786        7.0055        0.0010       47.2946       47.2956      40.290103       0.01358
  31     11.80        7.0052        0.0014       47.2890       47.2903      40.285146       0.01388
  30     15.07        7.0049        0.0017       47.2830       47.2848      40.279882       0.01359
  29     18.79        7.0045        0.0022       47.2764       47.2785      40.274010       0.01331
  28     23.16        7.0041        0.0027       47.2687       47.2714      40.267243       0.01309
  27     28.12        7.0037        0.0032       47.2600       47.2633      40.259616       0.01297
  26     33.73        7.0031        0.0039       47.2505       47.2544      40.251227       0.01261
  25     40.54        7.0025        0.0047       47.2391       47.2438      40.241288       0.01233
  24     48.69        7.0017        0.0056       47.2257       47.2313      40.229583       0.01211
  23     57.69        7.0009        0.0066       47.2113       47.2179      40.217019       0.01178
  22     68.43        6.9999        0.0079       47.1944       47.2023      40.202413       0.01148
  21     81.20        6.9987        0.0093       47.1748       47.1842      40.185452       0.01121
  20     96.49        6.9973        0.0111       47.1520       47.1630      40.165764       0.01087
  19     114.6        6.9956        0.0132       47.1253       47.1385      40.142934       0.01066
  18     136.5        6.9936        0.0157       47.0945       47.1102      40.116575       0.01014
  17     162.9        6.9912        0.0186       47.0575       47.0761      40.084886       0.01013
  16     196.4        6.9881        0.0225       47.0054       47.0279      40.039734       0.01137
  15     218.7        6.9862        0.0250       46.9590       46.9840      39.997820       0.01591
  14     243.0        6.9841        0.0277       46.8839       46.9116      39.927494       0.02439
  13     269.0        6.9821        0.0306       46.7585       46.7891      39.807017       0.03908
  12     297.5        6.9802        0.0338       46.5644       46.5982      39.617942       0.05608
  11     328.5        6.9785        0.0371       46.3198       46.3569      39.378409       0.06513
  10     361.9        6.9770        0.0407       46.0230       46.0637      39.086718       0.07380
   9     398.1        6.9759        0.0444       45.6529       45.6974      38.721413       0.08511
   8     437.6        6.9757        0.0484       45.1737       45.2221      38.246353       0.10157
   7     480.5        6.9767        0.0524       44.5692       44.6216      37.644923       0.11812
   6     533.0        6.9803        0.0572       43.7177       43.7749      36.794578       0.13679
   5     589.8        6.9884        0.0619       42.6810       42.7430      35.754524       0.15438
   4     651.6        7.0059        0.0666       41.3709       41.4375      34.431572       0.18092
   3     718.7        7.0391        0.0710       39.7957       39.8667      32.827659       0.20157
   2     792.3        7.1015        0.0749       37.8977       37.9726      30.871054       0.22440
   1     891.5        7.2572        0.0790       35.2378       35.3167      28.059506       0.23925
   0    1013.0        7.6449        0.0830       32.3105       32.3936      24.748703       0.22989



 Wavenumbers:  7700. -  8050. cm-1, ATM      1
 LEVEL PRESSURE   UPWARD FLUX   DIFDOWN FLUX  DIRDOWN FLUX  DOWNWARD FLUX   NET FLUX    HEATING RATE
          mb          W/m2          W/m2          W/m2        W/m2          W/m2       degree/day
  51    .06700        5.8424        0.0000       11.1810       11.1810       5.338533       0.00000
  50    .07753        5.8424        0.0000       11.1809       11.1809       5.338511       0.01750
  49    .09103        5.8424        0.0000       11.1809       11.1809       5.338484       0.01715
  48    0.1069        5.8424        0.0000       11.1809       11.1809       5.338452       0.01679
  47    0.1255        5.8425        0.0000       11.1809       11.1809       5.338416       0.01643
  46    0.1487        5.8425        0.0000       11.1808       11.1808       5.338370       0.01667
  45    0.1794        5.8425        0.0000       11.1808       11.1808       5.338308       0.01715
  44    0.2165        5.8425        0.0000       11.1807       11.1807       5.338234       0.01683
  43    0.2613        5.8425        0.0000       11.1806       11.1806       5.338146       0.01651
  42    0.3336        5.8425        0.0000       11.1805       11.1805       5.338001       0.01690
  41    0.4307        5.8426        0.0000       11.1803       11.1804       5.337809       0.01671
  40    0.5894        5.8426        0.0000       11.1801       11.1801       5.337495       0.01669
  39     1.339        5.8429        0.0001       11.1788       11.1789       5.336010       0.01672
  38     1.782        5.8430        0.0001       11.1781       11.1782       5.335138       0.01661
  37     2.292        5.8432        0.0001       11.1772       11.1773       5.334128       0.01672
  36     2.964        5.8434        0.0002       11.1761       11.1762       5.332802       0.01664
  35     3.853        5.8437        0.0002       11.1746       11.1748       5.331051       0.01662
  34     5.035        5.8441        0.0003       11.1726       11.1729       5.328724       0.01662
  33     6.613        5.8447        0.0004       11.1699       11.1703       5.325617       0.01661
  32     8.786        5.8454        0.0005       11.1664       11.1668       5.321431       0.01626
  31     11.80        5.8465        0.0006       11.1613       11.1619       5.315447       0.01675
  30     15.07        5.8476        0.0008       11.1558       11.1566       5.309027       0.01658
  29     18.79        5.8489        0.0010       11.1496       11.1507       5.301782       0.01643
  28     23.16        5.8504        0.0013       11.1424       11.1437       5.293330       0.01634
  27     28.12        5.8521        0.0015       11.1342       11.1358       5.283680       0.01640
  26     33.73        5.8540        0.0018       11.1251       11.1269       5.272902       0.01621
  25     40.54        5.8564        0.0022       11.1141       11.1163       5.259910       0.01612
  24     48.69        5.8592        0.0027       11.1009       11.1035       5.244292       0.01616
  23     57.69        5.8624        0.0031       11.0864       11.0896       5.227194       0.01603
  22     68.43        5.8662        0.0037       11.0693       11.0731       5.206912       0.01594
  21     81.20        5.8707        0.0044       11.0491       11.0535       5.182863       0.01589
  20     96.49        5.8761        0.0052       11.0253       11.0305       5.154371       0.01573
  19     114.6        5.8827        0.0062       10.9972       11.0034       5.120771       0.01569
  18     136.5        5.8905        0.0074       10.9644       10.9718       5.081256       0.01519
  17     162.9        5.9000        0.0088       10.9259       10.9346       5.034619       0.01491
  16     196.4        5.9125        0.0105       10.8768       10.8873       4.974779       0.01506
  15     218.7        5.9209        0.0117       10.8450       10.8567       4.935838       0.01478
  14     243.0        5.9301        0.0130       10.8109       10.8239       4.893802       0.01458
  13     269.0        5.9403        0.0144       10.7745       10.7888       4.848568       0.01467
  12     297.5        5.9514        0.0159       10.7356       10.7514       4.800015       0.01440
  11     328.5        5.9637        0.0175       10.6941       10.7116       4.747893       0.01417
  10     361.9        5.9772        0.0192       10.6501       10.6693       4.692111       0.01411
   9     398.1        5.9920        0.0210       10.6034       10.6244       4.632413       0.01391
   8     437.6        6.0083        0.0230       10.5539       10.5769       4.568597       0.01364
   7     480.5        6.0262        0.0252       10.5015       10.5267       4.500444       0.01338
   6     533.0        6.0490        0.0278       10.4379       10.4656       4.416683       0.01347
   5     589.8        6.0743        0.0306       10.3702       10.4008       4.326489       0.01339
   4     651.6        6.1027        0.0337       10.2981       10.3318       4.229061       0.01332
   3     718.7        6.1346        0.0369       10.2214       10.2583       4.123733       0.01324
   2     792.3        6.1704        0.0404       10.1395       10.1799       4.009543       0.01310
   1     891.5        6.2220        0.0451       10.0290       10.0741       3.852108       0.01340
   0    1013.0        6.2891        0.0507        9.8951        9.9459       3.656746       0.01356



 Wavenumbers:  8050. - 12850. cm-1, ATM      1
 LEVEL PRESSURE   UPWARD FLUX   DIFDOWN FLUX  DIRDOWN FLUX  DOWNWARD FLUX   NET FLUX    HEATING RATE
          mb          W/m2          W/m2          W/m2        W/m2          W/m2       degree/day
  51    .06700      125.0103        0.0000      156.5418      156.5418      31.531468       0.00000
  50    .07753      125.0103        0.0000      156.5417      156.5417      31.531468      -0.00000
  49    .09103      125.0103        0.0001      156.5417      156.5417      31.531468       0.00000
  48    0.1069      125.0102        0.0001      156.5416      156.5417      31.531468       0.00000
  47    0.1255      125.0102        0.0002      156.5415      156.5417      31.531468       0.00000
  46    0.1487      125.0102        0.0003      156.5414      156.5417      31.531468       0.00000
  45    0.1794      125.0102        0.0003      156.5413      156.5417      31.531468      -0.00000
  44    0.2165      125.0101        0.0005      156.5412      156.5416      31.531468      -0.00000
  43    0.2613      125.0101        0.0006      156.5410      156.5416      31.531468      -0.00000
  42    0.3336      125.0100        0.0008      156.5407      156.5415      31.531468       0.00000
  41    0.4307      125.0100        0.0011      156.5403      156.5414      31.531468       0.00000
  40    0.5894      125.0098        0.0016      156.5397      156.5413      31.531468      -0.00000
  39     1.339      125.0092        0.0039      156.5367      156.5406      31.531468       0.00000
  38     1.782      125.0088        0.0053      156.5350      156.5402      31.531468       0.00000
  37     2.292      125.0083        0.0068      156.5330      156.5398      31.531468       0.00000
  36     2.964      125.0077        0.0089      156.5303      156.5392      31.531468      -0.00000
  35     3.853      125.0070        0.0116      156.5268      156.5384      31.531468       0.00000
  34     5.035      125.0059        0.0152      156.5222      156.5374      31.531468       0.00000
  33     6.613      125.0046        0.0200      156.5160      156.5360      31.531468      -0.00000
  32     8.786      125.0027        0.0265      156.5076      156.5342      31.531468       0.00000
  31     11.80      125.0000        0.0358      156.4957      156.5315      31.531468       0.00000
  30     15.07      124.9972        0.0459      156.4828      156.5286      31.531468      -0.00000
  29     18.79      124.9939        0.0572      156.4682      156.5254      31.531468      -0.00000
  28     23.16      124.9901        0.0704      156.4512      156.5216      31.531468       0.00000
  27     28.12      124.9858        0.0856      156.4317      156.5173      31.531468       0.00000
  26     33.73      124.9810        0.1026      156.4099      156.5124      31.531468      -0.00000
  25     40.54      124.9751        0.1231      156.3834      156.5065      31.531468       0.00000
  24     48.69      124.9680        0.1479      156.3515      156.4995      31.531468       0.00000
  23     57.69      124.9602        0.1752      156.3164      156.4916      31.531468       0.00000
  22     68.43      124.9509        0.2078      156.2746      156.4823      31.531468       0.00000
  21     81.20      124.9397        0.2466      156.2246      156.4712      31.531468      -0.00000
  20     96.49      124.9265        0.2930      156.1649      156.4579      31.531468      -0.00000
  19     114.6      124.9107        0.3482      156.0937      156.4419      31.531184       0.00013
  18     136.5      124.8920        0.4137      156.0091      156.4228      31.530829       0.00014
  17     162.9      124.8696        0.4920      155.9079      156.3998      31.530233       0.00019
  16     196.4      124.8406        0.5937      155.7755      156.3693      31.528678       0.00039
  15     218.7      124.8216        0.6607      155.6865      156.3472      31.525670       0.00114
  14     243.0      124.8012        0.7337      155.5856      156.3193      31.518101       0.00263
  13     269.0      124.7797        0.8130      155.4677      156.2807      31.500979       0.00555
  12     297.5      124.7577        0.8989      155.3260      156.2249      31.467175       0.01003
  11     328.5      124.7354        0.9919      155.1576      156.1496      31.414159       0.01441
  10     361.9      124.7136        1.0924      154.9574      156.0498      31.336152       0.01974
   9     398.1      124.6935        1.2008      154.7165      155.9173      31.223819       0.02617
   8     437.6      124.6772        1.3175      154.4238      155.7413      31.064159       0.03414
   7     480.5      124.6672        1.4429      154.0717      155.5147      30.847452       0.04256
   6     533.0      124.6687        1.5977      153.5826      155.1803      30.511602       0.05403
   5     589.8      124.6950        1.7649      152.9737      154.7387      30.043642       0.06946
   4     651.6      124.7741        1.9446      152.1739      154.1185      29.344422       0.09562
   3     718.7      124.9392        2.1368      151.1470      153.2838      28.344635       0.12565
   2     792.3      125.2585        2.3410      149.8003      152.1414      26.882891       0.16765
   1     891.5      126.0329        2.6121      147.5673      150.1794      24.146497       0.23285
   0    1013.0      127.7049        2.9303      144.4248      147.3551      19.650180       0.31220



 Wavenumbers: 12850. - 16000. cm-1, ATM      1
 LEVEL PRESSURE   UPWARD FLUX   DIFDOWN FLUX  DIRDOWN FLUX  DOWNWARD FLUX   NET FLUX    HEATING RATE
          mb          W/m2          W/m2          W/m2        W/m2          W/m2       degree/day
  51    .06700       85.6303        0.0000       98.0872       98.0872      12.456930       0.00000
  50    .07753       85.6303        0.0001       98.0864       98.0864      12.456135       0.63719
  49    .09103       85.6303        0.0002       98.0853       98.0855      12.455136       0.62448
  48    0.1069       85.6303        0.0003       98.0841       98.0843      12.453987       0.61158
  47    0.1255       85.6304        0.0004       98.0826       98.0830      12.452666       0.59904
  46    0.1487       85.6304        0.0005       98.0809       98.0814      12.450997       0.60856
  45    0.1794       85.6305        0.0008       98.0784       98.0792      12.448723       0.62424
  44    0.2165       85.6306        0.0010       98.0756       98.0766      12.446044       0.60934
  43    0.2613       85.6307        0.0013       98.0723       98.0736      12.442889       0.59474
  42    0.3336       85.6311        0.0018       98.0670       98.0688      12.437729       0.60162
  41    0.4307       85.6316        0.0024       98.0602       98.0626      12.431040       0.58155
  40    0.5894       85.6326        0.0035       98.0496       98.0531      12.420464       0.56242
  39     1.339       85.6409        0.0085       98.0043       98.0128      12.371947       0.54621
  38     1.782       85.6482        0.0114       97.9793       97.9907      12.342434       0.56188
  37     2.292       85.6591        0.0148       97.9498       97.9645      12.305412       0.61319
  36     2.964       85.6771        0.0192       97.9088       97.9280      12.250962       0.68351
  35     3.853       85.7058        0.0251       97.8503       97.8754      12.169572       0.77240
  34     5.035       85.7491        0.0329       97.7680       97.8009      12.051770       0.84153
  33     6.613       85.8094        0.0433       97.6562       97.6995      11.890044       0.86459
  32     8.786       85.8880        0.0573       97.5107       97.5679      11.679932       0.81600
  31     11.80       85.9905        0.0773       97.3179       97.3951      11.404610       0.77081
  30     15.07       86.0890        0.0987       97.1283       97.2271      11.138040       0.68823
  29     18.79       86.1899        0.1230       96.9300       97.0530      10.863091       0.62339
  28     23.16       86.2957        0.1513       96.7166       96.8678      10.572094       0.56269
  27     28.12       86.4028        0.1836       96.4935       96.6771      10.274334       0.50617
  26     33.73       86.5025        0.2198       96.2731       96.4929       9.990422       0.42687
  25     40.54       86.5997        0.2635       96.0408       96.3043       9.704587       0.35461
  24     48.69       86.6944        0.3162       95.7946       96.1108       9.416387       0.29824
  23     57.69       86.7768        0.3742       95.5573       95.9315       9.154725       0.24527
  22     68.43       86.8513        0.4432       95.3106       95.7539       8.902590       0.19821
  21     81.20       86.9078        0.5256       95.0644       95.5900       8.682180       0.14564
  20     96.49       86.9455        0.6240       94.8153       95.4393       8.493809       0.10397
  19     114.6       86.9839        0.7416       94.5412       95.2828       8.298894       0.09101
  18     136.5       87.0178        0.8811       94.2324       95.1135       8.095714       0.07813
  17     162.9       87.0476        1.0471       93.8760       94.9231       7.875523       0.07038
  16     196.4       87.0637        1.2626       93.4359       94.6984       7.634766       0.06060
  15     218.7       87.0663        1.4041       93.1535       94.5576       7.491314       0.05446
  14     243.0       87.0658        1.5578       92.8487       94.4066       7.340761       0.05222
  13     269.0       87.0620        1.7245       92.5216       94.2461       7.184112       0.05082
  12     297.5       87.0549        1.9046       92.1712       94.0758       7.020904       0.04841
  11     328.5       87.0466        2.0993       91.7946       93.8939       6.847272       0.04721
  10     361.9       87.0375        2.3089       91.3914       93.7002       6.662749       0.04669
   9     398.1       87.0280        2.5345       90.9607       93.4952       6.467201       0.04556
   8     437.6       87.0193        2.7769       90.5005       93.2774       6.258185       0.04469
   7     480.5       87.0119        3.0368       90.0102       93.0470       6.035053       0.04382
   6     533.0       87.0073        3.3570       89.4083       92.7653       5.758079       0.04456
   5     589.8       87.0094        3.7024       88.7597       92.4622       5.452763       0.04532
   4     651.6       87.0234        4.0742       88.0579       92.1320       5.108664       0.04706
   3     718.7       87.0552        4.4730       87.2992       91.7722       4.716981       0.04922
   2     792.3       87.1147        4.8996       86.4771       91.3767       4.262043       0.05218
   1     891.5       87.2492        5.4745       85.3507       90.8251       3.575879       0.05839
   0    1013.0       87.5154        6.1627       83.9809       90.1436       2.628182       0.06580



 Wavenumbers: 16000. - 22650. cm-1, ATM      1
 LEVEL PRESSURE   UPWARD FLUX   DIFDOWN FLUX  DIRDOWN FLUX  DOWNWARD FLUX   NET FLUX    HEATING RATE
          mb          W/m2          W/m2          W/m2        W/m2          W/m2       degree/day
  51    .06700      141.9700        0.0000      156.3892      156.3892      14.419282       0.00000
  50    .07753      141.9699        0.0004      156.3887      156.3891      14.419133       0.11919
  49    .09103      141.9699        0.0009      156.3879      156.3888      14.418917       0.13519
  48    0.1069      141.9699        0.0015      156.3871      156.3885      14.418627       0.15416
  47    0.1255      141.9699        0.0021      156.3861      156.3882      14.418240       0.17572
  46    0.1487      141.9700        0.0030      156.3847      156.3877      14.417669       0.20823
  45    0.1794      141.9701        0.0041      156.3828      156.3869      14.416776       0.24517
  44    0.2165      141.9704        0.0054      156.3805      156.3859      14.415564       0.27555
  43    0.2613      141.9707        0.0070      156.3776      156.3847      14.413921       0.30978
  42    0.3336      141.9715        0.0097      156.3726      156.3823      14.410796       0.36430
  41    0.4307      141.9728        0.0132      156.3657      156.3789      14.406086       0.40951
  40    0.5894      141.9755        0.0189      156.3537      156.3726      14.397104       0.47767
  39     1.339      141.9986        0.0459      156.2834      156.3293      14.330741       0.74713
  38     1.782      142.0199        0.0618      156.2324      156.2941      14.274207       1.07631
  37     2.292      142.0519        0.0802      156.1641      156.2443      14.192373       1.35538
  36     2.964      142.1050        0.1043      156.0605      156.1648      14.059800       1.66418
  35     3.853      142.1907        0.1361      155.9041      156.0402      13.849438       1.99638
  34     5.035      142.3201        0.1783      155.6774      155.8557      13.535588       2.24201
  33     6.613      142.5009        0.2347      155.3656      155.6003      13.099419       2.33176
  32     8.786      142.7364        0.3105      154.9577      155.2682      12.531846       2.20425
  31     11.80      143.0429        0.4189      154.4153      154.8342      11.791279       2.07335
  30     15.07      143.3366        0.5351      153.8804      154.4155      11.078846       1.83936
  29     18.79      143.6366        0.6661      153.3191      153.9852      10.348634       1.65561
  28     23.16      143.9502        0.8189      152.7126      153.5315       9.581333       1.48371
  27     28.12      144.2658        0.9934      152.0755      153.0689       8.803121       1.32291
  26     33.73      144.5573        1.1885      151.4409      152.6295       8.072110       1.09909
  25     40.54      144.8381        1.4240      150.7637      152.1877       7.349572       0.89639
  24     48.69      145.1073        1.7077      150.0339      151.7415       6.634211       0.74029
  23     57.69      145.3358        2.0188      149.3151      151.3340       5.998151       0.59621
  22     68.43      145.5356        2.3891      148.5476      150.9367       5.401029       0.46942
  21     81.20      145.6745        2.8299      147.7517      150.5815       4.907047       0.32642
  20     96.49      145.7479        3.3546      146.9127      150.2673       4.519377       0.21397
  19     114.6      145.7871        3.9759      145.9763      149.9522       4.165110       0.16542
  18     136.5      145.8017        4.7095      144.9088      149.6183       3.816599       0.13401
  17     162.9      145.7901        5.5790      143.6786      149.2576       3.467499       0.11159
  16     196.4      145.7126        6.7009      142.1652      148.8662       3.153594       0.07901
  15     218.7      145.6387        7.4341      141.2037      148.6378       2.999128       0.05865
  14     243.0      145.5477        8.2277      140.1761      148.4037       2.856036       0.04963
  13     269.0      145.4380        9.0837      139.0814      148.1651       2.727128       0.04182
  12     297.5      145.3086       10.0043      137.9176      147.9219       2.613354       0.03374
  11     328.5      145.1636       10.9938      136.6740      147.6678       2.504234       0.02967
  10     361.9      145.0025       12.0531      135.3499      147.4030       2.400455       0.02626
   9     398.1      144.8246       13.1861      133.9405      147.1266       2.302028       0.02293
   8     437.6      144.6302       14.3949      132.4425      146.8374       2.207215       0.02027
   7     480.5      144.4184       15.6816      130.8539      146.5355       2.117161       0.01769
   6     533.0      144.1545       17.2531      128.9203      146.1734       2.018890       0.01581
   5     589.8      143.8684       18.9319      126.8598      145.7917       1.923258       0.01419
   4     651.6      143.5607       20.7196      124.6698      145.3893       1.828614       0.01294
   3     718.7      143.2315       22.6179      122.3476      144.9656       1.734101       0.01188
   2     792.3      142.8817       24.6255      119.8943      144.5198       1.638101       0.01101
   1     891.5      142.4169       27.2935      116.6345      143.9281       1.511136       0.01080
   0    1013.0      141.8721       30.4344      112.7959      143.2303       1.358178       0.01062



 Wavenumbers: 22650. - 29000. cm-1, ATM      1
 LEVEL PRESSURE   UPWARD FLUX   DIFDOWN FLUX  DIRDOWN FLUX  DOWNWARD FLUX   NET FLUX    HEATING RATE
          mb          W/m2          W/m2          W/m2        W/m2          W/m2       degree/day
  51    .06700       58.6820        0.0000       59.0156       59.0156       0.333634       0.00000
  50    .07753       58.6819        0.0005       59.0151       59.0155       0.333634       0.00000
  49    .09103       58.6818        0.0010       59.0144       59.0154       0.333634       0.00000
  48    0.1069       58.6816        0.0017       59.0136       59.0153       0.333634       0.00000
  47    0.1255       58.6815        0.0025       59.0127       59.0151       0.333634      -0.00000
  46    0.1487       58.6813        0.0035       59.0115       59.0149       0.333634       0.00000
  45    0.1794       58.6811        0.0048       59.0099       59.0147       0.333634      -0.00000
  44    0.2165       58.6808        0.0063       59.0080       59.0144       0.333634      -0.00000
  43    0.2613       58.6804        0.0082       59.0058       59.0140       0.333634       0.00000
  42    0.3336       58.6798        0.0113       59.0022       59.0134       0.333634       0.00000
  41    0.4307       58.6790        0.0154       58.9973       59.0127       0.333634       0.00000
  40    0.5894       58.6777        0.0220       58.9894       59.0114       0.333634       0.00000
  39     1.339       58.6717        0.0535       58.9518       59.0053       0.333634       0.00000
  38     1.782       58.6681        0.0720       58.9297       59.0017       0.333634       0.00000
  37     2.292       58.6640        0.0934       58.9042       58.9976       0.333634       0.00000
  36     2.964       58.6586        0.1216       58.8706       58.9922       0.333634       0.00000
  35     3.853       58.6514        0.1587       58.8264       58.9851       0.333634       0.00000
  34     5.035       58.6419        0.2080       58.7676       58.9756       0.333634       0.00000
  33     6.613       58.6293        0.2738       58.6891       58.9629       0.333634       0.00000
  32     8.786       58.6122        0.3624       58.5834       58.9458       0.333634      -0.00000
  31     11.80       58.5878        0.4890       58.4325       58.9215       0.333634       0.00000
  30     15.07       58.5617        0.6247       58.2706       58.8953       0.333634       0.00000
  29     18.79       58.5323        0.7776       58.0882       58.8659       0.333634      -0.00000
  28     23.16       58.4979        0.9559       57.8757       58.8316       0.333634       0.00000
  27     28.12       58.4588        1.1591       57.6333       58.7924       0.333634       0.00000
  26     33.73       58.4152        1.3857       57.3631       58.7488       0.333634      -0.00000
  25     40.54       58.3626        1.6584       57.0379       58.6963       0.333634      -0.00000
  24     48.69       58.2996        1.9854       56.6479       58.6333       0.333634       0.00000
  23     57.69       58.2309        2.3424       56.2221       58.5645       0.333634       0.00000
  22     68.43       58.1495        2.7646       55.7186       58.4832       0.333634      -0.00000
  21     81.20       58.0534        3.2632       55.1239       58.3871       0.333634       0.00000
  20     96.49       57.9402        3.8510       54.4228       58.2738       0.333634       0.00000
  19     114.6       57.8073        4.5400       53.6010       58.1410       0.333634      -0.00000
  18     136.5       57.6522        5.3441       52.6418       57.9859       0.333634       0.00000
  17     162.9       57.4709        6.2842       51.5204       57.8045       0.333634       0.00000
  16     196.4       57.2410        7.4752       50.0995       57.5747       0.333634      -0.00000
  15     218.7       57.0933        8.2406       49.1863       57.4269       0.333634       0.00000
  14     243.0       56.9354        9.0577       48.2114       57.2691       0.333634       0.00000
  13     269.0       56.7676        9.9261       47.1752       57.1013       0.333634       0.00000
  12     297.5       56.5900       10.8449       46.0788       56.9237       0.333634       0.00000
  11     328.5       56.4023       11.8155       44.9204       56.7359       0.333634      -0.00000
  10     361.9       56.2050       12.8353       43.7033       56.5386       0.333634       0.00000
   9     398.1       55.9980       13.9043       42.4273       56.3316       0.333634      -0.00000
   8     437.6       55.7817       15.0204       41.0950       56.1154       0.333634       0.00000
   7     480.5       55.5567       16.1809       39.7094       55.8903       0.333634      -0.00000
   6     533.0       55.2890       17.5602       38.0624       55.6226       0.333634       0.00000
   5     589.8       55.0114       18.9886       36.3565       55.3451       0.333634       0.00000
   4     651.6       54.7252       20.4598       34.5991       55.0589       0.333634      -0.00000
   3     718.7       54.4316       21.9669       32.7983       54.7653       0.333634       0.00000
   2     792.3       54.1321       23.5021       30.9636       54.4657       0.333634      -0.00000
   1     891.5       53.7518       25.4467       28.6388       54.0855       0.333634       0.00000
   0    1013.0       53.3287       27.6042       26.0582       53.6624       0.333634       0.00000



 Wavenumbers: 29000. - 38000. cm-1, ATM      1
 LEVEL PRESSURE   UPWARD FLUX   DIFDOWN FLUX  DIRDOWN FLUX  DOWNWARD FLUX   NET FLUX    HEATING RATE
          mb          W/m2          W/m2          W/m2        W/m2          W/m2       degree/day
  51    .06700        8.7676        0.0000       20.8114       20.8114      12.043769       0.00000
  50    .07753        8.7674        0.0003       20.8070       20.8074      12.039962       3.05155
  49    .09103        8.7672        0.0007       20.8009       20.8016      12.034425       3.46085
  48    0.1069        8.7669        0.0012       20.7928       20.7939      12.027015       3.94429
  47    0.1255        8.7666        0.0017       20.7820       20.7837      12.017110       4.49034
  46    0.1487        8.7663        0.0024       20.7665       20.7688      12.002547       5.30844
  45    0.1794        8.7658        0.0033       20.7424       20.7457      11.979882       6.22204
  44    0.2165        8.7653        0.0044       20.7103       20.7147      11.949359       6.94340
  43    0.2613        8.7647        0.0056       20.6675       20.6731      11.908364       7.72732
  42    0.3336        8.7638        0.0077       20.5880       20.5957      11.831804       8.92625
  41    0.4307        8.7628        0.0104       20.4722       20.4826      11.719851       9.73402
  40    0.5894        8.7612        0.0147       20.2637       20.2784      11.517167      10.77846
  39     1.339        8.7578        0.0331       19.0984       19.1315      10.373690      12.87347
  38     1.782        8.7583        0.0427       18.4394       18.4821       9.723766      12.37351
  37     2.292        8.7610        0.0530       17.7714       17.8244       9.063421      10.93703
  36     2.964        8.7675        0.0657       17.0421       17.1078       8.340298       9.07739
  35     3.853        8.7804        0.0816       16.2679       16.3495       7.569119       7.31863
  34     5.035        8.8015        0.1018       15.4803       15.5821       6.780625       5.63267
  33     6.613        8.8322        0.1276       14.7157       14.8433       6.011044       4.11418
  32     8.786        8.8728        0.1614       13.9936       14.1549       5.282098       2.83096
  31     11.80        8.9258        0.2084       13.2835       13.4920       4.566140       2.00446
  30     15.07        8.9769        0.2573       12.7394       12.9966       4.019671       1.41088
  29     18.79        9.0297        0.3114       12.2666       12.5780       3.548228       1.06890
  28     23.16        9.0858        0.3729       11.8300       12.2029       3.117093       0.83368
  27     28.12        9.1433        0.4418       11.4279       11.8697       2.726403       0.66415
  26     33.73        9.1963        0.5178       11.0695       11.5872       2.390899       0.50444
  25     40.54        9.2467        0.6085       10.7209       11.3294       2.082732       0.38232
  24     48.69        9.2942        0.7162       10.3742       11.0904       1.796176       0.29654
  23     57.69        9.3332        0.8328       10.0549       10.8877       1.554414       0.22662
  22     68.43        9.3648        0.9695        9.7327       10.7022       1.337374       0.17062
  21     81.20        9.3800        1.1309        9.4134       10.5443       1.164305       0.11436
  20     96.49        9.3769        1.3207        9.0887       10.4094       1.032558       0.07271
  19     114.6        9.3635        1.5400        8.7388       10.2788       0.915285       0.05476
  18     136.5        9.3428        1.7907        8.3549       10.1456       0.802757       0.04327
  17     162.9        9.3151        2.0765        7.9311       10.0076       0.692578       0.03522
  16     196.4        9.2682        2.4305        7.4333        9.8638       0.595598       0.02441
  15     218.7        9.2345        2.6532        7.1296        9.7828       0.548298       0.01796
  14     243.0        9.1975        2.8860        6.8161        9.7021       0.504620       0.01515
  13     269.0        9.1570        3.1280        6.4944        9.6224       0.465400       0.01272
  12     297.5        9.1132        3.3782        6.1659        9.5441       0.430826       0.01025
  11     328.5        9.0675        3.6356        5.8296        9.4652       0.397723       0.00900
  10     361.9        9.0204        3.8977        5.4889        9.3866       0.366239       0.00797
   9     398.1        8.9719        4.1639        5.1444        9.3083       0.336402       0.00695
   8     437.6        8.9226        4.4328        4.7974        9.2302       0.307640       0.00615
   7     480.5        8.8728        4.7023        4.4508        9.1531       0.280334       0.00536
   6     533.0        8.8158        5.0092        4.0571        9.0664       0.250573       0.00479
   5     589.8        8.7598        5.3112        3.6704        8.9815       0.221754       0.00428
   4     651.6        8.7055        5.6058        3.2932        8.8990       0.193557       0.00386
   3     718.7        8.6537        5.8898        2.9298        8.8196       0.165936       0.00347
   2     792.3        8.6049        6.1610        2.5828        8.7438       0.138896       0.00310
   1     891.5        8.5492        6.4792        2.1756        8.6547       0.105506       0.00284
   0    1013.0        8.4963        6.7986        1.7662        8.5649       0.068616       0.00256



 Wavenumbers: 38000. - 50000. cm-1, ATM      1
 LEVEL PRESSURE   UPWARD FLUX   DIFDOWN FLUX  DIRDOWN FLUX  DOWNWARD FLUX   NET FLUX    HEATING RATE
          mb          W/m2          W/m2          W/m2        W/m2          W/m2       degree/day
  51    .06700        0.0061        0.0000        1.2836        1.2836       1.277518       0.00000
  50    .07753        0.0061        0.0001        1.2812        1.2812       1.275183       1.87150
  49    .09103        0.0060        0.0002        1.2777        1.2778       1.271851       2.08247
  48    0.1069        0.0059        0.0002        1.2731        1.2734       1.267473       2.33059
  47    0.1255        0.0058        0.0004        1.2672        1.2675       1.261717       2.60908
  46    0.1487        0.0057        0.0005        1.2586        1.2591       1.253391       3.03499
  45    0.1794        0.0055        0.0007        1.2455        1.2462       1.240623       3.50520
  44    0.2165        0.0054        0.0009        1.2282        1.2291       1.223697       3.85037
  43    0.2613        0.0052        0.0011        1.2054        1.2065       1.201348       4.21261
  42    0.3336        0.0049        0.0015        1.1639        1.1654       1.160524       4.75970
  41    0.4307        0.0045        0.0020        1.1051        1.1070       1.102565       5.03943
  40    0.5894        0.0039        0.0026        1.0039        1.0064       1.002524       5.32007
  39     1.339        0.0022        0.0035        0.5438        0.5473       0.545105       5.14971
  38     1.782        0.0016        0.0032        0.3635        0.3666       0.365006       3.42879
  37     2.292        0.0012        0.0027        0.2356        0.2383       0.237058       2.11916
  36     2.964        0.0009        0.0022        0.1455        0.1477       0.146786       1.13318
  35     3.853        0.0006        0.0017        0.0858        0.0875       0.086906       0.56828
  34     5.035        0.0004        0.0013        0.0488        0.0501       0.049701       0.26578
  33     6.613        0.0003        0.0010        0.0273        0.0282       0.027974       0.11615
  32     8.786        0.0002        0.0007        0.0144        0.0151       0.014928       0.05067
  31     11.80        0.0001        0.0004        0.0065        0.0070       0.006903       0.02247
  30     15.07        0.0000        0.0003        0.0031        0.0034       0.003329       0.00923
  29     18.79        0.0000        0.0002        0.0014        0.0016       0.001583       0.00396
  28     23.16        0.0000        0.0001        0.0006        0.0007       0.000720       0.00167
  27     28.12        0.0000        0.0001        0.0003        0.0003       0.000317       0.00069
  26     33.73        0.0000        0.0000        0.0001        0.0001       0.000140       0.00027
  25     40.54        0.0000        0.0000        0.0000        0.0001       0.000057       0.00010
  24     48.69        0.0000        0.0000        0.0000        0.0000       0.000021       0.00004
  23     57.69        0.0000        0.0000        0.0000        0.0000       0.000008       0.00001
  22     68.43        0.0000        0.0000        0.0000        0.0000       0.000003       0.00000
  21     81.20        0.0000        0.0000        0.0000        0.0000       0.000001       0.00000
  20     96.49        0.0000        0.0000        0.0000        0.0000       0.000000       0.00000
  19     114.6        0.0000        0.0000        0.0000        0.0000       0.000000       0.00000
  18     136.5        0.0000        0.0000        0.0000        0.0000       0.000000       0.00000
  17     162.9        0.0000        0.0000        0.0000        0.0000       0.000000       0.00000
  16     196.4        0.0000        0.0000        0.0000        0.0000       0.000000       0.00000
  15     218.7        0.0000        0.0000        0.0000        0.0000       0.000000       0.00000
  14     243.0        0.0000        0.0000        0.0000        0.0000       0.000000       0.00000
  13     269.0        0.0000        0.0000        0.0000        0.0000       0.000000       0.00000
  12     297.5        0.0000        0.0000        0.0000        0.0000       0.000000       0.00000
  11     328.5        0.0000        0.0000        0.0000        0.0000       0.000000       0.00000
  10     361.9        0.0000        0.0000        0.0000        0.0000       0.000000       0.00000
   9     398.1        0.0000        0.0000        0.0000        0.0000       0.000000       0.00000
   8     437.6        0.0000        0.0000        0.0000        0.0000       0.000000       0.00000
   7     480.5        0.0000        0.0000        0.0000        0.0000       0.000000       0.00000
   6     533.0        0.0000        0.0000        0.0000        0.0000       0.000000       0.00000
   5     589.8        0.0000        0.0000        0.0000        0.0000       0.000000       0.00000
   4     651.6        0.0000        0.0000        0.0000        0.0000       0.000000       0.00000
   3     718.7        0.0000        0.0000        0.0000        0.0000       0.000000       0.00000
   2     792.3        0.0000        0.0000        0.0000        0.0000       0.000000       0.00000
   1     891.5        0.0000        0.0000        0.0000        0.0000       0.000000       0.00000
   0    1013.0        0.0000        0.0000        0.0000        0.0000       0.000000       0.00000



 Wavenumbers:   820. -  2600. cm-1, ATM      1
 LEVEL PRESSURE   UPWARD FLUX   DIFDOWN FLUX  DIRDOWN FLUX  DOWNWARD FLUX   NET FLUX    HEATING RATE
          mb          W/m2          W/m2          W/m2        W/m2          W/m2       degree/day
  51    .06700        0.0337        0.0000        6.0047        6.0047       5.970982       0.00000
  50    .07753        0.0337        0.0000        6.0009        6.0009       5.967199       3.03195
  49    .09103        0.0337        0.0000        6.0001        6.0001       5.966405       0.49640
  48    0.1069        0.0337        0.0000        5.9992        5.9992       5.965525       0.46838
  47    0.1255        0.0337        0.0000        5.9982        5.9982       5.964538       0.44741
  46    0.1487        0.0337        0.0000        5.9970        5.9970       5.963352       0.43226
  45    0.1794        0.0337        0.0000        5.9955        5.9955       5.961875       0.40563
  44    0.2165        0.0337        0.0000        5.9940        5.9940       5.960329       0.35169
  43    0.2613        0.0337        0.0000        5.9924        5.9924       5.958732       0.30085
  42    0.3336        0.0337        0.0000        5.9901        5.9901       5.956475       0.26324
  41    0.4307        0.0337        0.0000        5.9875        5.9875       5.953848       0.22841
  40    0.5894        0.0337        0.0000        5.9834        5.9834       5.949751       0.21787
  39     1.339        0.0337        0.0000        5.9646        5.9646       5.930931       0.21188
  38     1.782        0.0337        0.0000        5.9542        5.9542       5.920538       0.19786
  37     2.292        0.0337        0.0000        5.9426        5.9426       5.908889       0.19294
  36     2.964        0.0337        0.0000        5.9277        5.9277       5.894051       0.18626
  35     3.853        0.0337        0.0000        5.9088        5.9088       5.875163       0.17925
  34     5.035        0.0337        0.0000        5.8848        5.8848       5.851146       0.17156
  33     6.613        0.0337        0.0000        5.8536        5.8536       5.819911       0.16698
  32     8.786        0.0337        0.0000        5.8119        5.8119       5.778270       0.16172
  31     11.80        0.0337        0.0000        5.7566        5.7566       5.722902       0.15501
  30     15.07        0.0337        0.0000        5.7074        5.7074       5.673768       0.12685
  29     18.79        0.0337        0.0000        5.6666        5.6666       5.632955       0.09254
  28     23.16        0.0337        0.0000        5.6353        5.6353       5.601633       0.06057
  27     28.12        0.0337        0.0000        5.6127        5.6127       5.579060       0.03837
  26     33.73        0.0337        0.0000        5.5950        5.5950       5.561346       0.02663
  25     40.54        0.0337        0.0000        5.5768        5.5768       5.543163       0.02256
  24     48.69        0.0337        0.0000        5.5554        5.5555       5.521785       0.02212
  23     57.69        0.0337        0.0000        5.5315        5.5315       5.497849       0.02244
  22     68.43        0.0337        0.0000        5.5024        5.5024       5.468777       0.02285
  21     81.20        0.0337        0.0000        5.4681        5.4681       5.434442       0.02269
  20     96.49        0.0337        0.0000        5.4277        5.4277       5.394060       0.02229
  19     114.6        0.0337        0.0000        5.3817        5.3817       5.347999       0.02151
  18     136.5        0.0337        0.0000        5.3302        5.3302       5.296562       0.01978
  17     162.9        0.0337        0.0000        5.2729        5.2729       5.239191       0.01834
  16     196.4        0.0337        0.0000        5.2034        5.2035       5.169761       0.01748
  15     218.7        0.0337        0.0000        5.1590        5.1591       5.125378       0.01685
  14     243.0        0.0337        0.0000        5.1090        5.1091       5.075361       0.01735
  13     269.0        0.0337        0.0000        5.0510        5.0511       5.017363       0.01881
  12     297.5        0.0337        0.0000        4.9813        4.9813       4.947602       0.02069
  11     328.5        0.0337        0.0000        4.9038        4.9038       4.870093       0.02107
  10     361.9        0.0338        0.0000        4.8199        4.8199       4.786196       0.02123
   9     398.1        0.0338        0.0000        4.7310        4.7311       4.697301       0.02071
   8     437.6        0.0338        0.0000        4.6377        4.6377       4.603904       0.01997
   7     480.5        0.0338        0.0000        4.5408        4.5408       4.507001       0.01903
   6     533.0        0.0339        0.0001        4.4185        4.4186       4.384678       0.01968
   5     589.8        0.0339        0.0001        4.2664        4.2664       4.232500       0.02259
   4     651.6        0.0340        0.0001        4.0574        4.0575       4.023444       0.02859
   3     718.7        0.0342        0.0001        3.8057        3.8058       3.771587       0.03165
   2     792.3        0.0345        0.0001        3.5511        3.5511       3.516684       0.02923
   1     891.5        0.0350        0.0001        3.3183        3.3183       3.283325       0.01986
   0    1013.0        0.0361        0.0001        3.1623        3.1624       3.126355       0.01090

  Modules and versions used in this calculation:

       rrtmg_sw.1col.f90:  $Revision$                    rrtmg_sw_init.f90:  $Revision$        
     rrtmgsw_cldprop.f90:  $Revision$                  rrtmgsw_cldprmc.f90:  NOT USED          
     rrtmg_sw_reftra.f90:  $Revision$                  rrtmg_sw_spcvrt.f90:  NOT USED          
     rrtmg_sw_spcvmc.f90:  NOT USED                    rrtmgsw_setcoef.f90:  NOT USED          
     rrtmg_sw_taumol.f90:  $Revision$                  rrtmg_sw_vrtqdr.f90:  NOT USED          
                rrtatm.f:  NOT USED                             util_xxx.f:  NOT USED          
                 extra.f:  NOT USED                       rrtmg_sw_k_g.f90:  $Revision$        

