

 Wavenumbers:   820. - 50000. cm-1, ATM      1
 LEVEL PRESSURE   UPWARD FLUX   DIFDOWN FLUX  DIRDOWN FLUX  DOWNWARD FLUX   NET FLUX    HEATING RATE
          mb          W/m2          W/m2          W/m2        W/m2          W/m2       degree/day
  51    .06700      428.4982        0.0000      617.8126      617.8126     189.314360       0.00000
  50    .07753      428.4978        0.0013      617.7950      617.7963     189.298509      12.70456
  49    .09103      428.4974        0.0030      617.7784      617.7814     189.284051       9.03686
  48    0.1069      428.4969        0.0050      617.7591      617.7641     189.267178       8.98122
  47    0.1255      428.4964        0.0072      617.7354      617.7427     189.246270       9.47887
  46    0.1487      428.4958        0.0100      617.7029      617.7129     189.217124      10.62406
  45    0.1794      428.4951        0.0139      617.6548      617.6687     189.173610      11.94560
  44    0.2165      428.4944        0.0184      617.5931      617.6115     189.117125      12.84923
  43    0.2613      428.4937        0.0238      617.5135      617.5373     189.043608      13.85779
  42    0.3336      428.4929        0.0326      617.3704      617.4031     188.910195      15.55454
  41    0.4307      428.4922        0.0443      617.1678      617.2120     188.719816      16.55302
  40    0.5894      428.4921        0.0630      616.8129      616.8759     188.383820      17.86787
  39     1.339      428.5101        0.1479      614.9730      615.1209     186.610770      19.96132
  38     1.782      428.5335        0.1956      614.0041      614.1998     185.666273      17.98170
  37     2.292      428.5722        0.2499      613.0520      613.3020     184.729759      15.51112
  36     2.964      428.6406        0.3206      612.0148      612.3354     183.694789      12.99199
  35     3.853      428.7553        0.4132      610.8730      611.2862     182.530892      11.04560
  34     5.035      428.9317        0.5354      609.6200      610.1554     181.223691       9.33810
  33     6.613      429.1802        0.6976      608.2540      608.9516     179.771411       7.76389
  32     8.786      429.5038        0.9152      606.7564      607.6716     178.167775       6.22794
  31     11.80      429.9230        1.2250      605.0084      606.2334     176.310399       5.20007
  30     15.07      430.3219        1.5556      603.4292      604.9848     174.662829       4.25371
  29     18.79      430.7270        1.9276      601.8619      603.7895     173.062477       3.62849
  28     23.16      431.1475        2.3598      600.2314      602.5912     171.443703       3.13019
  27     28.12      431.5669        2.8518      598.5573      601.4091     169.842228       2.72240
  26     33.73      431.9461        3.4003      596.8956      600.2959     168.349730       2.24401
  25     40.54      432.2995        4.0606      595.1072      599.1678     166.868281       1.83791
  24     48.69      432.6240        4.8530      593.1571      598.0101     165.386156       1.53377
  23     57.69      432.8819        5.7192      591.2030      596.9222     164.040259       1.26158
  22     68.43      433.0823        6.7454      589.0667      595.8120     162.729707       1.03027
  21     81.20      433.1727        7.9620      586.7612      594.7233     161.550583       0.77915
  20     96.49      433.1428        9.4026      584.2375      593.6401     160.497228       0.58138
  19     114.6      433.0477       11.0971      581.3813      592.4783     159.430660       0.49801
  18     136.5      432.8908       13.0813      578.1261      591.2074     158.316628       0.42837
  17     162.9      432.6664       15.4098      574.3838      589.7937     157.127221       0.38018
  16     196.4      432.2885       18.3795      569.7243      588.1038     155.815235       0.33024
  15     218.7      432.0116       20.2996      566.6574      586.9570     154.945382       0.33025
  14     243.0      431.7013       22.3593      563.2041      585.5634     153.862124       0.37571
  13     269.0      431.3563       24.5601      559.2848      583.8449     152.488695       0.44553
  12     297.5      430.9779       26.9029      554.8830      581.7859     150.808044       0.49846
  11     328.5      430.5740       29.3940      550.0335      579.4274     148.853441       0.53145
  10     361.9      430.1476       32.0295      544.6943      576.7239     146.576290       0.57614
   9     398.1      429.7016       34.8146      538.8300      573.6445     143.942970       0.61350
   8     437.6      429.2441       37.7482      532.4006      570.1488     140.904692       0.64960
   7     480.5      428.7821       40.8291      525.4382      566.2673     137.485174       0.67158
   6     533.0      428.2644       44.5344      516.7416      561.2759     133.011554       0.71966
   5     589.8      427.7916       48.4250      507.0786      555.5036     127.711967       0.78663
   4     651.6      427.4396       52.4931      496.0565      548.5496     121.110037       0.90283
   3     718.7      427.3007       56.7316      483.9628      540.6944     113.393683       0.96973
   2     792.3      427.5689       61.1237      470.7994      531.9231     104.354223       1.03672
   1     891.5      428.9617       66.8198      453.1899      520.0097      91.047988       1.13230
   0    1013.0      433.1823       73.3373      433.1016      506.4389      73.256584       1.23535



 Wavenumbers:  2600. -  3250. cm-1, ATM      1
 LEVEL PRESSURE   UPWARD FLUX   DIFDOWN FLUX  DIRDOWN FLUX  DOWNWARD FLUX   NET FLUX    HEATING RATE
          mb          W/m2          W/m2          W/m2        W/m2          W/m2       degree/day
  51    .06700        2.0145        0.0000        5.4450        5.4450       3.430579       0.00000
  50    .07753        2.0145        0.0000        5.4450        5.4450       3.430571       0.00640
  49    .09103        2.0145        0.0000        5.4450        5.4450       3.430561       0.00627
  48    0.1069        2.0145        0.0000        5.4450        5.4450       3.430549       0.00613
  47    0.1255        2.0145        0.0000        5.4450        5.4450       3.430536       0.00599
  46    0.1487        2.0145        0.0000        5.4450        5.4450       3.430519       0.00608
  45    0.1794        2.0145        0.0000        5.4450        5.4450       3.430496       0.00625
  44    0.2165        2.0145        0.0000        5.4449        5.4449       3.430470       0.00612
  43    0.2613        2.0145        0.0000        5.4449        5.4449       3.430438       0.00600
  42    0.3336        2.0145        0.0000        5.4448        5.4448       3.430385       0.00617
  41    0.4307        2.0145        0.0000        5.4448        5.4448       3.430314       0.00620
  40    0.5894        2.0145        0.0000        5.4446        5.4446       3.430194       0.00637
  39     1.339        2.0145        0.0000        5.4439        5.4439       3.429486       0.00797
  38     1.782        2.0145        0.0000        5.4434        5.4434       3.428943       0.01034
  37     2.292        2.0145        0.0000        5.4427        5.4427       3.428227       0.01186
  36     2.964        2.0145        0.0000        5.4416        5.4416       3.427188       0.01304
  35     3.853        2.0145        0.0000        5.4402        5.4402       3.425711       0.01402
  34     5.035        2.0145        0.0000        5.4381        5.4381       3.423655       0.01469
  33     6.613        2.0145        0.0000        5.4353        5.4353       3.420873       0.01487
  32     8.786        2.0145        0.0000        5.4317        5.4317       3.417239       0.01411
  31     11.80        2.0145        0.0000        5.4269        5.4269       3.412456       0.01339
  30     15.07        2.0145        0.0000        5.4224        5.4224       3.407925       0.01170
  29     18.79        2.0145        0.0000        5.4180        5.4180       3.403506       0.01002
  28     23.16        2.0145        0.0000        5.4135        5.4135       3.399010       0.00869
  27     28.12        2.0145        0.0000        5.4088        5.4088       3.394349       0.00792
  26     33.73        2.0145        0.0000        5.4036        5.4036       3.389088       0.00791
  25     40.54        2.0145        0.0000        5.3966        5.3967       3.382116       0.00865
  24     48.69        2.0146        0.0000        5.3872        5.3872       3.372593       0.00986
  23     57.69        2.0147        0.0000        5.3754        5.3754       3.360745       0.01111
  22     68.43        2.0148        0.0000        5.3599        5.3599       3.345166       0.01225
  21     81.20        2.0149        0.0000        5.3401        5.3401       3.325204       0.01319
  20     96.49        2.0151        0.0000        5.3155        5.3155       3.300457       0.01366
  19     114.6        2.0153        0.0001        5.2860        5.2861       3.270719       0.01389
  18     136.5        2.0157        0.0001        5.2518        5.2518       3.236167       0.01329
  17     162.9        2.0162        0.0001        5.2134        5.2134       3.197286       0.01243
  16     196.4        2.0169        0.0001        5.1685        5.1686       3.151713       0.01147
  15     218.7        2.0175        0.0001        5.1418        5.1419       3.124426       0.01036
  14     243.0        2.0183        0.0001        5.1145        5.1146       3.096309       0.00975
  13     269.0        2.0193        0.0001        5.0857        5.0858       3.066479       0.00968
  12     297.5        2.0208        0.0001        5.0540        5.0541       3.033334       0.00983
  11     328.5        2.0229        0.0001        5.0189        5.0190       2.996127       0.01012
  10     361.9        2.0256        0.0002        4.9799        4.9800       2.954456       0.01054
   9     398.1        2.0291        0.0002        4.9353        4.9355       2.906398       0.01120
   8     437.6        2.0337        0.0002        4.8817        4.8819       2.848244       0.01243
   7     480.5        2.0396        0.0002        4.8171        4.8173       2.777671       0.01386
   6     533.0        2.0487        0.0002        4.7247        4.7249       2.676209       0.01632
   5     589.8        2.0613        0.0002        4.6070        4.6073       2.546004       0.01933
   4     651.6        2.0797        0.0003        4.4514        4.4516       2.371879       0.02381
   3     718.7        2.1070        0.0003        4.2578        4.2581       2.151118       0.02774
   2     792.3        2.1486        0.0003        4.0286        4.0289       1.880356       0.03105
   1     891.5        2.2339        0.0003        3.7127        3.7130       1.479152       0.03414
   0    1013.0        2.4067        0.0003        3.3511        3.3514       0.944730       0.03711



 Wavenumbers:  3250. -  4000. cm-1, ATM      1
 LEVEL PRESSURE   UPWARD FLUX   DIFDOWN FLUX  DIRDOWN FLUX  DOWNWARD FLUX   NET FLUX    HEATING RATE
          mb          W/m2          W/m2          W/m2        W/m2          W/m2       degree/day
  51    .06700        0.2598        0.0000        9.1795        9.1795       8.919696       0.00000
  50    .07753        0.2598        0.0000        9.1748        9.1748       8.915008       3.75737
  49    .09103        0.2598        0.0000        9.1716        9.1716       8.911797       2.00711
  48    0.1069        0.2598        0.0000        9.1693        9.1693       8.909453       1.24758
  47    0.1255        0.2598        0.0000        9.1672        9.1672       8.907383       0.93853
  46    0.1487        0.2598        0.0000        9.1650        9.1650       8.905158       0.81097
  45    0.1794        0.2598        0.0000        9.1624        9.1624       8.902542       0.71818
  44    0.2165        0.2598        0.0000        9.1597        9.1597       8.899903       0.60036
  43    0.2613        0.2598        0.0000        9.1571        9.1571       8.897246       0.50075
  42    0.3336        0.2598        0.0000        9.1534        9.1534       8.893587       0.42668
  41    0.4307        0.2598        0.0000        9.1493        9.1493       8.889503       0.35504
  40    0.5894        0.2598        0.0000        9.1434        9.1434       8.883599       0.31398
  39     1.339        0.2598        0.0000        9.1203        9.1203       8.860479       0.26029
  38     1.782        0.2598        0.0000        9.1098        9.1098       8.849990       0.19968
  37     2.292        0.2598        0.0000        9.0997        9.0997       8.839832       0.16825
  36     2.964        0.2598        0.0000        9.0882        9.0882       8.828384       0.14371
  35     3.853        0.2598        0.0000        9.0747        9.0747       8.814854       0.12840
  34     5.035        0.2598        0.0000        9.0578        9.0578       8.797940       0.12083
  33     6.613        0.2598        0.0000        9.0354        9.0354       8.775562       0.11963
  32     8.786        0.2598        0.0000        9.0041        9.0041       8.744316       0.12135
  31     11.80        0.2598        0.0000        8.9573        8.9573       8.697468       0.13116
  30     15.07        0.2598        0.0000        8.9049        8.9050       8.645156       0.13506
  29     18.79        0.2598        0.0000        8.8444        8.8444       8.584609       0.13728
  28     23.16        0.2598        0.0000        8.7736        8.7737       8.513874       0.13678
  27     28.12        0.2598        0.0000        8.6952        8.6952       8.435452       0.13331
  26     33.73        0.2598        0.0000        8.6131        8.6131       8.353336       0.12346
  25     40.54        0.2598        0.0001        8.5231        8.5232       8.263400       0.11158
  24     48.69        0.2598        0.0001        8.4270        8.4270       8.167264       0.09949
  23     57.69        0.2598        0.0001        8.3320        8.3321       8.072314       0.08900
  22     68.43        0.2597        0.0001        8.2262        8.2263       7.966516       0.08317
  21     81.20        0.2597        0.0001        8.1040        8.1041       7.844405       0.08069
  20     96.49        0.2597        0.0001        7.9620        7.9621       7.702419       0.07837
  19     114.6        0.2597        0.0001        7.7998        7.8000       7.540297       0.07570
  18     136.5        0.2597        0.0002        7.6213        7.6215       7.361797       0.06864
  17     162.9        0.2596        0.0002        7.4269        7.4271       7.167502       0.06210
  16     196.4        0.2596        0.0002        7.1928        7.1931       6.933463       0.05891
  15     218.7        0.2596        0.0003        7.0258        7.0261       6.766497       0.06339
  14     243.0        0.2596        0.0003        6.8076        6.8079       6.548323       0.07567
  13     269.0        0.2596        0.0003        6.5170        6.5172       6.257634       0.09430
  12     297.5        0.2597        0.0003        6.1897        6.1900       5.930357       0.09707
  11     328.5        0.2598        0.0003        5.8545        5.8549       5.595022       0.09118
  10     361.9        0.2601        0.0003        5.5020        5.5024       5.242292       0.08924
   9     398.1        0.2605        0.0003        5.1166        5.1170       4.856463       0.08989
   8     437.6        0.2612        0.0003        4.6882        4.6885       4.427326       0.09175
   7     480.5        0.2623        0.0003        4.2431        4.2434       3.981100       0.08764
   6     533.0        0.2643        0.0003        3.7405        3.7408       3.476474       0.08118
   5     589.8        0.2678        0.0003        3.2490        3.2493       2.981488       0.07347
   4     651.6        0.2743        0.0003        2.7449        2.7452       2.470945       0.06982
   3     718.7        0.2860        0.0003        2.2553        2.2556       1.969667       0.06300
   2     792.3        0.3079        0.0003        1.7837        1.7839       1.476016       0.05662
   1     891.5        0.3654        0.0002        1.2381        1.2383       0.872924       0.05132
   0    1013.0        0.5298        0.0001        0.7377        0.7378       0.207983       0.04617



 Wavenumbers:  4000. -  4650. cm-1, ATM      1
 LEVEL PRESSURE   UPWARD FLUX   DIFDOWN FLUX  DIRDOWN FLUX  DOWNWARD FLUX   NET FLUX    HEATING RATE
          mb          W/m2          W/m2          W/m2        W/m2          W/m2       degree/day
  51    .06700        5.7258        0.0000       10.7795       10.7795       5.053755       0.00000
  50    .07753        5.7258        0.0000       10.7795       10.7795       5.053754       0.00082
  49    .09103        5.7258        0.0000       10.7795       10.7795       5.053753       0.00081
  48    0.1069        5.7258        0.0000       10.7795       10.7795       5.053751       0.00079
  47    0.1255        5.7258        0.0000       10.7795       10.7795       5.053750       0.00077
  46    0.1487        5.7258        0.0000       10.7795       10.7795       5.053748       0.00078
  45    0.1794        5.7258        0.0000       10.7795       10.7795       5.053745       0.00080
  44    0.2165        5.7258        0.0000       10.7795       10.7795       5.053741       0.00079
  43    0.2613        5.7258        0.0000       10.7795       10.7795       5.053737       0.00077
  42    0.3336        5.7258        0.0000       10.7795       10.7795       5.053730       0.00080
  41    0.4307        5.7258        0.0000       10.7795       10.7795       5.053721       0.00080
  40    0.5894        5.7258        0.0000       10.7795       10.7795       5.053706       0.00082
  39     1.339        5.7258        0.0000       10.7794       10.7794       5.053613       0.00104
  38     1.782        5.7258        0.0000       10.7793       10.7793       5.053541       0.00138
  37     2.292        5.7258        0.0000       10.7792       10.7792       5.053443       0.00161
  36     2.964        5.7258        0.0000       10.7791       10.7791       5.053298       0.00182
  35     3.853        5.7258        0.0000       10.7788       10.7789       5.053083       0.00204
  34     5.035        5.7258        0.0000       10.7785       10.7785       5.052765       0.00227
  33     6.613        5.7258        0.0000       10.7780       10.7781       5.052298       0.00250
  32     8.786        5.7258        0.0000       10.7774       10.7774       5.051607       0.00268
  31     11.80        5.7258        0.0001       10.7763       10.7763       5.050521       0.00304
  30     15.07        5.7258        0.0001       10.7750       10.7750       5.049245       0.00329
  29     18.79        5.7258        0.0001       10.7734       10.7735       5.047700       0.00350
  28     23.16        5.7258        0.0001       10.7715       10.7716       5.045778       0.00372
  27     28.12        5.7259        0.0001       10.7692       10.7693       5.043447       0.00396
  26     33.73        5.7259        0.0002       10.7663       10.7665       5.040567       0.00433
  25     40.54        5.7260        0.0002       10.7625       10.7627       5.036650       0.00486
  24     48.69        5.7261        0.0002       10.7573       10.7576       5.031417       0.00542
  23     57.69        5.7263        0.0003       10.7512       10.7515       5.025194       0.00583
  22     68.43        5.7266        0.0003       10.7436       10.7439       5.017366       0.00615
  21     81.20        5.7269        0.0004       10.7342       10.7346       5.007690       0.00639
  20     96.49        5.7275        0.0005       10.7229       10.7233       4.995866       0.00653
  19     114.6        5.7281        0.0005       10.7091       10.7097       4.981504       0.00671
  18     136.5        5.7291        0.0007       10.6926       10.6932       4.964116       0.00669
  17     162.9        5.7304        0.0008       10.6726       10.6734       4.942948       0.00677
  16     196.4        5.7324        0.0009       10.6462       10.6471       4.914723       0.00710
  15     218.7        5.7340        0.0010       10.6282       10.6292       4.895252       0.00739
  14     243.0        5.7360        0.0011       10.6074       10.6085       4.872482       0.00790
  13     269.0        5.7387        0.0013       10.5827       10.5839       4.845271       0.00883
  12     297.5        5.7421        0.0014       10.5529       10.5543       4.812266       0.00979
  11     328.5        5.7464        0.0015       10.5180       10.5196       4.773168       0.01063
  10     361.9        5.7518        0.0017       10.4774       10.4791       4.727282       0.01161
   9     398.1        5.7586        0.0019       10.4299       10.4318       4.673134       0.01262
   8     437.6        5.7672        0.0020       10.3734       10.3755       4.608259       0.01387
   7     480.5        5.7781        0.0022       10.3057       10.3079       4.529878       0.01539
   6     533.0        5.7939        0.0025       10.2105       10.2130       4.419036       0.01783
   5     589.8        5.8151        0.0027       10.0896       10.0923       4.277229       0.02105
   4     651.6        5.8445        0.0029        9.9304        9.9333       4.088856       0.02576
   3     718.7        5.8843        0.0032        9.7365        9.7397       3.855353       0.02934
   2     792.3        5.9415        0.0035        9.5099        9.5133       3.571862       0.03251
   1     891.5        6.0552        0.0038        9.1817        9.1855       3.130227       0.03758
   0    1013.0        6.2822        0.0041        8.7438        8.7480       2.465733       0.04614



 Wavenumbers:  4650. -  5150. cm-1, ATM      1
 LEVEL PRESSURE   UPWARD FLUX   DIFDOWN FLUX  DIRDOWN FLUX  DOWNWARD FLUX   NET FLUX    HEATING RATE
          mb          W/m2          W/m2          W/m2        W/m2          W/m2       degree/day
  51    .06700        3.9734        0.0000       10.2033       10.2033       6.229971       0.00000
  50    .07753        3.9734        0.0000       10.2031       10.2031       6.229741       0.18439
  49    .09103        3.9734        0.0000       10.2028       10.2028       6.229453       0.17979
  48    0.1069        3.9734        0.0000       10.2025       10.2025       6.229124       0.17495
  47    0.1255        3.9734        0.0000       10.2021       10.2021       6.228749       0.17004
  46    0.1487        3.9734        0.0000       10.2017       10.2017       6.228280       0.17113
  45    0.1794        3.9734        0.0000       10.2010       10.2010       6.227645       0.17421
  44    0.2165        3.9734        0.0000       10.2003       10.2003       6.226904       0.16864
  43    0.2613        3.9734        0.0000       10.1994       10.1994       6.226039       0.16292
  42    0.3336        3.9734        0.0000       10.1980       10.1980       6.224641       0.16306
  41    0.4307        3.9734        0.0000       10.1962       10.1962       6.222844       0.15626
  40    0.5894        3.9734        0.0000       10.1934       10.1934       6.220037       0.14927
  39     1.339        3.9734        0.0000       10.1821       10.1821       6.208708       0.12754
  38     1.782        3.9734        0.0000       10.1767       10.1767       6.203301       0.10294
  37     2.292        3.9734        0.0000       10.1713       10.1713       6.197962       0.08843
  36     2.964        3.9734        0.0000       10.1655       10.1655       6.192161       0.07281
  35     3.853        3.9734        0.0000       10.1594       10.1594       6.186067       0.05783
  34     5.035        3.9734        0.0000       10.1532       10.1532       6.179842       0.04447
  33     6.613        3.9734        0.0000       10.1468       10.1468       6.173477       0.03402
  32     8.786        3.9734        0.0001       10.1399       10.1399       6.166541       0.02694
  31     11.80        3.9734        0.0001       10.1309       10.1310       6.157566       0.02513
  30     15.07        3.9734        0.0001       10.1211       10.1212       6.147740       0.02537
  29     18.79        3.9735        0.0001       10.1091       10.1093       6.135787       0.02710
  28     23.16        3.9735        0.0002       10.0939       10.0941       6.120544       0.02947
  27     28.12        3.9736        0.0002       10.0749       10.0751       6.101520       0.03234
  26     33.73        3.9737        0.0002       10.0520       10.0522       6.078501       0.03461
  25     40.54        3.9739        0.0003       10.0223       10.0226       6.048680       0.03700
  24     48.69        3.9742        0.0003        9.9844        9.9848       6.010593       0.03941
  23     57.69        3.9745        0.0004        9.9412        9.9416       5.967120       0.04075
  22     68.43        3.9749        0.0005        9.8889        9.8894       5.914420       0.04143
  21     81.20        3.9756        0.0005        9.8270        9.8276       5.851990       0.04125
  20     96.49        3.9765        0.0006        9.7558        9.7565       5.780006       0.03973
  19     114.6        3.9777        0.0008        9.6767        9.6774       5.699738       0.03748
  18     136.5        3.9794        0.0009        9.5912        9.5921       5.612684       0.03347
  17     162.9        3.9817        0.0011        9.5002        9.5013       5.519524       0.02978
  16     196.4        3.9853        0.0013        9.3955        9.3968       5.411455       0.02720
  15     218.7        3.9881        0.0014        9.3316        9.3330       5.344957       0.02525
  14     243.0        3.9914        0.0016        9.2640        9.2656       5.274136       0.02456
  13     269.0        3.9956        0.0017        9.1912        9.1929       5.197362       0.02491
  12     297.5        4.0007        0.0019        9.1110        9.1129       5.112250       0.02524
  11     328.5        4.0069        0.0021        9.0219        9.0240       5.017026       0.02589
  10     361.9        4.0147        0.0023        8.9219        8.9242       4.909543       0.02719
   9     398.1        4.0242        0.0025        8.8095        8.8119       4.787685       0.02839
   8     437.6        4.0363        0.0027        8.6820        8.6846       4.648388       0.02978
   7     480.5        4.0514        0.0029        8.5380        8.5409       4.489575       0.03119
   6     533.0        4.0738        0.0032        8.3507        8.3539       4.280109       0.03370
   5     589.8        4.1030        0.0034        8.1393        8.1427       4.039729       0.03568
   4     651.6        4.1420        0.0037        7.8984        7.9021       3.760081       0.03824
   3     718.7        4.1947        0.0040        7.6284        7.6324       3.437747       0.04051
   2     792.3        4.2675        0.0043        7.3283        7.3326       3.065109       0.04274
   1     891.5        4.4008        0.0046        6.9215        6.9261       2.525254       0.04594
   0    1013.0        4.6380        0.0050        6.4532        6.4582       1.820192       0.04896



 Wavenumbers:  5150. -  6150. cm-1, ATM      1
 LEVEL PRESSURE   UPWARD FLUX   DIFDOWN FLUX  DIRDOWN FLUX  DOWNWARD FLUX   NET FLUX    HEATING RATE
          mb          W/m2          W/m2          W/m2        W/m2          W/m2       degree/day
  51    .06700        9.9260        0.0000       25.5798       25.5798      15.653819       0.00000
  50    .07753        9.9260        0.0000       25.5798       25.5798      15.653813       0.00484
  49    .09103        9.9260        0.0000       25.5798       25.5798      15.653805       0.00491
  48    0.1069        9.9260        0.0000       25.5798       25.5798      15.653796       0.00498
  47    0.1255        9.9260        0.0000       25.5798       25.5798      15.653785       0.00505
  46    0.1487        9.9260        0.0000       25.5798       25.5798      15.653770       0.00531
  45    0.1794        9.9260        0.0000       25.5797       25.5798      15.653750       0.00565
  44    0.2165        9.9260        0.0000       25.5797       25.5797      15.653725       0.00573
  43    0.2613        9.9260        0.0000       25.5797       25.5797      15.653694       0.00581
  42    0.3336        9.9260        0.0000       25.5796       25.5796      15.653641       0.00614
  41    0.4307        9.9260        0.0000       25.5796       25.5796      15.653569       0.00623
  40    0.5894        9.9260        0.0000       25.5794       25.5794      15.653449       0.00639
  39     1.339        9.9260        0.0000       25.5788       25.5789      15.652861       0.00662
  38     1.782        9.9260        0.0001       25.5784       25.5785      15.652510       0.00668
  37     2.292        9.9260        0.0001       25.5780       25.5781      15.652107       0.00669
  36     2.964        9.9260        0.0001       25.5775       25.5776      15.651583       0.00657
  35     3.853        9.9260        0.0001       25.5768       25.5769      15.650903       0.00646
  34     5.035        9.9260        0.0002       25.5759       25.5760      15.650004       0.00642
  33     6.613        9.9260        0.0002       25.5746       25.5748      15.648802       0.00643
  32     8.786        9.9260        0.0003       25.5730       25.5732      15.647186       0.00628
  31     11.80        9.9261        0.0004       25.5706       25.5710      15.644891       0.00642
  30     15.07        9.9262        0.0005       25.5681       25.5686      15.642458       0.00628
  29     18.79        9.9262        0.0006       25.5654       25.5660      15.639764       0.00611
  28     23.16        9.9263        0.0007       25.5623       25.5630      15.636678       0.00597
  27     28.12        9.9265        0.0009       25.5588       25.5597      15.633213       0.00589
  26     33.73        9.9267        0.0011       25.5550       25.5561      15.629408       0.00572
  25     40.54        9.9269        0.0013       25.5505       25.5518      15.624875       0.00562
  24     48.69        9.9273        0.0015       25.5453       25.5468      15.619538       0.00552
  23     57.69        9.9277        0.0018       25.5397       25.5415      15.613750       0.00543
  22     68.43        9.9283        0.0021       25.5331       25.5353      15.606938       0.00535
  21     81.20        9.9291        0.0025       25.5254       25.5280      15.598872       0.00533
  20     96.49        9.9300        0.0030       25.5162       25.5192      15.589201       0.00534
  19     114.6        9.9312        0.0036       25.5051       25.5086      15.577490       0.00547
  18     136.5        9.9326        0.0043       25.4915       25.4957      15.563173       0.00551
  17     162.9        9.9343        0.0051       25.4714       25.4765      15.542182       0.00671
  16     196.4        9.9367        0.0061       25.4291       25.4352      15.498532       0.01099
  15     218.7        9.9383        0.0068       25.3652       25.3720      15.433730       0.02460
  14     243.0        9.9401        0.0075       25.2444       25.2519      15.311843       0.04227
  13     269.0        9.9422        0.0083       25.0616       25.0699      15.127719       0.05973
  12     297.5        9.9447        0.0091       24.8026       24.8117      14.867036       0.07732
  11     328.5        9.9476        0.0099       24.4605       24.4704      14.522830       0.09359
  10     361.9        9.9510        0.0108       24.0404       24.0512      14.100202       0.10693
   9     398.1        9.9551        0.0117       23.5654       23.5771      13.622022       0.11141
   8     437.6        9.9601        0.0126       23.0409       23.0536      13.093473       0.11301
   7     480.5        9.9664        0.0136       22.4536       22.4672      12.500844       0.11639
   6     533.0        9.9758        0.0147       21.6584       21.6731      11.697240       0.12927
   5     589.8        9.9892        0.0157       20.7132       20.7289      10.739677       0.14213
   4     651.6       10.0105        0.0167       19.5843       19.6010       9.590443       0.15716
   3     718.7       10.0450        0.0175       18.3780       18.3955       8.350491       0.15583
   2     792.3       10.1042        0.0184       17.1648       17.1831       7.078901       0.14584
   1     891.5       10.2450        0.0195       15.8369       15.8564       5.611372       0.12488
   0    1013.0       10.6073        0.0209       14.7482       14.7691       4.161832       0.10065



 Wavenumbers:  6150. -  7700. cm-1, ATM      1
 LEVEL PRESSURE   UPWARD FLUX   DIFDOWN FLUX  DIRDOWN FLUX  DOWNWARD FLUX   NET FLUX    HEATING RATE
          mb          W/m2          W/m2          W/m2        W/m2          W/m2       degree/day
  51    .06700       17.2824        0.0000       47.3108       47.3108      30.028427       0.00000
  50    .07753       17.2824        0.0000       47.3108       47.3108      30.028404       0.01778
  49    .09103       17.2824        0.0000       47.3108       47.3108      30.028376       0.01760
  48    0.1069       17.2824        0.0000       47.3108       47.3108      30.028344       0.01741
  47    0.1255       17.2824        0.0000       47.3107       47.3107      30.028306       0.01723
  46    0.1487       17.2824        0.0000       47.3107       47.3107      30.028257       0.01769
  45    0.1794       17.2824        0.0000       47.3106       47.3106      30.028190       0.01839
  44    0.2165       17.2824        0.0000       47.3105       47.3105      30.028110       0.01824
  43    0.2613       17.2824        0.0000       47.3104       47.3104      30.028014       0.01811
  42    0.3336       17.2824        0.0000       47.3102       47.3103      30.027853       0.01873
  41    0.4307       17.2824        0.0000       47.3100       47.3100      30.027638       0.01869
  40    0.5894       17.2824        0.0001       47.3096       47.3097      30.027284       0.01884
  39     1.339       17.2823        0.0002       47.3077       47.3079      30.025595       0.01901
  38     1.782       17.2823        0.0002       47.3067       47.3069      30.024606       0.01884
  37     2.292       17.2822        0.0003       47.3054       47.3057      30.023468       0.01884
  36     2.964       17.2822        0.0004       47.3038       47.3042      30.021990       0.01855
  35     3.853       17.2821        0.0005       47.3017       47.3022      30.020061       0.01831
  34     5.035       17.2820        0.0007       47.2989       47.2996      30.017520       0.01815
  33     6.613       17.2819        0.0009       47.2952       47.2961      30.014152       0.01801
  32     8.786       17.2817        0.0011       47.2903       47.2914      30.009658       0.01745
  31     11.80       17.2815        0.0015       47.2833       47.2848      30.003323       0.01774
  30     15.07       17.2812        0.0020       47.2759       47.2779      29.996643       0.01725
  29     18.79       17.2810        0.0025       47.2677       47.2702      29.989251       0.01676
  28     23.16       17.2806        0.0030       47.2584       47.2614      29.980801       0.01634
  27     28.12       17.2802        0.0037       47.2479       47.2516      29.971349       0.01607
  26     33.73       17.2798        0.0044       47.2364       47.2409      29.961059       0.01547
  25     40.54       17.2793        0.0053       47.2230       47.2283      29.948998       0.01496
  24     48.69       17.2786        0.0064       47.2073       47.2136      29.934981       0.01451
  23     57.69       17.2779        0.0075       47.1905       47.1980      29.920084       0.01396
  22     68.43       17.2771        0.0089       47.1711       47.1800      29.902904       0.01351
  21     81.20       17.2761        0.0106       47.1486       47.1592      29.883051       0.01312
  20     96.49       17.2750        0.0126       47.1224       47.1350      29.860007       0.01272
  19     114.6       17.2736        0.0149       47.0918       47.1068      29.833211       0.01251
  18     136.5       17.2719        0.0178       47.0561       47.0739      29.801995       0.01200
  17     162.9       17.2700        0.0211       47.0110       47.0321      29.762146       0.01274
  16     196.4       17.2675        0.0255       46.9379       46.9634      29.695875       0.01668
  15     218.7       17.2660        0.0283       46.8535       46.8818      29.615845       0.03038
  14     243.0       17.2647        0.0314       46.6977       46.7291      29.464395       0.05253
  13     269.0       17.2636        0.0346       46.4399       46.4745      29.210969       0.08221
  12     297.5       17.2629        0.0381       46.0705       46.1086      28.845717       0.10833
  11     328.5       17.2629        0.0417       45.6044       45.6461      28.383234       0.12575
  10     361.9       17.2638        0.0455       45.0016       45.0470      27.783224       0.15181
   9     398.1       17.2663        0.0494       44.2421       44.2915      27.025149       0.17661
   8     437.6       17.2714        0.0534       43.3292       43.3826      26.111204       0.19541
   7     480.5       17.2802        0.0575       42.3036       42.3610      25.080824       0.20236
   6     533.0       17.2974        0.0622       40.9812       41.0434      23.746015       0.21473
   5     589.8       17.3277        0.0669       39.4020       39.4689      22.141196       0.23821
   4     651.6       17.3846        0.0711       37.4097       37.4807      20.096111       0.27967
   3     718.7       17.4866        0.0748       35.1656       35.2403      17.753731       0.29437
   2     792.3       17.6725        0.0780       32.7482       32.8262      15.153697       0.29819
   1     891.5       18.1307        0.0816       29.7421       29.8237      11.693075       0.29448
   0    1013.0       19.2838        0.0855       26.7594       26.8449       7.561081       0.28691



 Wavenumbers:  7700. -  8050. cm-1, ATM      1
 LEVEL PRESSURE   UPWARD FLUX   DIFDOWN FLUX  DIRDOWN FLUX  DOWNWARD FLUX   NET FLUX    HEATING RATE
          mb          W/m2          W/m2          W/m2        W/m2          W/m2       degree/day
  51    .06700        6.5890        0.0000       11.1810       11.1810       4.591937       0.00000
  50    .07753        6.5890        0.0000       11.1809       11.1809       4.591915       0.01790
  49    .09103        6.5890        0.0000       11.1809       11.1809       4.591887       0.01754
  48    0.1069        6.5890        0.0000       11.1809       11.1809       4.591854       0.01717
  47    0.1255        6.5891        0.0000       11.1809       11.1809       4.591817       0.01680
  46    0.1487        6.5891        0.0000       11.1808       11.1808       4.591771       0.01705
  45    0.1794        6.5891        0.0000       11.1808       11.1808       4.591707       0.01755
  44    0.2165        6.5891        0.0000       11.1807       11.1807       4.591631       0.01721
  43    0.2613        6.5891        0.0000       11.1806       11.1806       4.591541       0.01689
  42    0.3336        6.5891        0.0000       11.1805       11.1805       4.591393       0.01728
  41    0.4307        6.5892        0.0000       11.1803       11.1804       4.591197       0.01709
  40    0.5894        6.5892        0.0000       11.1801       11.1801       4.590876       0.01708
  39     1.339        6.5895        0.0001       11.1788       11.1789       4.589356       0.01710
  38     1.782        6.5897        0.0001       11.1781       11.1782       4.588464       0.01699
  37     2.292        6.5899        0.0001       11.1772       11.1773       4.587431       0.01711
  36     2.964        6.5902        0.0002       11.1761       11.1762       4.586075       0.01703
  35     3.853        6.5905        0.0002       11.1746       11.1748       4.584283       0.01700
  34     5.035        6.5910        0.0003       11.1726       11.1729       4.581904       0.01700
  33     6.613        6.5916        0.0004       11.1699       11.1703       4.578725       0.01699
  32     8.786        6.5924        0.0005       11.1664       11.1669       4.574442       0.01663
  31     11.80        6.5936        0.0007       11.1613       11.1619       4.568319       0.01714
  30     15.07        6.5949        0.0009       11.1558       11.1567       4.561750       0.01696
  29     18.79        6.5964        0.0011       11.1496       11.1507       4.554337       0.01681
  28     23.16        6.5981        0.0013       11.1424       11.1438       4.545687       0.01673
  27     28.12        6.6000        0.0016       11.1342       11.1358       4.535811       0.01679
  26     33.73        6.6022        0.0019       11.1251       11.1270       4.524777       0.01659
  25     40.54        6.6049        0.0023       11.1141       11.1164       4.511476       0.01650
  24     48.69        6.6081        0.0028       11.1009       11.1036       4.495483       0.01655
  23     57.69        6.6117        0.0033       11.0864       11.0897       4.477972       0.01641
  22     68.43        6.6160        0.0039       11.0694       11.0732       4.457193       0.01633
  21     81.20        6.6212        0.0046       11.0491       11.0537       4.432549       0.01628
  20     96.49        6.6274        0.0054       11.0253       11.0307       4.403341       0.01612
  19     114.6        6.6348        0.0064       10.9973       11.0037       4.368882       0.01609
  18     136.5        6.6437        0.0076       10.9644       10.9721       4.328337       0.01559
  17     162.9        6.6545        0.0091       10.9259       10.9350       4.280457       0.01530
  16     196.4        6.6687        0.0109       10.8768       10.8877       4.218976       0.01548
  15     218.7        6.6783        0.0121       10.8451       10.8572       4.178938       0.01520
  14     243.0        6.6887        0.0134       10.8110       10.8244       4.135687       0.01500
  13     269.0        6.7003        0.0149       10.7745       10.7894       4.089104       0.01511
  12     297.5        6.7130        0.0164       10.7356       10.7520       4.039044       0.01485
  11     328.5        6.7269        0.0181       10.6941       10.7122       3.985233       0.01463
  10     361.9        6.7423        0.0198       10.6500       10.6698       3.927554       0.01459
   9     398.1        6.7592        0.0218       10.6031       10.6249       3.865701       0.01441
   8     437.6        6.7778        0.0238       10.5534       10.5772       3.799408       0.01417
   7     480.5        6.7983        0.0260       10.5007       10.5267       3.728378       0.01395
   6     533.0        6.8245        0.0288       10.4365       10.4652       3.640766       0.01409
   5     589.8        6.8538        0.0317       10.3677       10.3994       3.545584       0.01413
   4     651.6        6.8870        0.0348       10.2939       10.3288       3.441745       0.01420
   3     718.7        6.9249        0.0382       10.2143       10.2525       3.327571       0.01435
   2     792.3        6.9686        0.0418       10.1276       10.1694       3.200811       0.01454
   1     891.5        7.0330        0.0467       10.0074       10.0541       3.021049       0.01530
   0    1013.0        7.1202        0.0524        9.8573        9.9098       2.789582       0.01607



 Wavenumbers:  8050. - 12850. cm-1, ATM      1
 LEVEL PRESSURE   UPWARD FLUX   DIFDOWN FLUX  DIRDOWN FLUX  DOWNWARD FLUX   NET FLUX    HEATING RATE
          mb          W/m2          W/m2          W/m2        W/m2          W/m2       degree/day
  51    .06700       96.0328        0.0000      156.5418      156.5418      60.508985       0.00000
  50    .07753       96.0328        0.0000      156.5417      156.5417      60.508985       0.00000
  49    .09103       96.0327        0.0001      156.5417      156.5417      60.508985      -0.00000
  48    0.1069       96.0327        0.0001      156.5416      156.5417      60.508985       0.00000
  47    0.1255       96.0327        0.0002      156.5415      156.5417      60.508985       0.00000
  46    0.1487       96.0327        0.0002      156.5414      156.5417      60.508985       0.00000
  45    0.1794       96.0326        0.0003      156.5413      156.5416      60.508985      -0.00000
  44    0.2165       96.0326        0.0004      156.5412      156.5416      60.508985       0.00000
  43    0.2613       96.0325        0.0006      156.5410      156.5415      60.508985       0.00000
  42    0.3336       96.0325        0.0008      156.5407      156.5415      60.508985      -0.00000
  41    0.4307       96.0324        0.0010      156.5403      156.5413      60.508985       0.00000
  40    0.5894       96.0322        0.0015      156.5397      156.5412      60.508985       0.00000
  39     1.339       96.0313        0.0036      156.5367      156.5403      60.508985      -0.00000
  38     1.782       96.0309        0.0048      156.5350      156.5398      60.508985       0.00000
  37     2.292       96.0303        0.0063      156.5330      156.5393      60.508985       0.00000
  36     2.964       96.0295        0.0082      156.5303      156.5385      60.508985      -0.00000
  35     3.853       96.0285        0.0107      156.5268      156.5375      60.508985       0.00000
  34     5.035       96.0272        0.0140      156.5222      156.5362      60.508985      -0.00000
  33     6.613       96.0255        0.0185      156.5160      156.5345      60.508985      -0.00000
  32     8.786       96.0231        0.0245      156.5076      156.5321      60.508985      -0.00000
  31     11.80       96.0197        0.0331      156.4957      156.5287      60.508985       0.00000
  30     15.07       96.0161        0.0423      156.4828      156.5251      60.508985       0.00000
  29     18.79       96.0120        0.0527      156.4682      156.5209      60.508985      -0.00000
  28     23.16       96.0071        0.0649      156.4512      156.5161      60.508985      -0.00000
  27     28.12       96.0016        0.0789      156.4317      156.5106      60.508985       0.00000
  26     33.73       95.9954        0.0946      156.4099      156.5044      60.508985      -0.00000
  25     40.54       95.9880        0.1135      156.3834      156.4969      60.508985       0.00000
  24     48.69       95.9789        0.1364      156.3515      156.4879      60.508985       0.00000
  23     57.69       95.9690        0.1616      156.3164      156.4780      60.508985      -0.00000
  22     68.43       95.9571        0.1916      156.2746      156.4661      60.508985       0.00000
  21     81.20       95.9430        0.2274      156.2246      156.4520      60.508985      -0.00000
  20     96.49       95.9261        0.2701      156.1649      156.4351      60.508985       0.00000
  19     114.6       95.9060        0.3210      156.0931      156.4141      60.508064       0.00043
  18     136.5       95.8822        0.3814      156.0077      156.3891      60.506916       0.00044
  17     162.9       95.8537        0.4535      155.9052      156.3587      60.505002       0.00061
  16     196.4       95.8168        0.5473      155.7695      156.3168      60.500037       0.00125
  15     218.7       95.7926        0.6091      155.6740      156.2831      60.490500       0.00362
  14     243.0       95.7665        0.6763      155.5569      156.2332      60.466726       0.00825
  13     269.0       95.7390        0.7493      155.4035      156.1528      60.413876       0.01714
  12     297.5       95.7106        0.8283      155.1951      156.0234      60.312809       0.02998
  11     328.5       95.6816        0.9137      154.9294      155.8431      60.161456       0.04115
  10     361.9       95.6530        1.0058      154.5992      155.6050      59.952031       0.05299
   9     398.1       95.6261        1.1050      154.1934      155.2984      59.672271       0.06518
   8     437.6       95.6036        1.2116      153.6973      154.9088      59.305200       0.07848
   7     480.5       95.5885        1.3257      153.1047      154.4305      58.841919       0.09099
   6     533.0       95.5868        1.4662      152.2819      153.7481      58.161268       0.10950
   5     589.8       95.6154        1.6169      151.2306      152.8475      57.232089       0.13792
   4     651.6       95.7095        1.7771      149.7791      151.5562      55.846700       0.18946
   3     718.7       95.9122        1.9460      147.8559      149.8019      53.889707       0.24594
   2     792.3       96.3150        2.1219      145.3245      147.4464      51.131399       0.31635
   1     891.5       97.3261        2.3489      141.2463      143.5952      46.269131       0.41376
   0    1013.0       99.6491        2.6078      135.8843      138.4921      38.843000       0.51563



 Wavenumbers: 12850. - 16000. cm-1, ATM      1
 LEVEL PRESSURE   UPWARD FLUX   DIFDOWN FLUX  DIRDOWN FLUX  DOWNWARD FLUX   NET FLUX    HEATING RATE
          mb          W/m2          W/m2          W/m2        W/m2          W/m2       degree/day
  51    .06700       76.2957        0.0000       98.0872       98.0872      21.791565       0.00000
  50    .07753       76.2957        0.0001       98.0864       98.0864      21.790772       0.63512
  49    .09103       76.2957        0.0002       98.0853       98.0854      21.789777       0.62213
  48    0.1069       76.2957        0.0003       98.0841       98.0843      21.788633       0.60890
  47    0.1255       76.2957        0.0004       98.0826       98.0830      21.787319       0.59598
  46    0.1487       76.2957        0.0005       98.0809       98.0814      21.785659       0.60494
  45    0.1794       76.2958        0.0007       98.0784       98.0792      21.783401       0.61998
  44    0.2165       76.2958        0.0010       98.0756       98.0766      21.780743       0.60454
  43    0.2613       76.2960        0.0012       98.0723       98.0736      21.777617       0.58935
  42    0.3336       76.2962        0.0017       98.0670       98.0687      21.772511       0.59528
  41    0.4307       76.2966        0.0023       98.0602       98.0625      21.765904       0.57442
  40    0.5894       76.2974        0.0033       98.0496       98.0529      21.755485       0.55410
  39     1.339       76.3043        0.0081       98.0043       98.0125      21.708124       0.53320
  38     1.782       76.3106        0.0109       97.9793       97.9902      21.679596       0.54313
  37     2.292       76.3199        0.0142       97.9498       97.9639      21.644000       0.58956
  36     2.964       76.3354        0.0184       97.9088       97.9272      21.591861       0.65450
  35     3.853       76.3602        0.0240       97.8503       97.8744      21.514141       0.73757
  34     5.035       76.3977        0.0315       97.7680       97.7995      21.401823       0.80236
  33     6.613       76.4499        0.0415       97.6562       97.6977      21.247732       0.82377
  32     8.786       76.5180        0.0549       97.5107       97.5656      21.047585       0.77730
  31     11.80       76.6066        0.0741       97.3179       97.3919      20.785315       0.73427
  30     15.07       76.6916        0.0946       97.1283       97.2230      20.531357       0.65567
  29     18.79       76.7785        0.1178       96.9300       97.0479      20.269394       0.59395
  28     23.16       76.8694        0.1449       96.7166       96.8615      19.992109       0.53618
  27     28.12       76.9611        0.1759       96.4935       96.6694      19.708329       0.48241
  26     33.73       77.0460        0.2106       96.2731       96.4837      19.437628       0.40701
  25     40.54       77.1283        0.2524       96.0408       96.2932      19.164936       0.33831
  24     48.69       77.2077        0.3029       95.7946       96.0975      18.889854       0.28467
  23     57.69       77.2757        0.3584       95.5573       95.9157      18.639981       0.23422
  22     68.43       77.3361        0.4245       95.3106       95.7351      18.399068       0.18939
  21     81.20       77.3796        0.5033       95.0644       95.5677      18.188152       0.13937
  20     96.49       77.4052        0.5974       94.8153       95.4127      18.007533       0.09969
  19     114.6       77.4311        0.7100       94.5412       95.2512      17.820084       0.08753
  18     136.5       77.4512        0.8434       94.2324       95.0759      17.624627       0.07516
  17     162.9       77.4656        1.0023       93.8760       94.8783      17.412675       0.06775
  16     196.4       77.4638        1.2084       93.4358       94.6442      17.180417       0.05846
  15     218.7       77.4553        1.3437       93.1534       94.4971      17.041783       0.05263
  14     243.0       77.4430        1.4908       92.8482       94.3390      16.895973       0.05057
  13     269.0       77.4266        1.6501       92.5204       94.1705      16.743928       0.04932
  12     297.5       77.4062        1.8223       92.1688       93.9911      16.584861       0.04718
  11     328.5       77.3835        2.0083       91.7904       93.7987      16.415139       0.04615
  10     361.9       77.3589        2.2085       91.3844       93.5929      16.234010       0.04583
   9     398.1       77.3328        2.4241       90.9496       93.3736      16.040864       0.04500
   8     437.6       77.3063        2.6555       90.4834       93.1389      15.832622       0.04452
   7     480.5       77.2802        2.9036       89.9845       92.8881      15.607863       0.04414
   6     533.0       77.2529        3.2090       89.3686       92.5775      15.324599       0.04557
   5     589.8       77.2323        3.5383       88.6982       92.2365      15.004240       0.04755
   4     651.6       77.2260        3.8922       87.9619       91.8541      14.628021       0.05145
   3     718.7       77.2436        4.2710       87.1504       91.4214      14.177778       0.05658
   2     792.3       77.3027        4.6750       86.2458       90.9208      13.618095       0.06419
   1     891.5       77.4741        5.2162       84.9593       90.1755      12.701367       0.07801
   0    1013.0       77.8552        5.8590       83.3348       89.1937      11.338495       0.09463



 Wavenumbers: 16000. - 22650. cm-1, ATM      1
 LEVEL PRESSURE   UPWARD FLUX   DIFDOWN FLUX  DIRDOWN FLUX  DOWNWARD FLUX   NET FLUX    HEATING RATE
          mb          W/m2          W/m2          W/m2        W/m2          W/m2       degree/day
  51    .06700      141.5326        0.0000      156.3892      156.3892      14.856671       0.00000
  50    .07753      141.5326        0.0004      156.3887      156.3891      14.856523       0.11895
  49    .09103      141.5325        0.0009      156.3879      156.3888      14.856307       0.13491
  48    0.1069      141.5325        0.0015      156.3871      156.3885      14.856018       0.15384
  47    0.1255      141.5325        0.0021      156.3861      156.3882      14.855631       0.17536
  46    0.1487      141.5326        0.0030      156.3847      156.3877      14.855061       0.20780
  45    0.1794      141.5327        0.0041      156.3828      156.3869      14.854170       0.24467
  44    0.2165      141.5330        0.0054      156.3805      156.3859      14.852961       0.27498
  43    0.2613      141.5333        0.0070      156.3776      156.3846      14.851321       0.30914
  42    0.3336      141.5341        0.0097      156.3726      156.3823      14.848203       0.36355
  41    0.4307      141.5354        0.0132      156.3657      156.3789      14.843503       0.40867
  40    0.5894      141.5380        0.0189      156.3537      156.3725      14.834539       0.47669
  39     1.339      141.5610        0.0459      156.2834      156.3293      14.768312       0.74559
  38     1.782      141.5822        0.0617      156.2324      156.2941      14.711895       1.07410
  37     2.292      141.6139        0.0801      156.1641      156.2442      14.630230       1.35258
  36     2.964      141.6667        0.1042      156.0605      156.1646      14.497931       1.66075
  35     3.853      141.7520        0.1359      155.9041      156.0400      14.288003       1.99225
  34     5.035      141.8807        0.1781      155.6774      155.8555      13.974804       2.23737
  33     6.613      142.0605        0.2345      155.3656      155.6001      13.539540       2.32692
  32     8.786      142.2947        0.3102      154.9577      155.2679      12.973151       2.19965
  31     11.80      142.5996        0.4185      154.4153      154.8337      12.234137       2.06901
  30     15.07      142.8917        0.5345      153.8804      154.4149      11.523205       1.83549
  29     18.79      143.1900        0.6654      153.3191      153.9845      10.794541       1.65211
  28     23.16      143.5018        0.8181      152.7126      153.5307      10.028875       1.48055
  27     28.12      143.8156        0.9924      152.0755      153.0679       9.252333       1.32007
  26     33.73      144.1053        1.1873      151.4409      152.6282       8.522900       1.09672
  25     40.54      144.3843        1.4226      150.7637      152.1863       7.801931       0.89444
  24     48.69      144.6516        1.7059      150.0339      151.7397       7.088133       0.73867
  23     57.69      144.8784        2.0167      149.3151      151.3319       6.453472       0.59490
  22     68.43      145.0765        2.3866      148.5476      150.9342       5.857671       0.46838
  21     81.20      145.2138        2.8269      147.7517      150.5786       5.364787       0.32569
  20     96.49      145.2858        3.3511      146.9127      150.2637       4.977985       0.21349
  19     114.6      145.3236        3.9717      145.9763      149.9480       4.624420       0.16509
  18     136.5      145.3367        4.7045      144.9088      149.6133       4.276601       0.13374
  17     162.9      145.3234        5.5730      143.6786      149.2516       3.928198       0.11136
  16     196.4      145.2440        6.6937      142.1652      148.8589       3.614915       0.07886
  15     218.7      145.1690        7.4260      141.2036      148.6297       3.460735       0.05854
  14     243.0      145.0768        8.2187      140.1760      148.3947       3.317864       0.04955
  13     269.0      144.9659        9.0738      139.0812      148.1550       3.189059       0.04178
  12     297.5      144.8354        9.9933      137.9172      147.9106       3.075199       0.03377
  11     328.5      144.6892       10.9817      136.6733      147.6550       2.965798       0.02975
  10     361.9      144.5270       12.0397      135.3488      147.3885       2.861473       0.02640
   9     398.1      144.3480       13.1714      133.9387      147.1101       2.762128       0.02315
   8     437.6      144.1526       14.3788      132.4397      146.8185       2.665853       0.02058
   7     480.5      143.9401       15.6640      130.8497      146.5137       2.573616       0.01811
   6     533.0      143.6758       17.2336      128.9138      146.1474       2.471624       0.01641
   5     589.8      143.3901       18.9105      126.8498      145.7603       2.370242       0.01505
   4     651.6      143.0843       20.6960      124.6543      145.3503       2.266041       0.01425
   3     718.7      142.7593       22.5920      122.3237      144.9157       2.156465       0.01377
   2     792.3      142.4180       24.5970      119.8568      144.4538       2.035808       0.01384
   1     891.5      141.9738       27.2610      116.5696      143.8306       1.856808       0.01523
   0    1013.0      141.4673       30.3959      112.6856      143.0816       1.614302       0.01684



 Wavenumbers: 22650. - 29000. cm-1, ATM      1
 LEVEL PRESSURE   UPWARD FLUX   DIFDOWN FLUX  DIRDOWN FLUX  DOWNWARD FLUX   NET FLUX    HEATING RATE
          mb          W/m2          W/m2          W/m2        W/m2          W/m2       degree/day
  51    .06700       58.3821        0.0000       59.0156       59.0156       0.633508       0.00000
  50    .07753       58.3820        0.0005       59.0151       59.0155       0.633508       0.00000
  49    .09103       58.3819        0.0010       59.0144       59.0154       0.633508       0.00000
  48    0.1069       58.3818        0.0017       59.0136       59.0153       0.633508       0.00000
  47    0.1255       58.3816        0.0025       59.0127       59.0151       0.633508       0.00000
  46    0.1487       58.3814        0.0034       59.0115       59.0149       0.633508       0.00000
  45    0.1794       58.3812        0.0048       59.0099       59.0147       0.633508       0.00000
  44    0.2165       58.3809        0.0063       59.0080       59.0144       0.633508       0.00000
  43    0.2613       58.3805        0.0082       59.0058       59.0140       0.633508       0.00000
  42    0.3336       58.3799        0.0113       59.0022       59.0134       0.633508       0.00000
  41    0.4307       58.3791        0.0153       58.9973       59.0126       0.633508      -0.00000
  40    0.5894       58.3778        0.0220       58.9894       59.0113       0.633508       0.00000
  39     1.339       58.3717        0.0534       58.9518       59.0052       0.633508      -0.00000
  38     1.782       58.3681        0.0719       58.9297       59.0016       0.633508       0.00000
  37     2.292       58.3639        0.0933       58.9042       58.9974       0.633508       0.00000
  36     2.964       58.3584        0.1213       58.8706       58.9920       0.633508      -0.00000
  35     3.853       58.3512        0.1584       58.8264       58.9847       0.633508       0.00000
  34     5.035       58.3416        0.2076       58.7676       58.9751       0.633508       0.00000
  33     6.613       58.3288        0.2732       58.6891       58.9623       0.633508       0.00000
  32     8.786       58.3116        0.3617       58.5834       58.9451       0.633508      -0.00000
  31     11.80       58.2869        0.4880       58.4325       58.9205       0.633508       0.00000
  30     15.07       58.2605        0.6234       58.2706       58.8940       0.633508       0.00000
  29     18.79       58.2308        0.7760       58.0882       58.8643       0.633508      -0.00000
  28     23.16       58.1961        0.9539       57.8757       58.8296       0.633508      -0.00000
  27     28.12       58.1565        1.1567       57.6333       58.7900       0.633508       0.00000
  26     33.73       58.1124        1.3828       57.3631       58.7459       0.633508       0.00000
  25     40.54       58.0593        1.6549       57.0379       58.6928       0.633508       0.00000
  24     48.69       57.9956        1.9812       56.6479       58.6291       0.633508       0.00000
  23     57.69       57.9260        2.3375       56.2221       58.5596       0.633508      -0.00000
  22     68.43       57.8438        2.7587       55.7186       58.4773       0.633508      -0.00000
  21     81.20       57.7466        3.2562       55.1239       58.3801       0.633508       0.00000
  20     96.49       57.6320        3.8427       54.4228       58.2655       0.633508       0.00000
  19     114.6       57.4976        4.5301       53.6010       58.1311       0.633508       0.00000
  18     136.5       57.3407        5.3324       52.6418       57.9742       0.633508      -0.00000
  17     162.9       57.1571        6.2703       51.5204       57.7906       0.633508       0.00000
  16     196.4       56.9244        7.4584       50.0995       57.5579       0.633508      -0.00000
  15     218.7       56.7747        8.2219       49.1863       57.4082       0.633508       0.00000
  14     243.0       56.6148        9.0369       48.2114       57.2483       0.633508       0.00000
  13     269.0       56.4447        9.9031       47.1752       57.0782       0.633508      -0.00000
  12     297.5       56.2647       10.8195       46.0787       56.8982       0.633508       0.00000
  11     328.5       56.0743       11.7875       44.9203       56.7078       0.633508       0.00000
  10     361.9       55.8741       12.8044       43.7031       56.5076       0.633508      -0.00000
   9     398.1       55.6639       13.8704       42.4270       56.2975       0.633508      -0.00000
   8     437.6       55.4443       14.9832       41.0946       56.0778       0.633508       0.00000
   7     480.5       55.2157       16.1403       39.7089       55.8492       0.633508       0.00000
   6     533.0       54.9434       17.5152       38.0617       55.5770       0.633508       0.00000
   5     589.8       54.6610       18.9390       36.3555       55.2945       0.633508       0.00000
   4     651.6       54.3695       20.4052       34.5978       55.0030       0.633508      -0.00000
   3     718.7       54.0699       21.9080       32.7954       54.7034       0.633508      -0.00000
   2     792.3       53.7641       23.4373       30.9603       54.3976       0.633508       0.00000
   1     891.5       53.3752       25.3744       28.6343       54.0087       0.633508       0.00000
   0    1013.0       52.9409       27.5263       26.0481       53.5744       0.633508      -0.00000



 Wavenumbers: 29000. - 38000. cm-1, ATM      1
 LEVEL PRESSURE   UPWARD FLUX   DIFDOWN FLUX  DIRDOWN FLUX  DOWNWARD FLUX   NET FLUX    HEATING RATE
          mb          W/m2          W/m2          W/m2        W/m2          W/m2       degree/day
  51    .06700        8.7365        0.0000       20.8114       20.8114      12.074865       0.00000
  50    .07753        8.7363        0.0003       20.8070       20.8074      12.071058       3.05152
  49    .09103        8.7361        0.0007       20.8009       20.8016      12.065521       3.46081
  48    0.1069        8.7358        0.0012       20.7928       20.7939      12.058111       3.94425
  47    0.1255        8.7355        0.0017       20.7820       20.7837      12.048206       4.49029
  46    0.1487        8.7352        0.0024       20.7665       20.7688      12.033643       5.30838
  45    0.1794        8.7347        0.0033       20.7424       20.7457      12.010979       6.22197
  44    0.2165        8.7342        0.0044       20.7103       20.7147      11.980456       6.94332
  43    0.2613        8.7336        0.0056       20.6675       20.6731      11.939462       7.72723
  42    0.3336        8.7327        0.0077       20.5880       20.5956      11.862902       8.92613
  41    0.4307        8.7317        0.0104       20.4722       20.4826      11.750951       9.73389
  40    0.5894        8.7301        0.0147       20.2637       20.2784      11.548270      10.77831
  39     1.339        8.7267        0.0331       19.0984       19.1315      10.404816      12.87322
  38     1.782        8.7271        0.0427       18.4394       18.4820       9.754910      12.37315
  37     2.292        8.7298        0.0530       17.7714       17.8244       9.094592      10.93659
  36     2.964        8.7363        0.0656       17.0421       17.1078       8.371511       9.07685
  35     3.853        8.7490        0.0816       16.2679       16.3494       7.600399       7.31800
  34     5.035        8.7700        0.1017       15.4803       15.5820       6.812004       5.63197
  33     6.613        8.8006        0.1275       14.7157       14.8432       6.042559       4.11346
  32     8.786        8.8410        0.1612       13.9936       14.1548       5.313790       2.83027
  31     11.80        8.8937        0.2082       13.2835       13.4918       4.598065       2.00380
  30     15.07        8.9445        0.2570       12.7394       12.9963       4.051824       1.41029
  29     18.79        8.9970        0.3110       12.2666       12.5776       3.580620       1.06836
  28     23.16        9.0528        0.3725       11.8300       12.2025       3.149741       0.83318
  27     28.12        9.1099        0.4413       11.4279       11.8692       2.759319       0.66369
  26     33.73        9.1625        0.5172       11.0695       11.5866       2.424075       0.50405
  25     40.54        9.2125        0.6078       10.7209       11.3287       2.116174       0.38199
  24     48.69        9.2596        0.7153       10.3742       11.0895       1.829890       0.29626
  23     57.69        9.2982        0.8317       10.0549       10.8866       1.588380       0.22638
  22     68.43        9.3294        0.9682        9.7327       10.7009       1.371584       0.17043
  21     81.20        9.3441        1.1294        9.4134       10.5428       1.198724       0.11422
  20     96.49        9.3405        1.3189        9.0887       10.4076       1.067148       0.07262
  19     114.6        9.3265        1.5378        8.7388       10.2766       0.950037       0.05468
  18     136.5        9.3053        1.7881        8.3549       10.1430       0.837675       0.04321
  17     162.9        9.2768        2.0733        7.9311       10.0045       0.727669       0.03516
  16     196.4        9.2291        2.4267        7.4333        9.8600       0.630854       0.02437
  15     218.7        9.1948        2.6489        7.1296        9.7785       0.583639       0.01793
  14     243.0        9.1572        2.8812        6.8161        9.6973       0.540045       0.01512
  13     269.0        9.1162        3.1227        6.4944        9.6171       0.500903       0.01270
  12     297.5        9.0717        3.3723        6.1659        9.5381       0.466401       0.01023
  11     328.5        9.0253        3.6290        5.8296        9.4587       0.433371       0.00898
  10     361.9        8.9774        3.8904        5.4889        9.3793       0.401960       0.00795
   9     398.1        8.9280        4.1559        5.1443        9.3002       0.372195       0.00693
   8     437.6        8.8778        4.4240        4.7973        9.2213       0.343508       0.00613
   7     480.5        8.8271        4.6926        4.4507        9.1434       0.316276       0.00535
   6     533.0        8.7689        4.9984        4.0571        9.0555       0.286601       0.00477
   5     589.8        8.7116        5.2992        3.6703        8.9695       0.257872       0.00426
   4     651.6        8.6559        5.5928        3.2928        8.8856       0.229765       0.00384
   3     718.7        8.6024        5.8762        2.9284        8.8046       0.202238       0.00346
   2     792.3        8.5520        6.1460        2.5813        8.7273       0.175300       0.00309
   1     891.5        8.4939        6.4626        2.1734        8.6360       0.142045       0.00283
   0    1013.0        8.4382        6.7797        1.7638        8.5435       0.105328       0.00255



 Wavenumbers: 38000. - 50000. cm-1, ATM      1
 LEVEL PRESSURE   UPWARD FLUX   DIFDOWN FLUX  DIRDOWN FLUX  DOWNWARD FLUX   NET FLUX    HEATING RATE
          mb          W/m2          W/m2          W/m2        W/m2          W/m2       degree/day
  51    .06700        0.0061        0.0000        1.2836        1.2836       1.277518       0.00000
  50    .07753        0.0061        0.0001        1.2812        1.2812       1.275183       1.87150
  49    .09103        0.0060        0.0002        1.2777        1.2778       1.271851       2.08247
  48    0.1069        0.0059        0.0002        1.2731        1.2734       1.267473       2.33059
  47    0.1255        0.0058        0.0004        1.2672        1.2675       1.261717       2.60908
  46    0.1487        0.0057        0.0005        1.2586        1.2591       1.253391       3.03499
  45    0.1794        0.0055        0.0007        1.2455        1.2462       1.240623       3.50520
  44    0.2165        0.0054        0.0009        1.2282        1.2291       1.223697       3.85037
  43    0.2613        0.0052        0.0011        1.2054        1.2065       1.201348       4.21261
  42    0.3336        0.0049        0.0015        1.1639        1.1654       1.160524       4.75970
  41    0.4307        0.0045        0.0020        1.1051        1.1070       1.102565       5.03943
  40    0.5894        0.0039        0.0026        1.0039        1.0064       1.002524       5.32007
  39     1.339        0.0022        0.0035        0.5438        0.5473       0.545105       5.14971
  38     1.782        0.0016        0.0032        0.3635        0.3666       0.365006       3.42879
  37     2.292        0.0012        0.0027        0.2356        0.2383       0.237058       2.11916
  36     2.964        0.0009        0.0022        0.1455        0.1477       0.146786       1.13318
  35     3.853        0.0006        0.0017        0.0858        0.0875       0.086906       0.56828
  34     5.035        0.0004        0.0013        0.0488        0.0501       0.049701       0.26578
  33     6.613        0.0003        0.0010        0.0273        0.0282       0.027974       0.11615
  32     8.786        0.0002        0.0007        0.0144        0.0151       0.014928       0.05067
  31     11.80        0.0001        0.0004        0.0065        0.0070       0.006903       0.02247
  30     15.07        0.0000        0.0003        0.0031        0.0034       0.003329       0.00923
  29     18.79        0.0000        0.0002        0.0014        0.0016       0.001583       0.00396
  28     23.16        0.0000        0.0001        0.0006        0.0007       0.000720       0.00167
  27     28.12        0.0000        0.0001        0.0003        0.0003       0.000317       0.00069
  26     33.73        0.0000        0.0000        0.0001        0.0001       0.000140       0.00027
  25     40.54        0.0000        0.0000        0.0000        0.0001       0.000057       0.00010
  24     48.69        0.0000        0.0000        0.0000        0.0000       0.000021       0.00004
  23     57.69        0.0000        0.0000        0.0000        0.0000       0.000008       0.00001
  22     68.43        0.0000        0.0000        0.0000        0.0000       0.000003       0.00000
  21     81.20        0.0000        0.0000        0.0000        0.0000       0.000001       0.00000
  20     96.49        0.0000        0.0000        0.0000        0.0000       0.000000       0.00000
  19     114.6        0.0000        0.0000        0.0000        0.0000       0.000000       0.00000
  18     136.5        0.0000        0.0000        0.0000        0.0000       0.000000       0.00000
  17     162.9        0.0000        0.0000        0.0000        0.0000       0.000000       0.00000
  16     196.4        0.0000        0.0000        0.0000        0.0000       0.000000       0.00000
  15     218.7        0.0000        0.0000        0.0000        0.0000       0.000000       0.00000
  14     243.0        0.0000        0.0000        0.0000        0.0000       0.000000       0.00000
  13     269.0        0.0000        0.0000        0.0000        0.0000       0.000000       0.00000
  12     297.5        0.0000        0.0000        0.0000        0.0000       0.000000       0.00000
  11     328.5        0.0000        0.0000        0.0000        0.0000       0.000000       0.00000
  10     361.9        0.0000        0.0000        0.0000        0.0000       0.000000       0.00000
   9     398.1        0.0000        0.0000        0.0000        0.0000       0.000000       0.00000
   8     437.6        0.0000        0.0000        0.0000        0.0000       0.000000       0.00000
   7     480.5        0.0000        0.0000        0.0000        0.0000       0.000000       0.00000
   6     533.0        0.0000        0.0000        0.0000        0.0000       0.000000       0.00000
   5     589.8        0.0000        0.0000        0.0000        0.0000       0.000000       0.00000
   4     651.6        0.0000        0.0000        0.0000        0.0000       0.000000       0.00000
   3     718.7        0.0000        0.0000        0.0000        0.0000       0.000000       0.00000
   2     792.3        0.0000        0.0000        0.0000        0.0000       0.000000       0.00000
   1     891.5        0.0000        0.0000        0.0000        0.0000       0.000000       0.00000
   0    1013.0        0.0000        0.0000        0.0000        0.0000       0.000000       0.00000



 Wavenumbers:   820. -  2600. cm-1, ATM      1
 LEVEL PRESSURE   UPWARD FLUX   DIFDOWN FLUX  DIRDOWN FLUX  DOWNWARD FLUX   NET FLUX    HEATING RATE
          mb          W/m2          W/m2          W/m2        W/m2          W/m2       degree/day
  51    .06700        1.7416        0.0000        6.0047        6.0047       4.263065       0.00000
  50    .07753        1.7416        0.0000        6.0009        6.0009       4.259274       3.03798
  49    .09103        1.7416        0.0000        6.0001        6.0001       4.258470       0.50253
  48    0.1069        1.7416        0.0000        5.9992        5.9992       4.257579       0.47462
  47    0.1255        1.7416        0.0000        5.9982        5.9982       4.256578       0.45375
  46    0.1487        1.7416        0.0000        5.9970        5.9970       4.255373       0.43895
  45    0.1794        1.7416        0.0000        5.9955        5.9955       4.253870       0.41276
  44    0.2165        1.7416        0.0000        5.9939        5.9939       4.252292       0.35893
  43    0.2613        1.7416        0.0000        5.9922        5.9922       4.250657       0.30821
  42    0.3336        1.7416        0.0000        5.9899        5.9899       4.248332       0.27102
  41    0.4307        1.7416        0.0000        5.9872        5.9872       4.245615       0.23630
  40    0.5894        1.7416        0.0000        5.9830        5.9830       4.241366       0.22596
  39     1.339        1.7416        0.0000        5.9634        5.9634       4.221823       0.22002
  38     1.782        1.7416        0.0000        5.9526        5.9526       4.211019       0.20569
  37     2.292        1.7416        0.0000        5.9405        5.9405       4.198917       0.20044
  36     2.964        1.7416        0.0000        5.9251        5.9251       4.183528       0.19318
  35     3.853        1.7416        0.0000        5.9056        5.9056       4.163988       0.18544
  34     5.035        1.7416        0.0000        5.8808        5.8808       4.139238       0.17680
  33     6.613        1.7416        0.0000        5.8488        5.8488       4.107224       0.17114
  32     8.786        1.7416        0.0000        5.8065        5.8065       4.064839       0.16461
  31     11.80        1.7416        0.0000        5.7506        5.7506       4.008941       0.15650
  30     15.07        1.7416        0.0000        5.7013        5.7013       3.959704       0.12712
  29     18.79        1.7417        0.0000        5.6605        5.6606       3.918893       0.09253
  28     23.16        1.7417        0.0000        5.6291        5.6291       3.887391       0.06092
  27     28.12        1.7417        0.0000        5.6060        5.6060       3.864295       0.03926
  26     33.73        1.7417        0.0000        5.5875        5.5875       3.845759       0.02787
  25     40.54        1.7418        0.0000        5.5683        5.5683       3.826494       0.02390
  24     48.69        1.7418        0.0000        5.5457        5.5457       3.803896       0.02339
  23     57.69        1.7419        0.0000        5.5207        5.5207       3.778748       0.02357
  22     68.43        1.7420        0.0000        5.4904        5.4904       3.748386       0.02387
  21     81.20        1.7421        0.0000        5.4548        5.4548       3.712666       0.02360
  20     96.49        1.7423        0.0000        5.4130        5.4130       3.670774       0.02312
  19     114.6        1.7425        0.0000        5.3651        5.3652       3.622708       0.02244
  18     136.5        1.7427        0.0000        5.3117        5.3117       3.569031       0.02064
  17     162.9        1.7430        0.0000        5.2511        5.2511       3.508123       0.01947
  16     196.4        1.7434        0.0000        5.1741        5.1741       3.430766       0.01947
  15     218.7        1.7437        0.0000        5.1193        5.1193       3.375572       0.02096
  14     243.0        1.7442        0.0000        5.0490        5.0490       3.304831       0.02454
  13     269.0        1.7448        0.0000        4.9576        4.9576       3.212881       0.02983
  12     297.5        1.7456        0.0000        4.8408        4.8409       3.095262       0.03488
  11     328.5        1.7467        0.0000        4.7181        4.7182       2.971527       0.03364
  10     361.9        1.7480        0.0000        4.5967        4.5967       2.848755       0.03106
   9     398.1        1.7496        0.0000        4.4751        4.4751       2.725452       0.02873
   8     437.6        1.7517        0.0001        4.3394        4.3394       2.587700       0.02945
   7     480.5        1.7543        0.0001        4.1780        4.1780       2.423721       0.03220
   6     533.0        1.7580        0.0001        3.9561        3.9561       2.198103       0.03629
   5     589.8        1.7633        0.0001        3.7064        3.7065       1.943108       0.03785
   4     651.6        1.7717        0.0001        3.4576        3.4577       1.685941       0.03517
   3     718.7        1.7849        0.0001        3.2731        3.2732       1.488308       0.02484
   2     792.3        1.8065        0.0001        3.1397        3.1398       1.333362       0.01777
   1     891.5        1.8545        0.0001        2.9665        2.9666       1.112076       0.01883
   0    1013.0        1.9636        0.0001        2.7343        2.7344       0.770820       0.02370

  Modules and versions used in this calculation:

       rrtmg_sw.1col.f90:  $Revision$                    rrtmg_sw_init.f90:  $Revision$        
     rrtmgsw_cldprop.f90:  $Revision$                  rrtmgsw_cldprmc.f90:  NOT USED          
     rrtmg_sw_reftra.f90:  $Revision$                  rrtmg_sw_spcvrt.f90:  NOT USED          
     rrtmg_sw_spcvmc.f90:  NOT USED                    rrtmgsw_setcoef.f90:  NOT USED          
     rrtmg_sw_taumol.f90:  $Revision$                  rrtmg_sw_vrtqdr.f90:  NOT USED          
                rrtatm.f:  NOT USED                             util_xxx.f:  NOT USED          
                 extra.f:  NOT USED                       rrtmg_sw_k_g.f90:  $Revision$        

