

 Wavenumbers:   820. - 50000. cm-1, ATM      1
 LEVEL PRESSURE   UPWARD FLUX   DIFDOWN FLUX  DIRDOWN FLUX  DOWNWARD FLUX   NET FLUX    HEATING RATE
          mb          W/m2          W/m2          W/m2        W/m2          W/m2       degree/day
  51    .06700      416.0254        0.0000      617.8126      617.8126     201.787226       0.00000
  50    .07753      416.0250        0.0014      617.7950      617.7963     201.771326      12.74474
  49    .09103      416.0246        0.0031      617.7783      617.7814     201.756804       9.07634
  48    0.1069      416.0241        0.0050      617.7589      617.7639     201.739864       9.01743
  47    0.1255      416.0236        0.0072      617.7352      617.7425     201.718877       9.51450
  46    0.1487      416.0230        0.0101      617.7026      617.7126     201.689633      10.65963
  45    0.1794      416.0223        0.0139      617.6544      617.6683     201.645985      11.98239
  44    0.2165      416.0216        0.0185      617.5925      617.6110     201.589344      12.88489
  43    0.2613      416.0210        0.0239      617.5127      617.5366     201.515638      13.89320
  42    0.3336      416.0202        0.0327      617.3693      617.4021     201.381906      15.59190
  41    0.4307      416.0196        0.0444      617.1663      617.2107     201.191092      16.59079
  40    0.5894      416.0196        0.0632      616.8107      616.8740     200.854363      17.90686
  39     1.339      416.0384        0.1484      614.9679      615.1163     199.077910      19.99963
  38     1.782      416.0625        0.1963      613.9976      614.1939     198.131472      18.01864
  37     2.292      416.1020        0.2508      613.0439      613.2947     197.192703      15.54847
  36     2.964      416.1717        0.3217      612.0047      612.3264     196.154702      13.03006
  35     3.853      416.2885        0.4147      610.8605      611.2752     194.986687      11.08468
  34     5.035      416.4680        0.5373      609.6046      610.1419     193.673947       9.37767
  33     6.613      416.7207        0.7002      608.2349      608.9351     192.214420       7.80264
  32     8.786      417.0499        0.9186      606.7330      607.6516     190.601782       6.26290
  31     11.80      417.4763        1.2296      604.9796      606.2093     188.732996       5.23201
  30     15.07      417.8824        1.5616      603.3955      604.9571     187.074726       4.28133
  29     18.79      418.2948        1.9350      601.8233      603.7583     185.463519       3.65310
  28     23.16      418.7233        2.3690      600.1874      602.5563     183.833074       3.15275
  27     28.12      419.1508        2.8629      598.5071      601.3700     182.219207       2.74346
  26     33.73      419.5380        3.4136      596.8389      600.2525     180.714541       2.26231
  25     40.54      419.8994        4.0766      595.0433      599.1199     179.220502       1.85353
  24     48.69      420.2322        4.8723      593.0854      597.9576     177.725474       1.54712
  23     57.69      420.4977        5.7420      591.1231      596.8651     176.367344       1.27304
  22     68.43      420.7057        6.7725      588.9776      595.7500     175.044380       1.04003
  21     81.20      420.8028        7.9942      586.6617      594.6559     173.853179       0.78713
  20     96.49      420.7788        9.4408      584.1260      593.5669     172.788058       0.58787
  19     114.6      420.6918       11.1428      581.2538      592.3965     171.704743       0.50583
  18     136.5      420.5429       13.1358      577.9794      591.1152     170.572278       0.43546
  17     162.9      420.3264       15.4749      574.2058      589.6807     169.354243       0.38933
  16     196.4      419.9554       18.4583      569.4695      587.9277     167.972323       0.34785
  15     218.7      419.6814       20.3874      566.2776      586.6650     166.983591       0.37538
  14     243.0      419.3728       22.4569      562.5940      585.0508     165.678058       0.45280
  13     269.0      419.0282       24.6683      558.3525      583.0208     163.992587       0.54676
  12     297.5      418.6487       27.0224      553.4227      580.4452     161.796504       0.65133
  11     328.5      418.2419       29.5256      547.9280      577.4536     159.211682       0.70281
  10     361.9      417.8107       32.1742      541.9194      574.0935     156.282853       0.74102
   9     398.1      417.3576       34.9732      535.3803      570.3535     152.995844       0.76580
   8     437.6      416.8905       37.9217      528.2146      566.1363     149.245867       0.80177
   7     480.5      416.4156       41.0183      520.4064      561.4247     145.009043       0.83210
   6     533.0      415.8785       44.7420      510.6242      555.3662     139.487678       0.88821
   5     589.8      415.3807       48.6524      499.8342      548.4866     133.105916       0.94726
   4     651.6      414.9982       52.7403      487.6530      540.3933     125.395161       1.05447
   3     718.7      414.8247       56.9971      474.3976      531.3947     116.570064       1.10907
   2     792.3      415.0575       61.4063      460.0134      521.4197     106.362207       1.17073
   1     891.5      416.4073       67.1224      440.8749      507.9973      91.590005       1.25704
   0    1013.0      420.4176       73.6517      419.1471      492.7987      72.381138       1.33377



 Wavenumbers:  2600. -  3250. cm-1, ATM      1
 LEVEL PRESSURE   UPWARD FLUX   DIFDOWN FLUX  DIRDOWN FLUX  DOWNWARD FLUX   NET FLUX    HEATING RATE
          mb          W/m2          W/m2          W/m2        W/m2          W/m2       degree/day
  51    .06700        0.0375        0.0000        5.4450        5.4450       5.407556       0.00000
  50    .07753        0.0375        0.0000        5.4450        5.4450       5.407548       0.00640
  49    .09103        0.0375        0.0000        5.4450        5.4450       5.407538       0.00627
  48    0.1069        0.0375        0.0000        5.4450        5.4450       5.407526       0.00613
  47    0.1255        0.0375        0.0000        5.4450        5.4450       5.407513       0.00599
  46    0.1487        0.0375        0.0000        5.4450        5.4450       5.407496       0.00608
  45    0.1794        0.0375        0.0000        5.4450        5.4450       5.407474       0.00625
  44    0.2165        0.0375        0.0000        5.4449        5.4449       5.407447       0.00612
  43    0.2613        0.0375        0.0000        5.4449        5.4449       5.407415       0.00600
  42    0.3336        0.0375        0.0000        5.4448        5.4448       5.407362       0.00617
  41    0.4307        0.0375        0.0000        5.4448        5.4448       5.407291       0.00620
  40    0.5894        0.0375        0.0000        5.4446        5.4446       5.407171       0.00637
  39     1.339        0.0375        0.0000        5.4439        5.4439       5.406464       0.00797
  38     1.782        0.0375        0.0000        5.4434        5.4434       5.405921       0.01034
  37     2.292        0.0375        0.0000        5.4427        5.4427       5.405205       0.01186
  36     2.964        0.0375        0.0000        5.4416        5.4416       5.404166       0.01304
  35     3.853        0.0375        0.0000        5.4402        5.4402       5.402689       0.01402
  34     5.035        0.0375        0.0000        5.4381        5.4381       5.400633       0.01468
  33     6.613        0.0375        0.0000        5.4353        5.4353       5.397852       0.01487
  32     8.786        0.0375        0.0000        5.4317        5.4317       5.394220       0.01411
  31     11.80        0.0375        0.0000        5.4269        5.4269       5.389440       0.01338
  30     15.07        0.0375        0.0000        5.4224        5.4224       5.384914       0.01169
  29     18.79        0.0375        0.0000        5.4180        5.4180       5.380503       0.01000
  28     23.16        0.0375        0.0000        5.4135        5.4135       5.376018       0.00867
  27     28.12        0.0375        0.0000        5.4088        5.4088       5.371371       0.00790
  26     33.73        0.0375        0.0000        5.4036        5.4036       5.366132       0.00788
  25     40.54        0.0375        0.0000        5.3966        5.3967       5.359192       0.00861
  24     48.69        0.0375        0.0000        5.3872        5.3872       5.349719       0.00980
  23     57.69        0.0375        0.0000        5.3754        5.3754       5.337939       0.01104
  22     68.43        0.0375        0.0000        5.3599        5.3599       5.322457       0.01217
  21     81.20        0.0375        0.0000        5.3401        5.3401       5.302632       0.01310
  20     96.49        0.0375        0.0000        5.3155        5.3155       5.278078       0.01355
  19     114.6        0.0374        0.0000        5.2859        5.2859       5.248486       0.01382
  18     136.5        0.0374        0.0000        5.2516        5.2516       5.214185       0.01319
  17     162.9        0.0374        0.0001        5.2130        5.2131       5.175628       0.01232
  16     196.4        0.0374        0.0001        5.1678        5.1679       5.130416       0.01138
  15     218.7        0.0374        0.0001        5.1403        5.1404       5.102972       0.01042
  14     243.0        0.0374        0.0001        5.1112        5.1113       5.073836       0.01011
  13     269.0        0.0375        0.0001        5.0786        5.0787       5.041224       0.01058
  12     297.5        0.0375        0.0001        5.0408        5.0409       5.003463       0.01120
  11     328.5        0.0375        0.0001        4.9986        4.9987       4.961235       0.01148
  10     361.9        0.0375        0.0001        4.9503        4.9504       4.912899       0.01223
   9     398.1        0.0376        0.0001        4.8932        4.8933       4.855731       0.01332
   8     437.6        0.0377        0.0001        4.8225        4.8226       4.784953       0.01513
   7     480.5        0.0378        0.0002        4.7348        4.7350       4.697198       0.01723
   6     533.0        0.0379        0.0002        4.6086        4.6088       4.570853       0.02032
   5     589.8        0.0382        0.0002        4.4481        4.4483       4.410062       0.02387
   4     651.6        0.0386        0.0002        4.2418        4.2420       4.203445       0.02826
   3     718.7        0.0391        0.0002        3.9992        3.9994       3.960212       0.03057
   2     792.3        0.0401        0.0002        3.7284        3.7287       3.688590       0.03115
   1     891.5        0.0421        0.0002        3.3660        3.3662       3.324174       0.03101
   0    1013.0        0.0463        0.0002        2.9490        2.9492       2.902876       0.02925



 Wavenumbers:  3250. -  4000. cm-1, ATM      1
 LEVEL PRESSURE   UPWARD FLUX   DIFDOWN FLUX  DIRDOWN FLUX  DOWNWARD FLUX   NET FLUX    HEATING RATE
          mb          W/m2          W/m2          W/m2        W/m2          W/m2       degree/day
  51    .06700        0.0029        0.0000        9.1795        9.1795       9.176581       0.00000
  50    .07753        0.0029        0.0000        9.1748        9.1748       9.171868       3.77794
  49    .09103        0.0029        0.0000        9.1716        9.1716       9.168626       2.02657
  48    0.1069        0.0029        0.0000        9.1692        9.1692       9.166252       1.26333
  47    0.1255        0.0029        0.0000        9.1671        9.1671       9.164150       0.95323
  46    0.1487        0.0029        0.0000        9.1648        9.1648       9.161888       0.82432
  45    0.1794        0.0029        0.0000        9.1622        9.1622       9.159225       0.73114
  44    0.2165        0.0029        0.0000        9.1595        9.1595       9.156536       0.61160
  43    0.2613        0.0029        0.0000        9.1568        9.1568       9.153825       0.51113
  42    0.3336        0.0029        0.0000        9.1530        9.1530       9.150074       0.43731
  41    0.4307        0.0029        0.0000        9.1488        9.1488       9.145871       0.36541
  40    0.5894        0.0029        0.0000        9.1427        9.1427       9.139770       0.32445
  39     1.339        0.0029        0.0000        9.1189        9.1189       9.116002       0.26759
  38     1.782        0.0029        0.0000        9.1083        9.1083       9.105306       0.20362
  37     2.292        0.0029        0.0000        9.0979        9.0979       9.094982       0.17099
  36     2.964        0.0029        0.0000        9.0863        9.0863       9.083356       0.14594
  35     3.853        0.0029        0.0000        9.0726        9.0726       9.069616       0.13040
  34     5.035        0.0029        0.0000        9.0553        9.0553       9.052397       0.12300
  33     6.613        0.0029        0.0000        9.0325        9.0325       9.029571       0.12203
  32     8.786        0.0029        0.0000        9.0006        9.0006       8.997707       0.12375
  31     11.80        0.0029        0.0000        8.9529        8.9529       8.949966       0.13366
  30     15.07        0.0029        0.0000        8.8997        8.8997       8.896814       0.13723
  29     18.79        0.0029        0.0000        8.8384        8.8385       8.835529       0.13895
  28     23.16        0.0029        0.0000        8.7670        8.7671       8.764144       0.13803
  27     28.12        0.0029        0.0000        8.6881        8.6881       8.685191       0.13422
  26     33.73        0.0029        0.0000        8.6057        8.6057       8.602832       0.12383
  25     40.54        0.0029        0.0001        8.5157        8.5157       8.512823       0.11167
  24     48.69        0.0029        0.0001        8.4194        8.4194       8.416559       0.09962
  23     57.69        0.0029        0.0001        8.3240        8.3240       8.321157       0.08942
  22     68.43        0.0029        0.0001        8.2173        8.2174       8.214526       0.08383
  21     81.20        0.0028        0.0001        8.0939        8.0940       8.091135       0.08153
  20     96.49        0.0028        0.0001        7.9503        7.9504       7.947602       0.07922
  19     114.6        0.0028        0.0001        7.7850        7.7852       7.782354       0.07716
  18     136.5        0.0028        0.0002        7.6032        7.6033       7.600562       0.06990
  17     162.9        0.0027        0.0002        7.4028        7.4030       7.400281       0.06402
  16     196.4        0.0027        0.0002        7.1516        7.1518       7.149093       0.06323
  15     218.7        0.0027        0.0002        6.9505        6.9507       6.948030       0.07634
  14     243.0        0.0027        0.0003        6.6616        6.6619       6.659231       0.10017
  13     269.0        0.0026        0.0003        6.3124        6.3127       6.310047       0.11327
  12     297.5        0.0026        0.0003        5.9098        5.9101       5.907452       0.11941
  11     328.5        0.0026        0.0003        5.4937        5.4940       5.491380       0.11313
  10     361.9        0.0026        0.0003        5.0522        5.0525       5.049965       0.11168
   9     398.1        0.0026        0.0003        4.5804        4.5807       4.578140       0.10992
   8     437.6        0.0025        0.0003        4.0942        4.0945       4.091933       0.10395
   7     480.5        0.0025        0.0003        3.6261        3.6264       3.623844       0.09193
   6     533.0        0.0026        0.0003        3.1248        3.1251       3.122509       0.08065
   5     589.8        0.0026        0.0003        2.6441        2.6444       2.641809       0.07135
   4     651.6        0.0027        0.0002        2.1539        2.1541       2.151394       0.06707
   3     718.7        0.0029        0.0002        1.6848        1.6850       1.682060       0.05898
   2     792.3        0.0033        0.0002        1.2300        1.2302       1.226852       0.05221
   1     891.5        0.0046        0.0001        0.7296        0.7297       0.725195       0.04269
   0    1013.0        0.0087        0.0001        0.3345        0.3346       0.325942       0.02772



 Wavenumbers:  4000. -  4650. cm-1, ATM      1
 LEVEL PRESSURE   UPWARD FLUX   DIFDOWN FLUX  DIRDOWN FLUX  DOWNWARD FLUX   NET FLUX    HEATING RATE
          mb          W/m2          W/m2          W/m2        W/m2          W/m2       degree/day
  51    .06700        1.4008        0.0000       10.7795       10.7795       9.378754       0.00000
  50    .07753        1.4008        0.0000       10.7795       10.7795       9.378753       0.00081
  49    .09103        1.4008        0.0000       10.7795       10.7795       9.378752       0.00079
  48    0.1069        1.4008        0.0000       10.7795       10.7795       9.378750       0.00078
  47    0.1255        1.4008        0.0000       10.7795       10.7795       9.378749       0.00076
  46    0.1487        1.4008        0.0000       10.7795       10.7795       9.378747       0.00077
  45    0.1794        1.4008        0.0000       10.7795       10.7795       9.378744       0.00079
  44    0.2165        1.4008        0.0000       10.7795       10.7795       9.378740       0.00078
  43    0.2613        1.4008        0.0000       10.7795       10.7795       9.378736       0.00076
  42    0.3336        1.4008        0.0000       10.7795       10.7795       9.378730       0.00078
  41    0.4307        1.4008        0.0000       10.7795       10.7795       9.378720       0.00079
  40    0.5894        1.4008        0.0000       10.7795       10.7795       9.378705       0.00081
  39     1.339        1.4008        0.0000       10.7794       10.7794       9.378614       0.00102
  38     1.782        1.4008        0.0000       10.7793       10.7793       9.378543       0.00135
  37     2.292        1.4008        0.0000       10.7792       10.7792       9.378448       0.00158
  36     2.964        1.4008        0.0000       10.7791       10.7791       9.378305       0.00179
  35     3.853        1.4008        0.0000       10.7789       10.7789       9.378093       0.00201
  34     5.035        1.4008        0.0000       10.7785       10.7786       9.377782       0.00223
  33     6.613        1.4008        0.0000       10.7781       10.7781       9.377323       0.00245
  32     8.786        1.4008        0.0000       10.7774       10.7774       9.376645       0.00263
  31     11.80        1.4008        0.0000       10.7763       10.7763       9.375581       0.00298
  30     15.07        1.4007        0.0001       10.7750       10.7751       9.374333       0.00322
  29     18.79        1.4007        0.0001       10.7735       10.7736       9.372824       0.00342
  28     23.16        1.4007        0.0001       10.7716       10.7717       9.370950       0.00362
  27     28.12        1.4007        0.0001       10.7693       10.7694       9.368682       0.00386
  26     33.73        1.4007        0.0001       10.7665       10.7666       9.365886       0.00420
  25     40.54        1.4007        0.0002       10.7626       10.7628       9.362093       0.00471
  24     48.69        1.4007        0.0002       10.7576       10.7577       9.357040       0.00523
  23     57.69        1.4007        0.0002       10.7515       10.7518       9.351051       0.00561
  22     68.43        1.4007        0.0003       10.7440       10.7443       9.343547       0.00590
  21     81.20        1.4007        0.0003       10.7347       10.7350       9.334310       0.00610
  20     96.49        1.4008        0.0004       10.7235       10.7238       9.323076       0.00620
  19     114.6        1.4008        0.0004       10.7098       10.7102       9.309413       0.00638
  18     136.5        1.4009        0.0005       10.6934       10.6939       9.292967       0.00632
  17     162.9        1.4011        0.0006       10.6735       10.6741       9.273028       0.00637
  16     196.4        1.4013        0.0007       10.6470       10.6477       9.246440       0.00669
  15     218.7        1.4015        0.0008       10.6284       10.6292       9.227720       0.00711
  14     243.0        1.4018        0.0009       10.6063       10.6072       9.205330       0.00777
  13     269.0        1.4023        0.0010       10.5789       10.5799       9.177613       0.00899
  12     297.5        1.4029        0.0011       10.5447       10.5458       9.142837       0.01031
  11     328.5        1.4038        0.0012       10.5036       10.5048       9.101037       0.01137
  10     361.9        1.4049        0.0013       10.4550       10.4564       9.051461       0.01254
   9     398.1        1.4064        0.0015       10.3964       10.3979       8.991501       0.01397
   8     437.6        1.4083        0.0016       10.3237       10.3253       8.917049       0.01592
   7     480.5        1.4108        0.0018       10.2332       10.2350       8.824178       0.01824
   6     533.0        1.4145        0.0019       10.1038       10.1057       8.691179       0.02140
   5     589.8        1.4194        0.0021        9.9434        9.9455       8.526110       0.02450
   4     651.6        1.4261        0.0023        9.7436        9.7459       8.319862       0.02821
   3     718.7        1.4356        0.0025        9.5139        9.5164       8.080809       0.03004
   2     792.3        1.4500        0.0026        9.2410        9.2437       7.793668       0.03293
   1     891.5        1.4806        0.0028        8.8085        8.8113       7.330686       0.03940
   0    1013.0        1.5485        0.0030        8.2386        8.2416       6.693138       0.04427



 Wavenumbers:  4650. -  5150. cm-1, ATM      1
 LEVEL PRESSURE   UPWARD FLUX   DIFDOWN FLUX  DIRDOWN FLUX  DOWNWARD FLUX   NET FLUX    HEATING RATE
          mb          W/m2          W/m2          W/m2        W/m2          W/m2       degree/day
  51    .06700        0.3565        0.0000       10.2033       10.2033       9.846793       0.00000
  50    .07753        0.3565        0.0000       10.2031       10.2031       9.846561       0.18565
  49    .09103        0.3565        0.0000       10.2028       10.2028       9.846272       0.18101
  48    0.1069        0.3565        0.0000       10.2025       10.2025       9.845941       0.17614
  47    0.1255        0.3565        0.0000       10.2021       10.2021       9.845563       0.17119
  46    0.1487        0.3565        0.0000       10.2016       10.2016       9.845090       0.17228
  45    0.1794        0.3565        0.0000       10.2010       10.2010       9.844452       0.17539
  44    0.2165        0.3565        0.0000       10.2003       10.2003       9.843705       0.16977
  43    0.2613        0.3565        0.0000       10.1994       10.1994       9.842835       0.16401
  42    0.3336        0.3565        0.0000       10.1980       10.1980       9.841427       0.16415
  41    0.4307        0.3565        0.0000       10.1962       10.1962       9.839618       0.15729
  40    0.5894        0.3565        0.0000       10.1933       10.1933       9.836793       0.15025
  39     1.339        0.3565        0.0000       10.1819       10.1819       9.825392       0.12835
  38     1.782        0.3565        0.0000       10.1765       10.1765       9.819951       0.10358
  37     2.292        0.3565        0.0000       10.1711       10.1711       9.814580       0.08896
  36     2.964        0.3565        0.0000       10.1653       10.1653       9.808746       0.07323
  35     3.853        0.3565        0.0000       10.1591       10.1591       9.802620       0.05814
  34     5.035        0.3565        0.0000       10.1529       10.1529       9.796366       0.04468
  33     6.613        0.3565        0.0000       10.1465       10.1465       9.789979       0.03414
  32     8.786        0.3565        0.0000       10.1395       10.1395       9.783028       0.02699
  31     11.80        0.3565        0.0001       10.1305       10.1305       9.774048       0.02514
  30     15.07        0.3565        0.0001       10.1206       10.1207       9.764227       0.02536
  29     18.79        0.3565        0.0001       10.1086       10.1087       9.752287       0.02707
  28     23.16        0.3564        0.0001       10.0934       10.0935       9.737069       0.02943
  27     28.12        0.3564        0.0002       10.0744       10.0745       9.718083       0.03227
  26     33.73        0.3564        0.0002       10.0513       10.0515       9.695123       0.03452
  25     40.54        0.3564        0.0002       10.0216       10.0218       9.665396       0.03688
  24     48.69        0.3564        0.0003        9.9836        9.9838       9.627454       0.03926
  23     57.69        0.3564        0.0003        9.9402        9.9405       9.584183       0.04056
  22     68.43        0.3563        0.0004        9.8877        9.8881       9.531787       0.04119
  21     81.20        0.3563        0.0004        9.8257        9.8261       9.469811       0.04095
  20     96.49        0.3563        0.0005        9.7543        9.7548       9.398500       0.03936
  19     114.6        0.3563        0.0006        9.6749        9.6755       9.319196       0.03703
  18     136.5        0.3563        0.0007        9.5892        9.5899       9.233544       0.03294
  17     162.9        0.3564        0.0009        9.4979        9.4988       9.142361       0.02915
  16     196.4        0.3565        0.0010        9.3929        9.3940       9.037437       0.02641
  15     218.7        0.3566        0.0011        9.3287        9.3299       8.973240       0.02437
  14     243.0        0.3568        0.0012        9.2605        9.2618       8.904986       0.02367
  13     269.0        0.3570        0.0014        9.1864        9.1877       8.830770       0.02408
  12     297.5        0.3573        0.0015        9.1035        9.1050       8.747786       0.02461
  11     328.5        0.3576        0.0016        9.0101        9.0118       8.654137       0.02546
  10     361.9        0.3581        0.0018        8.9035        8.9053       8.547176       0.02706
   9     398.1        0.3588        0.0019        8.7810        8.7830       8.424167       0.02866
   8     437.6        0.3597        0.0021        8.6389        8.6410       8.281300       0.03055
   7     480.5        0.3609        0.0023        8.4785        8.4808       8.119912       0.03170
   6     533.0        0.3626        0.0025        8.2698        8.2723       7.909671       0.03382
   5     589.8        0.3650        0.0026        8.0310        8.0336       7.668626       0.03578
   4     651.6        0.3683        0.0028        7.7552        7.7580       7.389720       0.03814
   3     718.7        0.3730        0.0030        7.4455        7.4485       7.075483       0.03949
   2     792.3        0.3797        0.0032        7.1031        7.1063       6.726609       0.04001
   1     891.5        0.3925        0.0033        6.6423        6.6457       6.253123       0.04029
   0    1013.0        0.4165        0.0035        6.1220        6.1255       5.709063       0.03778



 Wavenumbers:  5150. -  6150. cm-1, ATM      1
 LEVEL PRESSURE   UPWARD FLUX   DIFDOWN FLUX  DIRDOWN FLUX  DOWNWARD FLUX   NET FLUX    HEATING RATE
          mb          W/m2          W/m2          W/m2        W/m2          W/m2       degree/day
  51    .06700        2.9211        0.0000       25.5798       25.5798      22.658699       0.00000
  50    .07753        2.9211        0.0000       25.5798       25.5798      22.658687       0.00936
  49    .09103        2.9211        0.0000       25.5798       25.5798      22.658672       0.00950
  48    0.1069        2.9211        0.0000       25.5798       25.5798      22.658654       0.00965
  47    0.1255        2.9211        0.0000       25.5798       25.5798      22.658632       0.00980
  46    0.1487        2.9211        0.0000       25.5797       25.5797      22.658604       0.01032
  45    0.1794        2.9211        0.0000       25.5797       25.5797      22.658564       0.01098
  44    0.2165        2.9211        0.0000       25.5796       25.5796      22.658515       0.01115
  43    0.2613        2.9211        0.0000       25.5796       25.5796      22.658455       0.01132
  42    0.3336        2.9211        0.0000       25.5795       25.5795      22.658352       0.01197
  41    0.4307        2.9211        0.0000       25.5793       25.5793      22.658213       0.01214
  40    0.5894        2.9211        0.0000       25.5791       25.5791      22.657978       0.01246
  39     1.339        2.9211        0.0000       25.5779       25.5779      22.656840       0.01282
  38     1.782        2.9211        0.0000       25.5772       25.5773      22.656169       0.01277
  37     2.292        2.9211        0.0001       25.5764       25.5765      22.655402       0.01270
  36     2.964        2.9211        0.0001       25.5754       25.5755      22.654418       0.01236
  35     3.853        2.9211        0.0001       25.5741       25.5742      22.653150       0.01203
  34     5.035        2.9210        0.0001       25.5724       25.5725      22.651491       0.01185
  33     6.613        2.9210        0.0002       25.5701       25.5703      22.649297       0.01173
  32     8.786        2.9210        0.0002       25.5671       25.5674      22.646381       0.01132
  31     11.80        2.9209        0.0003       25.5629       25.5632      22.642304       0.01141
  30     15.07        2.9209        0.0004       25.5585       25.5589      22.638054       0.01097
  29     18.79        2.9208        0.0005       25.5538       25.5543      22.633430       0.01048
  28     23.16        2.9208        0.0006       25.5484       25.5490      22.628229       0.01006
  27     28.12        2.9207        0.0008       25.5425       25.5432      22.622498       0.00974
  26     33.73        2.9207        0.0009       25.5361       25.5370      22.616375       0.00921
  25     40.54        2.9206        0.0011       25.5289       25.5299      22.609315       0.00876
  24     48.69        2.9206        0.0013       25.5206       25.5219      22.601303       0.00829
  23     57.69        2.9205        0.0015       25.5119       25.5134      22.592891       0.00788
  22     68.43        2.9205        0.0018       25.5019       25.5037      22.583273       0.00756
  21     81.20        2.9204        0.0022       25.4904       25.4926      22.572155       0.00735
  20     96.49        2.9204        0.0026       25.4769       25.4794      22.559071       0.00722
  19     114.6        2.9203        0.0031       25.4607       25.4638      22.543458       0.00729
  18     136.5        2.9203        0.0036       25.4413       25.4449      22.524591       0.00725
  17     162.9        2.9203        0.0043       25.4122       25.4165      22.496217       0.00907
  16     196.4        2.9202        0.0052       25.3503       25.3555      22.435242       0.01535
  15     218.7        2.9203        0.0058       25.2605       25.2663      22.346041       0.03387
  14     243.0        2.9203        0.0064       25.1033       25.1097      22.189353       0.05434
  13     269.0        2.9204        0.0070       24.8519       24.8588      21.938453       0.08139
  12     297.5        2.9206        0.0076       24.4487       24.4564      21.535789       0.11943
  11     328.5        2.9209        0.0083       23.9528       23.9611      21.040227       0.13474
  10     361.9        2.9213        0.0089       23.4178       23.4267      20.505421       0.13531
   9     398.1        2.9219        0.0096       22.8428       22.8524      19.930469       0.13395
   8     437.6        2.9228        0.0103       22.1714       22.1817      19.258882       0.14359
   7     480.5        2.9241        0.0109       21.3890       21.3999      18.475833       0.15379
   6     533.0        2.9263        0.0116       20.3895       20.4011      17.474782       0.16104
   5     589.8        2.9299        0.0122       19.2978       19.3100      16.380113       0.16248
   4     651.6        2.9362        0.0127       18.0786       18.0914      15.155133       0.16752
   3     718.7        2.9473        0.0132       16.8881       16.9013      13.953995       0.15095
   2     792.3        2.9670        0.0137       15.8120       15.8257      12.858675       0.12562
   1     891.5        3.0145        0.0145       14.7434       14.7579      11.743392       0.09491
   0    1013.0        3.1274        0.0155       13.8443       13.8598      10.732387       0.07020



 Wavenumbers:  6150. -  7700. cm-1, ATM      1
 LEVEL PRESSURE   UPWARD FLUX   DIFDOWN FLUX  DIRDOWN FLUX  DOWNWARD FLUX   NET FLUX    HEATING RATE
          mb          W/m2          W/m2          W/m2        W/m2          W/m2       degree/day
  51    .06700        5.0396        0.0000       47.3109       47.3109      42.271267       0.00000
  50    .07753        5.0396        0.0000       47.3108       47.3108      42.271238       0.02253
  49    .09103        5.0396        0.0000       47.3108       47.3108      42.271203       0.02243
  48    0.1069        5.0396        0.0000       47.3107       47.3107      42.271161       0.02233
  47    0.1255        5.0396        0.0000       47.3107       47.3107      42.271112       0.02223
  46    0.1487        5.0396        0.0000       47.3106       47.3106      42.271049       0.02296
  45    0.1794        5.0396        0.0000       47.3105       47.3105      42.270961       0.02402
  44    0.2165        5.0396        0.0000       47.3104       47.3104      42.270856       0.02397
  43    0.2613        5.0396        0.0000       47.3103       47.3103      42.270729       0.02393
  42    0.3336        5.0396        0.0000       47.3100       47.3101      42.270515       0.02489
  41    0.4307        5.0396        0.0000       47.3097       47.3098      42.270228       0.02495
  40    0.5894        5.0395        0.0001       47.3092       47.3093      42.269753       0.02527
  39     1.339        5.0395        0.0001       47.3068       47.3069      42.267479       0.02560
  38     1.782        5.0394        0.0002       47.3054       47.3056      42.266147       0.02536
  37     2.292        5.0394        0.0003       47.3037       47.3040      42.264622       0.02526
  36     2.964        5.0393        0.0003       47.3016       47.3020      42.262650       0.02475
  35     3.853        5.0392        0.0004       47.2989       47.2993      42.260091       0.02429
  34     5.035        5.0391        0.0006       47.2953       47.2958      42.256735       0.02398
  33     6.613        5.0390        0.0007       47.2905       47.2913      42.252300       0.02371
  32     8.786        5.0387        0.0010       47.2842       47.2852      42.246409       0.02288
  31     11.80        5.0385        0.0013       47.2753       47.2766      42.238154       0.02311
  30     15.07        5.0381        0.0017       47.2660       47.2676      42.229513       0.02231
  29     18.79        5.0378        0.0021       47.2557       47.2578      42.220036       0.02149
  28     23.16        5.0374        0.0026       47.2441       47.2467      42.209296       0.02077
  27     28.12        5.0369        0.0032       47.2311       47.2343      42.197388       0.02024
  26     33.73        5.0363        0.0038       47.2171       47.2209      42.184569       0.01927
  25     40.54        5.0357        0.0045       47.2009       47.2054      42.169725       0.01842
  24     48.69        5.0349        0.0055       47.1822       47.1876      42.152727       0.01759
  23     57.69        5.0340        0.0065       47.1624       47.1689      42.134868       0.01674
  22     68.43        5.0330        0.0077       47.1398       47.1475      42.114473       0.01603
  21     81.20        5.0318        0.0091       47.1138       47.1228      42.091075       0.01546
  20     96.49        5.0303        0.0108       47.0835       47.0943      42.064000       0.01494
  19     114.6        5.0286        0.0128       47.0482       47.0611      42.032505       0.01471
  18     136.5        5.0265        0.0152       47.0069       47.0221      41.995602       0.01419
  17     162.9        5.0240        0.0181       46.9521       46.9702      41.946134       0.01581
  16     196.4        5.0208        0.0218       46.8546       46.8764      41.855520       0.02281
  15     218.7        5.0188        0.0242       46.7292       46.7534      41.734620       0.04590
  14     243.0        5.0167        0.0268       46.5001       46.5269      41.510278       0.07781
  13     269.0        5.0144        0.0295       46.1366       46.1660      41.151600       0.11635
  12     297.5        5.0122        0.0323       45.5912       45.6235      40.611270       0.16026
  11     328.5        5.0101        0.0351       44.8661       44.9013      39.891140       0.19580
  10     361.9        5.0082        0.0380       43.9755       44.0136      39.005374       0.22411
   9     398.1        5.0066        0.0410       42.9531       42.9941      37.987489       0.23714
   8     437.6        5.0057        0.0439       41.8020       41.8459      36.840259       0.24528
   7     480.5        5.0057        0.0468       40.5089       40.5557      35.549955       0.25341
   6     533.0        5.0079        0.0500       38.7980       38.8480      33.840094       0.27506
   5     589.8        5.0139        0.0528       36.8188       36.8715      31.857650       0.29426
   4     651.6        5.0280        0.0550       34.5027       34.5577      29.529763       0.31834
   3     718.7        5.0558        0.0568       32.0470       32.1037      27.047970       0.31189
   2     792.3        5.1094        0.0581       29.5421       29.6002      24.490812       0.29328
   1     891.5        5.2467        0.0594       26.5658       26.6251      21.378481       0.26484
   0    1013.0        5.6029        0.0608       23.6804       23.7412      18.138322       0.22498



 Wavenumbers:  7700. -  8050. cm-1, ATM      1
 LEVEL PRESSURE   UPWARD FLUX   DIFDOWN FLUX  DIRDOWN FLUX  DOWNWARD FLUX   NET FLUX    HEATING RATE
          mb          W/m2          W/m2          W/m2        W/m2          W/m2       degree/day
  51    .06700        5.7544        0.0000       11.1810       11.1810       5.426562       0.00000
  50    .07753        5.7544        0.0000       11.1809       11.1809       5.426541       0.01740
  49    .09103        5.7544        0.0000       11.1809       11.1809       5.426513       0.01705
  48    0.1069        5.7544        0.0000       11.1809       11.1809       5.426482       0.01669
  47    0.1255        5.7544        0.0000       11.1809       11.1809       5.426446       0.01634
  46    0.1487        5.7544        0.0000       11.1808       11.1808       5.426401       0.01658
  45    0.1794        5.7544        0.0000       11.1808       11.1808       5.426338       0.01706
  44    0.2165        5.7545        0.0000       11.1807       11.1807       5.426265       0.01673
  43    0.2613        5.7545        0.0000       11.1806       11.1806       5.426178       0.01642
  42    0.3336        5.7545        0.0000       11.1805       11.1805       5.426034       0.01680
  41    0.4307        5.7545        0.0000       11.1803       11.1804       5.425843       0.01662
  40    0.5894        5.7546        0.0000       11.1801       11.1801       5.425531       0.01660
  39     1.339        5.7548        0.0001       11.1788       11.1789       5.424054       0.01662
  38     1.782        5.7550        0.0001       11.1781       11.1782       5.423187       0.01651
  37     2.292        5.7551        0.0001       11.1772       11.1773       5.422183       0.01663
  36     2.964        5.7554        0.0002       11.1761       11.1762       5.420864       0.01655
  35     3.853        5.7557        0.0002       11.1746       11.1748       5.419123       0.01652
  34     5.035        5.7561        0.0003       11.1726       11.1729       5.416810       0.01652
  33     6.613        5.7566        0.0004       11.1699       11.1703       5.413721       0.01652
  32     8.786        5.7573        0.0005       11.1664       11.1669       5.409559       0.01616
  31     11.80        5.7583        0.0006       11.1613       11.1619       5.403609       0.01666
  30     15.07        5.7594        0.0008       11.1558       11.1566       5.397226       0.01648
  29     18.79        5.7607        0.0010       11.1497       11.1507       5.390023       0.01633
  28     23.16        5.7621        0.0013       11.1425       11.1437       5.381621       0.01625
  27     28.12        5.7638        0.0015       11.1343       11.1358       5.372028       0.01631
  26     33.73        5.7657        0.0018       11.1251       11.1270       5.361313       0.01611
  25     40.54        5.7679        0.0022       11.1141       11.1163       5.348399       0.01602
  24     48.69        5.7707        0.0027       11.1009       11.1036       5.332874       0.01607
  23     57.69        5.7738        0.0031       11.0865       11.0896       5.315880       0.01593
  22     68.43        5.7774        0.0037       11.0694       11.0731       5.295722       0.01585
  21     81.20        5.7818        0.0044       11.0492       11.0536       5.271823       0.01579
  20     96.49        5.7871        0.0052       11.0254       11.0306       5.243509       0.01563
  19     114.6        5.7934        0.0062       10.9974       11.0036       5.210123       0.01559
  18     136.5        5.8011        0.0074       10.9646       10.9719       5.170865       0.01510
  17     162.9        5.8103        0.0087       10.9261       10.9348       5.124538       0.01481
  16     196.4        5.8224        0.0105       10.8770       10.8875       5.065107       0.01496
  15     218.7        5.8305        0.0117       10.8453       10.8569       5.026432       0.01468
  14     243.0        5.8395        0.0129       10.8112       10.8241       4.984677       0.01448
  13     269.0        5.8493        0.0143       10.7747       10.7890       4.939719       0.01458
  12     297.5        5.8601        0.0158       10.7358       10.7516       4.891411       0.01433
  11     328.5        5.8721        0.0174       10.6942       10.7116       4.839484       0.01412
  10     361.9        5.8853        0.0191       10.6500       10.6691       4.783812       0.01409
   9     398.1        5.8998        0.0209       10.6029       10.6238       4.724073       0.01392
   8     437.6        5.9158        0.0229       10.5528       10.5758       4.659954       0.01371
   7     480.5        5.9336        0.0251       10.4996       10.5247       4.591108       0.01352
   6     533.0        5.9563        0.0277       10.4345       10.4622       4.505900       0.01371
   5     589.8        5.9821        0.0305       10.3644       10.3949       4.412793       0.01382
   4     651.6        6.0118        0.0335       10.2880       10.3215       4.309772       0.01409
   3     718.7        6.0461        0.0367       10.2045       10.2412       4.195143       0.01441
   2     792.3        6.0865        0.0402       10.1119       10.1521       4.065589       0.01486
   1     891.5        6.1482        0.0448        9.9801       10.0248       3.876656       0.01608
   0    1013.0        6.2350        0.0502        9.8101        9.8603       3.625278       0.01745



 Wavenumbers:  8050. - 12850. cm-1, ATM      1
 LEVEL PRESSURE   UPWARD FLUX   DIFDOWN FLUX  DIRDOWN FLUX  DOWNWARD FLUX   NET FLUX    HEATING RATE
          mb          W/m2          W/m2          W/m2        W/m2          W/m2       degree/day
  51    .06700      108.0630        0.0000      156.5418      156.5418      48.478717       0.00000
  50    .07753      108.0630        0.0000      156.5417      156.5417      48.478717      -0.00000
  49    .09103      108.0630        0.0001      156.5417      156.5417      48.478717       0.00000
  48    0.1069      108.0630        0.0001      156.5416      156.5417      48.478717      -0.00000
  47    0.1255      108.0630        0.0002      156.5415      156.5417      48.478717       0.00000
  46    0.1487      108.0630        0.0002      156.5414      156.5417      48.478717       0.00000
  45    0.1794      108.0629        0.0003      156.5413      156.5416      48.478717       0.00000
  44    0.2165      108.0629        0.0004      156.5412      156.5416      48.478717       0.00000
  43    0.2613      108.0628        0.0006      156.5410      156.5416      48.478717       0.00000
  42    0.3336      108.0628        0.0008      156.5407      156.5415      48.478717      -0.00000
  41    0.4307      108.0627        0.0011      156.5403      156.5414      48.478717       0.00000
  40    0.5894      108.0625        0.0015      156.5397      156.5412      48.478717       0.00000
  39     1.339      108.0618        0.0038      156.5367      156.5405      48.478717       0.00000
  38     1.782      108.0613        0.0051      156.5350      156.5400      48.478717      -0.00000
  37     2.292      108.0608        0.0066      156.5330      156.5395      48.478717       0.00000
  36     2.964      108.0602        0.0085      156.5303      156.5389      48.478717      -0.00000
  35     3.853      108.0593        0.0111      156.5268      156.5380      48.478717       0.00000
  34     5.035      108.0581        0.0146      156.5222      156.5368      48.478717      -0.00000
  33     6.613      108.0565        0.0192      156.5160      156.5352      48.478717       0.00000
  32     8.786      108.0544        0.0255      156.5076      156.5331      48.478717      -0.00000
  31     11.80      108.0514        0.0345      156.4957      156.5301      48.478717       0.00000
  30     15.07      108.0481        0.0441      156.4828      156.5269      48.478717      -0.00000
  29     18.79      108.0445        0.0550      156.4682      156.5232      48.478717       0.00000
  28     23.16      108.0402        0.0677      156.4512      156.5189      48.478717       0.00000
  27     28.12      108.0352        0.0823      156.4317      156.5140      48.478717       0.00000
  26     33.73      108.0297        0.0986      156.4099      156.5084      48.478717       0.00000
  25     40.54      108.0230        0.1183      156.3834      156.5018      48.478717      -0.00000
  24     48.69      108.0150        0.1422      156.3515      156.4937      48.478717       0.00000
  23     57.69      108.0061        0.1684      156.3164      156.4848      48.478717      -0.00000
  22     68.43      107.9955        0.1997      156.2746      156.4743      48.478717       0.00000
  21     81.20      107.9829        0.2370      156.2246      156.4616      48.478717      -0.00000
  20     96.49      107.9678        0.2816      156.1649      156.4466      48.478717       0.00000
  19     114.6      107.9500        0.3346      156.0922      156.4269      48.476875       0.00086
  18     136.5      107.9288        0.3976      156.0057      156.4033      48.474584       0.00088
  17     162.9      107.9034        0.4728      155.9014      156.3742      48.470769       0.00122
  16     196.4      107.8706        0.5706      155.7609      156.3315      48.460910       0.00248
  15     218.7      107.8491        0.6350      155.6563      156.2912      48.442117       0.00714
  14     243.0      107.8262        0.7050      155.5169      156.2219      48.395770       0.01607
  13     269.0      107.8023        0.7810      155.3160      156.0971      48.294767       0.03276
  12     297.5      107.7785        0.8632      155.0243      155.8875      48.108993       0.05510
  11     328.5      107.7552        0.9520      154.6492      155.6011      47.845955       0.07152
  10     361.9      107.7338        1.0476      154.1899      155.2375      47.503694       0.08660
   9     398.1      107.7164        1.1504      153.6364      154.7869      47.070531       0.10092
   8     437.6      107.7067        1.2608      152.9636      154.2244      46.517674       0.11820
   7     480.5      107.7093        1.3787      152.1470      153.5258      45.816448       0.13772
   6     533.0      107.7367        1.5231      150.9774      152.5005      44.763875       0.16933
   5     589.8      107.8101        1.6773      149.4511      151.1284      43.318264       0.21458
   4     651.6      107.9804        1.8397      147.3457      149.1854      41.205018       0.28899
   3     718.7      108.3115        2.0089      144.6028      146.6117      38.300222       0.36505
   2     792.3      108.9396        2.1827      141.0784      143.2611      34.321495       0.45632
   1     891.5      110.4891        2.4036      135.6767      138.0803      27.591206       0.57272
   0    1013.0      114.0535        2.6527      128.9509      131.6036      17.550133       0.69720



 Wavenumbers: 12850. - 16000. cm-1, ATM      1
 LEVEL PRESSURE   UPWARD FLUX   DIFDOWN FLUX  DIRDOWN FLUX  DOWNWARD FLUX   NET FLUX    HEATING RATE
          mb          W/m2          W/m2          W/m2        W/m2          W/m2       degree/day
  51    .06700       83.4501        0.0000       98.0872       98.0872      14.637181       0.00000
  50    .07753       83.4501        0.0001       98.0864       98.0864      14.636387       0.63621
  49    .09103       83.4501        0.0002       98.0853       98.0855      14.635390       0.62337
  48    0.1069       83.4501        0.0003       98.0841       98.0843      14.634243       0.61031
  47    0.1255       83.4501        0.0004       98.0826       98.0830      14.632925       0.59759
  46    0.1487       83.4501        0.0005       98.0809       98.0814      14.631260       0.60685
  45    0.1794       83.4502        0.0007       98.0784       98.0792      14.628994       0.62222
  44    0.2165       83.4503        0.0010       98.0756       98.0766      14.626325       0.60707
  43    0.2613       83.4504        0.0013       98.0723       98.0736      14.623184       0.59219
  42    0.3336       83.4507        0.0018       98.0670       98.0688      14.618049       0.59862
  41    0.4307       83.4512        0.0024       98.0602       98.0626      14.611399       0.57818
  40    0.5894       83.4521        0.0034       98.0496       98.0530      14.600897       0.55849
  39     1.339       83.4598        0.0084       98.0043       98.0127      14.552926       0.54007
  38     1.782       83.4667        0.0112       97.9793       97.9905      14.523878       0.55303
  37     2.292       83.4768        0.0146       97.9498       97.9644      14.487529       0.60204
  36     2.964       83.4936        0.0190       97.9088       97.9278      14.434170       0.66982
  35     3.853       83.5206        0.0248       97.8503       97.8751      14.354513       0.75596
  34     5.035       83.5611        0.0325       97.7680       97.8005      14.239301       0.82303
  33     6.613       83.6177        0.0427       97.6562       97.6989      14.081182       0.84530
  32     8.786       83.6915        0.0566       97.5107       97.5672      13.875779       0.79771
  31     11.80       83.7876        0.0763       97.3179       97.3942      13.606627       0.75354
  30     15.07       83.8798        0.0975       97.1283       97.2259      13.346020       0.67284
  29     18.79       83.9743        0.1215       96.9300       97.0515      13.077212       0.60947
  28     23.16       84.0733        0.1494       96.7166       96.8660      12.792702       0.55015
  27     28.12       84.1733        0.1813       96.4935       96.6748      12.501559       0.49492
  26     33.73       84.2663        0.2171       96.2731       96.4902      12.223903       0.41746
  25     40.54       84.3567        0.2602       96.0408       96.3010      11.944301       0.34688
  24     48.69       84.4445        0.3123       95.7946       96.1069      11.662350       0.29178
  23     57.69       84.5204        0.3695       95.5573       95.9268      11.406366       0.23995
  22     68.43       84.5886        0.4377       95.3106       95.7483      11.159741       0.19388
  21     81.20       84.6392        0.5190       95.0644       95.5834      10.944171       0.14245
  20     96.49       84.6714        0.6161       94.8153       95.4314      10.760013       0.10164
  19     114.6       84.7062        0.7324       94.5411       95.2735      10.567367       0.08995
  18     136.5       84.7356        0.8702       94.2322       95.1024      10.366784       0.07713
  17     162.9       84.7600        1.0344       93.8757       94.9101      10.150105       0.06926
  16     196.4       84.7687        1.2473       93.4354       94.6827       9.913917       0.05945
  15     218.7       84.7663        1.3872       93.1527       94.5398       9.773507       0.05331
  14     243.0       84.7602        1.5391       92.8473       94.3864       9.626175       0.05110
  13     269.0       84.7502        1.7039       92.5187       94.2225       9.472361       0.04990
  12     297.5       84.7364        1.8819       92.1654       94.0472       9.310897       0.04789
  11     328.5       84.7207        2.0742       91.7843       93.8585       9.137738       0.04708
  10     361.9       84.7038        2.2813       91.3743       93.6556       8.951826       0.04704
   9     398.1       84.6862        2.5042       90.9337       93.4379       8.751711       0.04662
   8     437.6       84.6695        2.7436       90.4590       93.2026       8.533040       0.04675
   7     480.5       84.6551        3.0002       89.9479       92.9481       8.293010       0.04714
   6     533.0       84.6443        3.3161       89.3120       92.6281       7.983749       0.04975
   5     589.8       84.6459        3.6564       88.6128       92.2691       7.623262       0.05351
   4     651.6       84.6731        4.0219       87.8278       91.8497       7.176619       0.06108
   3     718.7       84.7417        4.4129       86.9422       91.3551       6.613423       0.07078
   2     792.3       84.8845        4.8285       85.9248       90.7533       5.868840       0.08540
   1     891.5       85.2393        5.3821       84.4239       89.8060       4.566721       0.11080
   0    1013.0       85.9527        6.0347       82.4992       88.5339       2.581156       0.13787



 Wavenumbers: 16000. - 22650. cm-1, ATM      1
 LEVEL PRESSURE   UPWARD FLUX   DIFDOWN FLUX  DIRDOWN FLUX  DOWNWARD FLUX   NET FLUX    HEATING RATE
          mb          W/m2          W/m2          W/m2        W/m2          W/m2       degree/day
  51    .06700      141.5200        0.0000      156.3892      156.3892      14.869285       0.00000
  50    .07753      141.5199        0.0004      156.3887      156.3891      14.869137       0.11883
  49    .09103      141.5199        0.0009      156.3879      156.3888      14.868921       0.13478
  48    0.1069      141.5199        0.0015      156.3871      156.3885      14.868632       0.15369
  47    0.1255      141.5199        0.0021      156.3861      156.3882      14.868246       0.17519
  46    0.1487      141.5200        0.0030      156.3847      156.3877      14.867676       0.20759
  45    0.1794      141.5201        0.0041      156.3828      156.3869      14.866786       0.24443
  44    0.2165      141.5204        0.0054      156.3805      156.3859      14.865578       0.27471
  43    0.2613      141.5207        0.0070      156.3776      156.3846      14.863940       0.30884
  42    0.3336      141.5215        0.0097      156.3726      156.3823      14.860825       0.36319
  41    0.4307      141.5227        0.0132      156.3657      156.3789      14.856129       0.40827
  40    0.5894      141.5254        0.0189      156.3537      156.3726      14.847174       0.47622
  39     1.339      141.5483        0.0459      156.2834      156.3293      14.781012       0.74486
  38     1.782      141.5694        0.0617      156.2324      156.2941      14.724650       1.07304
  37     2.292      141.6011        0.0801      156.1641      156.2442      14.643065       1.35126
  36     2.964      141.6538        0.1042      156.0605      156.1647      14.510896       1.65912
  35     3.853      141.7389        0.1360      155.9041      156.0401      14.301174       1.99030
  34     5.035      141.8673        0.1782      155.6774      155.8555      13.988283       2.23516
  33     6.613      142.0467        0.2345      155.3656      155.6001      13.553450       2.32462
  32     8.786      142.2803        0.3103      154.9577      155.2680      12.987623       2.19747
  31     11.80      142.5845        0.4186      154.4153      154.8338      12.249347       2.06694
  30     15.07      142.8759        0.5346      153.8804      154.4150      11.539131       1.83364
  29     18.79      143.1735        0.6656      153.3191      153.9847      10.811205       1.65043
  28     23.16      143.4845        0.8183      152.7126      153.5308      10.046322       1.47904
  27     28.12      143.7975        0.9926      152.0755      153.0681       9.270579       1.31871
  26     33.73      144.0866        1.1875      151.4409      152.6285       8.541902       1.09558
  25     40.54      144.3649        1.4229      150.7637      152.1865       7.821687       0.89351
  24     48.69      144.6315        1.7062      150.0339      151.7401       7.108641       0.73789
  23     57.69      144.8577        2.0172      149.3151      151.3323       6.474653       0.59427
  22     68.43      145.0552        2.3871      148.5476      150.9347       5.879488       0.46788
  21     81.20      145.1920        2.8275      147.7517      150.5792       5.387135       0.32534
  20     96.49      145.2637        3.3518      146.9127      150.2644       5.000751       0.21326
  19     114.6      145.3013        3.9725      145.9763      149.9488       4.647440       0.16497
  18     136.5      145.3144        4.7054      144.9088      149.6142       4.299873       0.13365
  17     162.9      145.3010        5.5742      143.6786      149.2528       3.951719       0.11128
  16     196.4      145.2216        6.6951      142.1652      148.8602       3.638647       0.07880
  15     218.7      145.1466        7.4276      141.2036      148.6312       3.484542       0.05851
  14     243.0      145.0546        8.2204      140.1759      148.3963       3.341680       0.04955
  13     269.0      144.9438        9.0757      139.0809      148.1566       3.212752       0.04182
  12     297.5      144.8136        9.9954      137.9167      147.9121       3.098542       0.03387
  11     328.5      144.6678       10.9840      136.6723      147.6564       2.988535       0.02991
  10     361.9      144.5062       12.0423      135.3471      147.3894       2.883258       0.02664
   9     398.1      144.3279       13.1743      133.9361      147.1104       2.782463       0.02348
   8     437.6      144.1337       14.3821      132.4357      146.8177       2.684009       0.02105
   7     480.5      143.9228       15.6677      130.8437      146.5114       2.588625       0.01873
   6     533.0      143.6610       17.2378      128.9045      146.1423       2.481380       0.01725
   5     589.8      143.3790       18.9153      126.8357      145.7510       2.371998       0.01624
   4     651.6      143.0792       20.7015      124.6324      145.3339       2.254635       0.01605
   3     718.7      142.7636       22.5983      122.2897      144.8880       2.124432       0.01636
   2     792.3      142.4378       24.6040      119.8038      144.4078       1.970090       0.01770
   1     891.5      142.0266       27.2684      116.4782      143.7467       1.720047       0.02128
   0    1013.0      141.5788       30.4028      112.5314      142.9342       1.355427       0.02532



 Wavenumbers: 22650. - 29000. cm-1, ATM      1
 LEVEL PRESSURE   UPWARD FLUX   DIFDOWN FLUX  DIRDOWN FLUX  DOWNWARD FLUX   NET FLUX    HEATING RATE
          mb          W/m2          W/m2          W/m2        W/m2          W/m2       degree/day
  51    .06700       58.6820        0.0000       59.0156       59.0156       0.333637       0.00000
  50    .07753       58.6819        0.0005       59.0151       59.0155       0.333637      -0.00000
  49    .09103       58.6818        0.0010       59.0144       59.0154       0.333637       0.00000
  48    0.1069       58.6816        0.0017       59.0136       59.0153       0.333637       0.00000
  47    0.1255       58.6815        0.0025       59.0127       59.0151       0.333637      -0.00000
  46    0.1487       58.6813        0.0035       59.0115       59.0149       0.333637       0.00000
  45    0.1794       58.6811        0.0048       59.0099       59.0147       0.333637       0.00000
  44    0.2165       58.6808        0.0063       59.0080       59.0144       0.333637      -0.00000
  43    0.2613       58.6804        0.0082       59.0058       59.0140       0.333637       0.00000
  42    0.3336       58.6798        0.0113       59.0022       59.0134       0.333637       0.00000
  41    0.4307       58.6790        0.0154       58.9973       59.0127       0.333637       0.00000
  40    0.5894       58.6777        0.0220       58.9894       59.0114       0.333637      -0.00000
  39     1.339       58.6717        0.0535       58.9518       59.0053       0.333637      -0.00000
  38     1.782       58.6681        0.0720       58.9297       59.0017       0.333637       0.00000
  37     2.292       58.6640        0.0934       58.9042       58.9976       0.333637       0.00000
  36     2.964       58.6586        0.1216       58.8706       58.9922       0.333637       0.00000
  35     3.853       58.6514        0.1587       58.8264       58.9851       0.333637       0.00000
  34     5.035       58.6419        0.2080       58.7676       58.9756       0.333637       0.00000
  33     6.613       58.6293        0.2738       58.6891       58.9629       0.333637       0.00000
  32     8.786       58.6122        0.3624       58.5834       58.9458       0.333637      -0.00000
  31     11.80       58.5878        0.4890       58.4324       58.9215       0.333637      -0.00000
  30     15.07       58.5617        0.6247       58.2706       58.8953       0.333637       0.00000
  29     18.79       58.5322        0.7776       58.0882       58.8659       0.333637       0.00000
  28     23.16       58.4979        0.9559       57.8757       58.8316       0.333637       0.00000
  27     28.12       58.4588        1.1591       57.6333       58.7924       0.333637       0.00000
  26     33.73       58.4151        1.3857       57.3631       58.7488       0.333637       0.00000
  25     40.54       58.3626        1.6584       57.0379       58.6963       0.333637       0.00000
  24     48.69       58.2996        1.9854       56.6479       58.6333       0.333637      -0.00000
  23     57.69       58.2309        2.3424       56.2221       58.5645       0.333637       0.00000
  22     68.43       58.1495        2.7646       55.7186       58.4832       0.333637       0.00000
  21     81.20       58.0534        3.2632       55.1239       58.3871       0.333637      -0.00000
  20     96.49       57.9401        3.8510       54.4228       58.2738       0.333637       0.00000
  19     114.6       57.8073        4.5400       53.6010       58.1410       0.333637       0.00000
  18     136.5       57.6522        5.3441       52.6418       57.9859       0.333637       0.00000
  17     162.9       57.4709        6.2842       51.5204       57.8045       0.333637       0.00000
  16     196.4       57.2410        7.4752       50.0995       57.5747       0.333637      -0.00000
  15     218.7       57.0933        8.2406       49.1863       57.4269       0.333637       0.00000
  14     243.0       56.9354        9.0577       48.2114       57.2691       0.333637      -0.00000
  13     269.0       56.7676        9.9261       47.1751       57.1013       0.333637       0.00000
  12     297.5       56.5900       10.8450       46.0786       56.9236       0.333637      -0.00000
  11     328.5       56.4023       11.8157       44.9202       56.7359       0.333637       0.00000
  10     361.9       56.2049       12.8356       43.7029       56.5385       0.333637       0.00000
   9     398.1       55.9979       13.9048       42.4267       56.3315       0.333637       0.00000
   8     437.6       55.7816       15.0211       41.0941       56.1152       0.333637      -0.00000
   7     480.5       55.5565       16.1820       39.7081       55.8901       0.333637       0.00000
   6     533.0       55.2887       17.5617       38.0607       55.6223       0.333637       0.00000
   5     589.8       55.0109       18.9915       36.3530       55.3445       0.333637       0.00000
   4     651.6       54.7244       20.4643       34.5937       55.0580       0.333637      -0.00000
   3     718.7       54.4304       21.9734       32.7906       54.7640       0.333637       0.00000
   2     792.3       54.1305       23.5100       30.9541       54.4642       0.333637      -0.00000
   1     891.5       53.7490       25.4614       28.6212       54.0826       0.333637       0.00000
   0    1013.0       53.3244       27.6263       26.0318       53.6581       0.333637      -0.00000



 Wavenumbers: 29000. - 38000. cm-1, ATM      1
 LEVEL PRESSURE   UPWARD FLUX   DIFDOWN FLUX  DIRDOWN FLUX  DOWNWARD FLUX   NET FLUX    HEATING RATE
          mb          W/m2          W/m2          W/m2        W/m2          W/m2       degree/day
  51    .06700        8.7676        0.0000       20.8114       20.8114      12.043763       0.00000
  50    .07753        8.7674        0.0003       20.8070       20.8074      12.039956       3.05155
  49    .09103        8.7672        0.0007       20.8009       20.8016      12.034418       3.46085
  48    0.1069        8.7669        0.0012       20.7928       20.7939      12.027009       3.94429
  47    0.1255        8.7666        0.0017       20.7820       20.7837      12.017104       4.49034
  46    0.1487        8.7663        0.0024       20.7665       20.7688      12.002541       5.30844
  45    0.1794        8.7658        0.0033       20.7424       20.7457      11.979876       6.22204
  44    0.2165        8.7653        0.0044       20.7103       20.7147      11.949353       6.94340
  43    0.2613        8.7647        0.0056       20.6675       20.6731      11.908358       7.72732
  42    0.3336        8.7639        0.0077       20.5880       20.5957      11.831797       8.92625
  41    0.4307        8.7628        0.0104       20.4722       20.4826      11.719845       9.73402
  40    0.5894        8.7612        0.0147       20.2637       20.2784      11.517161      10.77846
  39     1.339        8.7578        0.0331       19.0984       19.1315      10.373684      12.87347
  38     1.782        8.7583        0.0427       18.4394       18.4821       9.723760      12.37351
  37     2.292        8.7610        0.0530       17.7714       17.8244       9.063415      10.93703
  36     2.964        8.7675        0.0657       17.0421       17.1078       8.340291       9.07739
  35     3.853        8.7804        0.0816       16.2679       16.3495       7.569112       7.31863
  34     5.035        8.8015        0.1018       15.4803       15.5821       6.780619       5.63267
  33     6.613        8.8322        0.1276       14.7157       14.8433       6.011037       4.11418
  32     8.786        8.8728        0.1614       13.9936       14.1549       5.282091       2.83096
  31     11.80        8.9258        0.2084       13.2835       13.4920       4.566132       2.00446
  30     15.07        8.9770        0.2573       12.7394       12.9966       4.019662       1.41088
  29     18.79        9.0298        0.3114       12.2666       12.5780       3.548220       1.06891
  28     23.16        9.0858        0.3729       11.8300       12.2029       3.117084       0.83368
  27     28.12        9.1433        0.4418       11.4279       11.8697       2.726393       0.66415
  26     33.73        9.1963        0.5178       11.0695       11.5872       2.390888       0.50444
  25     40.54        9.2467        0.6085       10.7209       11.3294       2.082720       0.38232
  24     48.69        9.2942        0.7162       10.3742       11.0904       1.796163       0.29654
  23     57.69        9.3333        0.8328       10.0549       10.8877       1.554400       0.22662
  22     68.43        9.3649        0.9695        9.7327       10.7022       1.337359       0.17062
  21     81.20        9.3801        1.1309        9.4134       10.5443       1.164289       0.11436
  20     96.49        9.3769        1.3207        9.0887       10.4094       1.032541       0.07272
  19     114.6        9.3635        1.5400        8.7388       10.2788       0.915267       0.05476
  18     136.5        9.3429        1.7907        8.3549       10.1456       0.802738       0.04327
  17     162.9        9.3151        2.0765        7.9311       10.0076       0.692559       0.03522
  16     196.4        9.2682        2.4305        7.4333        9.8638       0.595577       0.02441
  15     218.7        9.2345        2.6532        7.1296        9.7828       0.548277       0.01796
  14     243.0        9.1975        2.8860        6.8161        9.7021       0.504599       0.01515
  13     269.0        9.1570        3.1280        6.4944        9.6224       0.465379       0.01272
  12     297.5        9.1132        3.3782        6.1658        9.5441       0.430804       0.01025
  11     328.5        9.0675        3.6356        5.8296        9.4652       0.397701       0.00900
  10     361.9        9.0204        3.8977        5.4888        9.3866       0.366217       0.00797
   9     398.1        8.9719        4.1640        5.1443        9.3082       0.336380       0.00695
   8     437.6        8.9226        4.4329        4.7973        9.2302       0.307618       0.00615
   7     480.5        8.8728        4.7024        4.4507        9.1531       0.280313       0.00536
   6     533.0        8.8158        5.0093        4.0570        9.0663       0.250552       0.00479
   5     589.8        8.7598        5.3112        3.6703        8.9815       0.221735       0.00428
   4     651.6        8.7054        5.6062        3.2928        8.8989       0.193535       0.00386
   3     718.7        8.6534        5.8910        2.9284        8.8193       0.165913       0.00347
   2     792.3        8.6045        6.1629        2.5805        8.7434       0.138874       0.00310
   1     891.5        8.5487        6.4817        2.1725        8.6542       0.105484       0.00284
   0    1013.0        8.4956        6.8018        1.7624        8.5642       0.068615       0.00256



 Wavenumbers: 38000. - 50000. cm-1, ATM      1
 LEVEL PRESSURE   UPWARD FLUX   DIFDOWN FLUX  DIRDOWN FLUX  DOWNWARD FLUX   NET FLUX    HEATING RATE
          mb          W/m2          W/m2          W/m2        W/m2          W/m2       degree/day
  51    .06700        0.0061        0.0000        1.2836        1.2836       1.277518       0.00000
  50    .07753        0.0061        0.0001        1.2812        1.2812       1.275183       1.87150
  49    .09103        0.0060        0.0002        1.2777        1.2778       1.271851       2.08247
  48    0.1069        0.0059        0.0002        1.2731        1.2734       1.267473       2.33059
  47    0.1255        0.0058        0.0004        1.2672        1.2675       1.261717       2.60908
  46    0.1487        0.0057        0.0005        1.2586        1.2591       1.253391       3.03499
  45    0.1794        0.0055        0.0007        1.2455        1.2462       1.240623       3.50520
  44    0.2165        0.0054        0.0009        1.2282        1.2291       1.223697       3.85037
  43    0.2613        0.0052        0.0011        1.2054        1.2065       1.201348       4.21261
  42    0.3336        0.0049        0.0015        1.1639        1.1654       1.160524       4.75970
  41    0.4307        0.0045        0.0020        1.1051        1.1070       1.102565       5.03943
  40    0.5894        0.0039        0.0026        1.0039        1.0064       1.002524       5.32007
  39     1.339        0.0022        0.0035        0.5438        0.5473       0.545105       5.14971
  38     1.782        0.0016        0.0032        0.3635        0.3666       0.365006       3.42879
  37     2.292        0.0012        0.0027        0.2356        0.2383       0.237058       2.11916
  36     2.964        0.0009        0.0022        0.1455        0.1477       0.146786       1.13318
  35     3.853        0.0006        0.0017        0.0858        0.0875       0.086906       0.56828
  34     5.035        0.0004        0.0013        0.0488        0.0501       0.049701       0.26578
  33     6.613        0.0003        0.0010        0.0273        0.0282       0.027974       0.11615
  32     8.786        0.0002        0.0007        0.0144        0.0151       0.014928       0.05067
  31     11.80        0.0001        0.0004        0.0065        0.0070       0.006903       0.02247
  30     15.07        0.0000        0.0003        0.0031        0.0034       0.003329       0.00923
  29     18.79        0.0000        0.0002        0.0014        0.0016       0.001583       0.00396
  28     23.16        0.0000        0.0001        0.0006        0.0007       0.000720       0.00167
  27     28.12        0.0000        0.0001        0.0003        0.0003       0.000317       0.00069
  26     33.73        0.0000        0.0000        0.0001        0.0001       0.000140       0.00027
  25     40.54        0.0000        0.0000        0.0000        0.0001       0.000057       0.00010
  24     48.69        0.0000        0.0000        0.0000        0.0000       0.000021       0.00004
  23     57.69        0.0000        0.0000        0.0000        0.0000       0.000008       0.00001
  22     68.43        0.0000        0.0000        0.0000        0.0000       0.000003       0.00000
  21     81.20        0.0000        0.0000        0.0000        0.0000       0.000001       0.00000
  20     96.49        0.0000        0.0000        0.0000        0.0000       0.000000       0.00000
  19     114.6        0.0000        0.0000        0.0000        0.0000       0.000000       0.00000
  18     136.5        0.0000        0.0000        0.0000        0.0000       0.000000       0.00000
  17     162.9        0.0000        0.0000        0.0000        0.0000       0.000000       0.00000
  16     196.4        0.0000        0.0000        0.0000        0.0000       0.000000       0.00000
  15     218.7        0.0000        0.0000        0.0000        0.0000       0.000000       0.00000
  14     243.0        0.0000        0.0000        0.0000        0.0000       0.000000       0.00000
  13     269.0        0.0000        0.0000        0.0000        0.0000       0.000000       0.00000
  12     297.5        0.0000        0.0000        0.0000        0.0000       0.000000       0.00000
  11     328.5        0.0000        0.0000        0.0000        0.0000       0.000000       0.00000
  10     361.9        0.0000        0.0000        0.0000        0.0000       0.000000       0.00000
   9     398.1        0.0000        0.0000        0.0000        0.0000       0.000000       0.00000
   8     437.6        0.0000        0.0000        0.0000        0.0000       0.000000       0.00000
   7     480.5        0.0000        0.0000        0.0000        0.0000       0.000000       0.00000
   6     533.0        0.0000        0.0000        0.0000        0.0000       0.000000       0.00000
   5     589.8        0.0000        0.0000        0.0000        0.0000       0.000000       0.00000
   4     651.6        0.0000        0.0000        0.0000        0.0000       0.000000       0.00000
   3     718.7        0.0000        0.0000        0.0000        0.0000       0.000000       0.00000
   2     792.3        0.0000        0.0000        0.0000        0.0000       0.000000       0.00000
   1     891.5        0.0000        0.0000        0.0000        0.0000       0.000000       0.00000
   0    1013.0        0.0000        0.0000        0.0000        0.0000       0.000000       0.00000



 Wavenumbers:   820. -  2600. cm-1, ATM      1
 LEVEL PRESSURE   UPWARD FLUX   DIFDOWN FLUX  DIRDOWN FLUX  DOWNWARD FLUX   NET FLUX    HEATING RATE
          mb          W/m2          W/m2          W/m2        W/m2          W/m2       degree/day
  51    .06700        0.0237        0.0000        6.0047        6.0047       5.980914       0.00000
  50    .07753        0.0237        0.0000        6.0008        6.0008       5.977113       3.04656
  49    .09103        0.0237        0.0000        6.0000        6.0000       5.976295       0.51125
  48    0.1069        0.0237        0.0000        5.9991        5.9991       5.975387       0.48349
  47    0.1255        0.0237        0.0000        5.9981        5.9981       5.974366       0.46276
  46    0.1487        0.0237        0.0000        5.9969        5.9969       5.973136       0.44845
  45    0.1794        0.0237        0.0000        5.9953        5.9953       5.971595       0.42288
  44    0.2165        0.0237        0.0000        5.9937        5.9937       5.969972       0.36922
  43    0.2613        0.0237        0.0000        5.9920        5.9920       5.968282       0.31866
  42    0.3336        0.0237        0.0000        5.9896        5.9896       5.965863       0.28207
  41    0.4307        0.0237        0.0000        5.9868        5.9868       5.963016       0.24749
  40    0.5894        0.0237        0.0000        5.9823        5.9823       5.958552       0.23742
  39     1.339        0.0237        0.0000        5.9617        5.9617       5.937985       0.23154
  38     1.782        0.0237        0.0000        5.9503        5.9503       5.926600       0.21674
  37     2.292        0.0237        0.0000        5.9376        5.9376       5.913861       0.21100
  36     2.964        0.0237        0.0000        5.9214        5.9214       5.897699       0.20289
  35     3.853        0.0237        0.0000        5.9010        5.9010       5.877245       0.19411
  34     5.035        0.0237        0.0000        5.8752        5.8752       5.851475       0.18409
  33     6.613        0.0237        0.0000        5.8421        5.8421       5.818379       0.17693
  32     8.786        0.0237        0.0000        5.7988        5.7988       5.775059       0.16824
  31     11.80        0.0237        0.0000        5.7423        5.7423       5.718532       0.15826
  30     15.07        0.0237        0.0000        5.6929        5.6929       5.669148       0.12750
  29     18.79        0.0237        0.0000        5.6520        5.6520       5.628313       0.09258
  28     23.16        0.0237        0.0000        5.6203        5.6203       5.596565       0.06139
  27     28.12        0.0237        0.0000        5.5965        5.5965       5.572763       0.04046
  26     33.73        0.0237        0.0000        5.5769        5.5769       5.553126       0.02953
  25     40.54        0.0237        0.0000        5.5562        5.5562       5.532440       0.02566
  24     48.69        0.0237        0.0000        5.5320        5.5320       5.508269       0.02501
  23     57.69        0.0237        0.0000        5.5053        5.5053       5.481593       0.02500
  22     68.43        0.0237        0.0000        5.4734        5.4734       5.449651       0.02511
  21     81.20        0.0237        0.0000        5.4360        5.4360       5.412290       0.02469
  20     96.49        0.0237        0.0000        5.3923        5.3923       5.368563       0.02413
  19     114.6        0.0237        0.0000        5.3423        5.3424       5.318621       0.02332
  18     136.5        0.0237        0.0000        5.2861        5.2861       5.262346       0.02164
  17     162.9        0.0237        0.0000        5.2210        5.2210       5.197268       0.02080
  16     196.4        0.0237        0.0000        5.1341        5.1341       5.110380       0.02187
  15     218.7        0.0237        0.0000        5.0662        5.0662       5.042456       0.02579
  14     243.0        0.0237        0.0000        4.9722        4.9722       4.948507       0.03258
  13     269.0        0.0237        0.0000        4.8480        4.8480       4.824268       0.04030
  12     297.5        0.0238        0.0000        4.6973        4.6974       4.673621       0.04468
  11     328.5        0.0238        0.0000        4.5532        4.5532       4.529476       0.03919
  10     361.9        0.0238        0.0000        4.4119        4.4119       4.388112       0.03577
   9     398.1        0.0238        0.0000        4.2533        4.2534       4.229553       0.03694
   8     437.6        0.0238        0.0000        4.0594        4.0594       4.035556       0.04148
   7     480.5        0.0239        0.0000        3.8388        3.8389       3.814983       0.04332
   6     533.0        0.0239        0.0000        3.5834        3.5834       3.559496       0.04110
   5     589.8        0.0240        0.0000        3.3638        3.3639       3.339857       0.03260
   4     651.6        0.0241        0.0000        3.1967        3.1968       3.172629       0.02287
   3     718.7        0.0243        0.0000        3.0611        3.0611       3.036765       0.01707
   2     792.3        0.0247        0.0001        2.9031        2.9032       2.878476       0.01815
   1     891.5        0.0255        0.0001        2.6666        2.6667       2.641204       0.02019
   0    1013.0        0.0273        0.0001        2.3924        2.3924       2.365164       0.01917

  Modules and versions used in this calculation:

       rrtmg_sw.1col.f90:  $Revision$                    rrtmg_sw_init.f90:  $Revision$        
     rrtmgsw_cldprop.f90:  $Revision$                  rrtmgsw_cldprmc.f90:  NOT USED          
     rrtmg_sw_reftra.f90:  $Revision$                  rrtmg_sw_spcvrt.f90:  NOT USED          
     rrtmg_sw_spcvmc.f90:  NOT USED                    rrtmgsw_setcoef.f90:  NOT USED          
     rrtmg_sw_taumol.f90:  $Revision$                  rrtmg_sw_vrtqdr.f90:  NOT USED          
                rrtatm.f:  NOT USED                             util_xxx.f:  NOT USED          
                 extra.f:  NOT USED                       rrtmg_sw_k_g.f90:  $Revision$        

