

 Wavenumbers:   820. - 50000. cm-1, ATM      1
 LEVEL PRESSURE   UPWARD FLUX   DIFDOWN FLUX  DIRDOWN FLUX  DOWNWARD FLUX   NET FLUX    HEATING RATE
          mb          W/m2          W/m2          W/m2        W/m2          W/m2       degree/day
  51    .06700      416.8439        0.0000      617.8126      617.8126     200.968732       0.00000
  50    .07753      416.8435        0.0013      617.7950      617.7963     200.952833      12.74353
  49    .09103      416.8430        0.0030      617.7783      617.7813     200.938314       9.07490
  48    0.1069      416.8425        0.0050      617.7589      617.7639     200.921377       9.01570
  47    0.1255      416.8420        0.0072      617.7352      617.7424     200.900394       9.51245
  46    0.1487      416.8414        0.0100      617.7026      617.7126     200.871157      10.65713
  45    0.1794      416.8407        0.0139      617.6544      617.6682     200.827520      11.97937
  44    0.2165      416.8400        0.0184      617.5925      617.6109     200.770894      12.88142
  43    0.2613      416.8393        0.0238      617.5127      617.5365     200.697210      13.88923
  42    0.3336      416.8384        0.0326      617.3693      617.4019     200.563518      15.58716
  41    0.4307      416.8377        0.0442      617.1663      617.2105     200.372767      16.58539
  40    0.5894      416.8375        0.0630      616.8107      616.8737     200.036157      17.90048
  39     1.339      416.8551        0.1477      614.9679      615.1157     198.260614      19.98939
  38     1.782      416.8781        0.1954      613.9976      614.1931     197.314963      18.00367
  37     2.292      416.9163        0.2497      613.0439      613.2936     196.377339      15.52950
  36     2.964      416.9838        0.3203      612.0047      612.3250     195.341201      13.00667
  35     3.853      417.0972        0.4128      610.8605      611.2733     194.176154      11.05651
  34     5.035      417.2716        0.5348      609.6046      610.1394     192.867854       9.34595
  33     6.613      417.5173        0.6969      608.2349      608.9318     191.414509       7.76959
  32     8.786      417.8374        0.9143      606.7330      607.6473     189.809928       6.23161
  31     11.80      418.2517        1.2238      604.9796      606.2034     187.951662       5.20256
  30     15.07      418.6461        1.5540      603.3955      604.9496     186.303517       4.25519
  29     18.79      419.0463        1.9256      601.8233      603.7490     184.702696       3.62956
  28     23.16      419.4616        2.3574      600.1874      602.5448     183.083162       3.13165
  27     28.12      419.8756        2.8489      598.5071      601.3559     181.480349       2.72467
  26     33.73      420.2496        3.3968      596.8389      600.2356     179.986006       2.24678
  25     40.54      420.5976        4.0564      595.0433      599.0997     178.502051       1.84101
  24     48.69      420.9164        4.8479      593.0854      597.9333     177.016836       1.53696
  23     57.69      421.1690        5.7132      591.1231      596.8362     175.667201       1.26508
  22     68.43      421.3639        6.7382      588.9776      595.7158     174.351864       1.03403
  21     81.20      421.4489        7.9535      586.6617      594.6152     173.166335       0.78338
  20     96.49      421.4137        9.3924      584.1260      593.5184     172.104761       0.58591
  19     114.6      421.3139       11.0851      581.2538      592.3388     171.024956       0.50419
  18     136.5      421.1514       13.0670      577.9794      591.0464     169.895073       0.43447
  17     162.9      420.9202       15.3930      574.2058      589.5987     168.678503       0.38887
  16     196.4      420.5334       18.3591      569.4695      587.8286     167.295212       0.34819
  15     218.7      420.2505       20.2769      566.2776      586.5545     166.303965       0.37634
  14     243.0      419.9335       22.3341      562.5940      584.9280     164.994469       0.45418
  13     269.0      419.5814       24.5320      558.3525      582.8845     163.303129       0.54866
  12     297.5      419.1957       26.8716      553.4227      580.2943     161.098631       0.65383
  11     328.5      418.7841       29.3589      547.9280      577.2869     158.502780       0.70580
  10     361.9      418.3500       31.9904      541.9194      573.9097     155.559686       0.74463
   9     398.1      417.8969       34.7708      535.3803      570.1512     152.254292       0.77008
   8     437.6      417.4335       37.6994      528.2146      565.9140     148.480486       0.80686
   7     480.5      416.9673       40.7744      520.4064      561.1808     144.213512       0.83802
   6     533.0      416.4485       44.4714      510.6242      555.0956     138.647051       0.89547
   5     589.8      415.9828       48.3528      499.8342      548.1869     132.204132       0.95634
   4     651.6      415.6577       52.4092      487.6530      540.0622     124.404526       1.06662
   3     718.7      415.5823       56.6320      474.3976      531.0296     115.447359       1.12567
   2     792.3      415.9865       61.0046      460.0134      521.0180     105.031437       1.19459
   1     891.5      417.7486       66.6712      440.8749      507.5461      89.797490       1.29634
   0    1013.0      422.8236       73.1409      419.1471      492.2879      69.464326       1.41184



 Wavenumbers:  2600. -  3250. cm-1, ATM      1
 LEVEL PRESSURE   UPWARD FLUX   DIFDOWN FLUX  DIRDOWN FLUX  DOWNWARD FLUX   NET FLUX    HEATING RATE
          mb          W/m2          W/m2          W/m2        W/m2          W/m2       degree/day
  51    .06700        1.7015        0.0000        5.4450        5.4450       3.743576       0.00000
  50    .07753        1.7015        0.0000        5.4450        5.4450       3.743568       0.00640
  49    .09103        1.7015        0.0000        5.4450        5.4450       3.743558       0.00627
  48    0.1069        1.7015        0.0000        5.4450        5.4450       3.743546       0.00613
  47    0.1255        1.7015        0.0000        5.4450        5.4450       3.743533       0.00599
  46    0.1487        1.7015        0.0000        5.4450        5.4450       3.743516       0.00608
  45    0.1794        1.7015        0.0000        5.4450        5.4450       3.743494       0.00625
  44    0.2165        1.7015        0.0000        5.4449        5.4449       3.743467       0.00612
  43    0.2613        1.7015        0.0000        5.4449        5.4449       3.743435       0.00600
  42    0.3336        1.7015        0.0000        5.4448        5.4448       3.743382       0.00617
  41    0.4307        1.7015        0.0000        5.4448        5.4448       3.743311       0.00620
  40    0.5894        1.7015        0.0000        5.4446        5.4446       3.743191       0.00637
  39     1.339        1.7015        0.0000        5.4439        5.4439       3.742483       0.00797
  38     1.782        1.7015        0.0000        5.4434        5.4434       3.741940       0.01034
  37     2.292        1.7015        0.0000        5.4427        5.4427       3.741224       0.01186
  36     2.964        1.7015        0.0000        5.4416        5.4416       3.740186       0.01304
  35     3.853        1.7015        0.0000        5.4402        5.4402       3.738708       0.01402
  34     5.035        1.7015        0.0000        5.4381        5.4381       3.736652       0.01469
  33     6.613        1.7015        0.0000        5.4353        5.4353       3.733871       0.01487
  32     8.786        1.7015        0.0000        5.4317        5.4317       3.730238       0.01411
  31     11.80        1.7015        0.0000        5.4269        5.4269       3.725456       0.01339
  30     15.07        1.7015        0.0000        5.4224        5.4224       3.720927       0.01169
  29     18.79        1.7015        0.0000        5.4180        5.4180       3.716511       0.01001
  28     23.16        1.7015        0.0000        5.4135        5.4135       3.712020       0.00868
  27     28.12        1.7015        0.0000        5.4088        5.4088       3.707365       0.00791
  26     33.73        1.7015        0.0000        5.4036        5.4036       3.702113       0.00790
  25     40.54        1.7015        0.0000        5.3966        5.3967       3.695154       0.00863
  24     48.69        1.7015        0.0000        5.3872        5.3872       3.685651       0.00983
  23     57.69        1.7016        0.0000        5.3754        5.3754       3.673830       0.01108
  22     68.43        1.7016        0.0000        5.3599        5.3599       3.658290       0.01222
  21     81.20        1.7017        0.0000        5.3401        5.3401       3.638381       0.01316
  20     96.49        1.7018        0.0000        5.3155        5.3155       3.613709       0.01362
  19     114.6        1.7020        0.0001        5.2859        5.2859       3.583962       0.01389
  18     136.5        1.7022        0.0001        5.2516        5.2516       3.549445       0.01327
  17     162.9        1.7025        0.0001        5.2130        5.2131       3.510581       0.01242
  16     196.4        1.7030        0.0001        5.1678        5.1679       3.464887       0.01150
  15     218.7        1.7034        0.0001        5.1403        5.1404       3.437046       0.01057
  14     243.0        1.7040        0.0001        5.1112        5.1113       3.407349       0.01030
  13     269.0        1.7048        0.0001        5.0786        5.0787       3.373880       0.01086
  12     297.5        1.7061        0.0001        5.0408        5.0410       3.334842       0.01158
  11     328.5        1.7079        0.0001        4.9986        4.9988       3.290909       0.01195
  10     361.9        1.7102        0.0002        4.9503        4.9505       3.240313       0.01280
   9     398.1        1.7132        0.0002        4.8932        4.8934       3.180179       0.01401
   8     437.6        1.7172        0.0002        4.8225        4.8227       3.105444       0.01598
   7     480.5        1.7226        0.0002        4.7348        4.7350       3.012465       0.01826
   6     533.0        1.7308        0.0002        4.6086        4.6088       2.878014       0.02163
   5     589.8        1.7426        0.0002        4.4481        4.4483       2.705707       0.02558
   4     651.6        1.7604        0.0002        4.2418        4.2421       2.481646       0.03064
   3     718.7        1.7875        0.0003        3.9992        3.9994       2.211908       0.03390
   2     792.3        1.8304        0.0003        3.7284        3.7287       1.898315       0.03597
   1     891.5        1.9228        0.0003        3.3660        3.3663       1.443461       0.03871
   0    1013.0        2.1179        0.0003        2.9490        2.9492       0.831372       0.04250



 Wavenumbers:  3250. -  4000. cm-1, ATM      1
 LEVEL PRESSURE   UPWARD FLUX   DIFDOWN FLUX  DIRDOWN FLUX  DOWNWARD FLUX   NET FLUX    HEATING RATE
          mb          W/m2          W/m2          W/m2        W/m2          W/m2       degree/day
  51    .06700        0.0667        0.0000        9.1795        9.1795       9.112811       0.00000
  50    .07753        0.0667        0.0000        9.1748        9.1748       9.108097       3.77794
  49    .09103        0.0667        0.0000        9.1716        9.1716       9.104855       2.02657
  48    0.1069        0.0667        0.0000        9.1692        9.1692       9.102482       1.26333
  47    0.1255        0.0667        0.0000        9.1671        9.1671       9.100379       0.95323
  46    0.1487        0.0667        0.0000        9.1648        9.1648       9.098117       0.82432
  45    0.1794        0.0667        0.0000        9.1622        9.1622       9.095454       0.73114
  44    0.2165        0.0667        0.0000        9.1595        9.1595       9.092766       0.61160
  43    0.2613        0.0667        0.0000        9.1568        9.1568       9.090054       0.51113
  42    0.3336        0.0667        0.0000        9.1530        9.1530       9.086303       0.43731
  41    0.4307        0.0667        0.0000        9.1488        9.1488       9.082100       0.36541
  40    0.5894        0.0667        0.0000        9.1427        9.1427       9.075999       0.32445
  39     1.339        0.0667        0.0000        9.1189        9.1189       9.052231       0.26759
  38     1.782        0.0667        0.0000        9.1083        9.1083       9.041536       0.20362
  37     2.292        0.0667        0.0000        9.0979        9.0979       9.031212       0.17099
  36     2.964        0.0667        0.0000        9.0863        9.0863       9.019586       0.14594
  35     3.853        0.0667        0.0000        9.0726        9.0726       9.005845       0.13040
  34     5.035        0.0667        0.0000        9.0553        9.0553       8.988626       0.12300
  33     6.613        0.0667        0.0000        9.0325        9.0325       8.965801       0.12203
  32     8.786        0.0667        0.0000        9.0006        9.0006       8.933936       0.12375
  31     11.80        0.0667        0.0000        8.9529        8.9529       8.886195       0.13366
  30     15.07        0.0667        0.0000        8.8997        8.8997       8.833044       0.13723
  29     18.79        0.0667        0.0000        8.8384        8.8385       8.771758       0.13895
  28     23.16        0.0667        0.0000        8.7670        8.7671       8.700374       0.13803
  27     28.12        0.0667        0.0000        8.6881        8.6881       8.621420       0.13422
  26     33.73        0.0667        0.0000        8.6057        8.6057       8.539061       0.12383
  25     40.54        0.0667        0.0001        8.5157        8.5157       8.449052       0.11167
  24     48.69        0.0667        0.0001        8.4194        8.4194       8.352788       0.09962
  23     57.69        0.0666        0.0001        8.3240        8.3240       8.257387       0.08942
  22     68.43        0.0666        0.0001        8.2173        8.2174       8.150755       0.08383
  21     81.20        0.0666        0.0001        8.0939        8.0940       8.027364       0.08153
  20     96.49        0.0666        0.0001        7.9503        7.9504       7.883831       0.07922
  19     114.6        0.0666        0.0001        7.7850        7.7852       7.718583       0.07716
  18     136.5        0.0665        0.0002        7.6032        7.6033       7.536790       0.06990
  17     162.9        0.0665        0.0002        7.4028        7.4030       7.336509       0.06402
  16     196.4        0.0665        0.0002        7.1516        7.1518       7.085320       0.06323
  15     218.7        0.0665        0.0002        6.9505        6.9507       6.884253       0.07634
  14     243.0        0.0664        0.0003        6.6616        6.6619       6.595445       0.10017
  13     269.0        0.0664        0.0003        6.3124        6.3127       6.246239       0.11328
  12     297.5        0.0665        0.0003        5.9098        5.9101       5.843600       0.11942
  11     328.5        0.0665        0.0003        5.4937        5.4940       5.427452       0.11315
  10     361.9        0.0666        0.0003        5.0522        5.0525       4.985911       0.11171
   9     398.1        0.0668        0.0003        4.5804        4.5807       4.513884       0.10997
   8     437.6        0.0671        0.0003        4.0942        4.0945       4.027350       0.10402
   7     480.5        0.0676        0.0003        3.6261        3.6264       3.558745       0.09203
   6     533.0        0.0686        0.0003        3.1248        3.1251       3.056451       0.08080
   5     589.8        0.0703        0.0003        2.6441        2.6444       2.574097       0.07160
   4     651.6        0.0736        0.0002        2.1539        2.1541       2.080539       0.06750
   3     718.7        0.0796        0.0002        1.6848        1.6850       1.605344       0.05972
   2     792.3        0.0916        0.0002        1.2300        1.2302       1.138547       0.05354
   1     891.5        0.1261        0.0001        0.7296        0.7298       0.603700       0.04551
   0    1013.0        0.2403        0.0001        0.3345        0.3346       0.094323       0.03537



 Wavenumbers:  4000. -  4650. cm-1, ATM      1
 LEVEL PRESSURE   UPWARD FLUX   DIFDOWN FLUX  DIRDOWN FLUX  DOWNWARD FLUX   NET FLUX    HEATING RATE
          mb          W/m2          W/m2          W/m2        W/m2          W/m2       degree/day
  51    .06700        5.3458        0.0000       10.7795       10.7795       5.433751       0.00000
  50    .07753        5.3458        0.0000       10.7795       10.7795       5.433750       0.00081
  49    .09103        5.3458        0.0000       10.7795       10.7795       5.433749       0.00079
  48    0.1069        5.3458        0.0000       10.7795       10.7795       5.433748       0.00078
  47    0.1255        5.3458        0.0000       10.7795       10.7795       5.433746       0.00076
  46    0.1487        5.3458        0.0000       10.7795       10.7795       5.433744       0.00077
  45    0.1794        5.3458        0.0000       10.7795       10.7795       5.433741       0.00079
  44    0.2165        5.3458        0.0000       10.7795       10.7795       5.433738       0.00078
  43    0.2613        5.3458        0.0000       10.7795       10.7795       5.433734       0.00076
  42    0.3336        5.3458        0.0000       10.7795       10.7795       5.433727       0.00078
  41    0.4307        5.3458        0.0000       10.7795       10.7795       5.433718       0.00079
  40    0.5894        5.3458        0.0000       10.7795       10.7795       5.433702       0.00081
  39     1.339        5.3458        0.0000       10.7794       10.7794       5.433611       0.00103
  38     1.782        5.3458        0.0000       10.7793       10.7793       5.433540       0.00136
  37     2.292        5.3458        0.0000       10.7792       10.7792       5.433444       0.00159
  36     2.964        5.3458        0.0000       10.7791       10.7791       5.433301       0.00180
  35     3.853        5.3458        0.0000       10.7789       10.7789       5.433089       0.00201
  34     5.035        5.3458        0.0000       10.7785       10.7786       5.432777       0.00223
  33     6.613        5.3458        0.0000       10.7781       10.7781       5.432317       0.00246
  32     8.786        5.3458        0.0000       10.7774       10.7774       5.431637       0.00264
  31     11.80        5.3458        0.0001       10.7763       10.7763       5.430569       0.00299
  30     15.07        5.3458        0.0001       10.7750       10.7751       5.429315       0.00324
  29     18.79        5.3458        0.0001       10.7735       10.7736       5.427798       0.00344
  28     23.16        5.3458        0.0001       10.7716       10.7717       5.425912       0.00365
  27     28.12        5.3458        0.0001       10.7693       10.7694       5.423627       0.00388
  26     33.73        5.3458        0.0002       10.7665       10.7666       5.420807       0.00424
  25     40.54        5.3459        0.0002       10.7626       10.7628       5.416976       0.00475
  24     48.69        5.3459        0.0002       10.7576       10.7578       5.411865       0.00529
  23     57.69        5.3460        0.0003       10.7515       10.7518       5.405796       0.00569
  22     68.43        5.3461        0.0003       10.7440       10.7443       5.398175       0.00599
  21     81.20        5.3463        0.0004       10.7347       10.7351       5.388771       0.00621
  20     96.49        5.3466        0.0005       10.7235       10.7239       5.377302       0.00633
  19     114.6        5.3470        0.0005       10.7098       10.7103       5.363318       0.00653
  18     136.5        5.3476        0.0006       10.6934       10.6940       5.346424       0.00650
  17     162.9        5.3484        0.0008       10.6735       10.6742       5.325857       0.00657
  16     196.4        5.3496        0.0009       10.6470       10.6479       5.298282       0.00694
  15     218.7        5.3507        0.0010       10.6284       10.6294       5.278730       0.00742
  14     243.0        5.3522        0.0011       10.6063       10.6074       5.255229       0.00815
  13     269.0        5.3541        0.0012       10.5789       10.5801       5.226003       0.00948
  12     297.5        5.3569        0.0014       10.5447       10.5460       5.189175       0.01092
  11     328.5        5.3604        0.0015       10.5036       10.5051       5.144684       0.01210
  10     361.9        5.3650        0.0017       10.4550       10.4567       5.091660       0.01342
   9     398.1        5.3710        0.0018       10.3964       10.3982       5.027258       0.01500
   8     437.6        5.3786        0.0020       10.3237       10.3257       4.947105       0.01714
   7     480.5        5.3885        0.0022       10.2332       10.2354       4.846886       0.01968
   6     533.0        5.4032        0.0024       10.1038       10.1062       4.702912       0.02316
   5     589.8        5.4223        0.0026        9.9434        9.9460       4.523709       0.02660
   4     651.6        5.4484        0.0028        9.7436        9.7465       4.298097       0.03085
   3     718.7        5.4854        0.0031        9.5139        9.5170       4.031647       0.03349
   2     792.3        5.5411        0.0033        9.2410        9.2444       3.703252       0.03766
   1     891.5        5.6590        0.0036        8.8085        8.8121       3.153098       0.04682
   0    1013.0        5.9192        0.0039        8.2386        8.2425       2.323258       0.05762



 Wavenumbers:  4650. -  5150. cm-1, ATM      1
 LEVEL PRESSURE   UPWARD FLUX   DIFDOWN FLUX  DIRDOWN FLUX  DOWNWARD FLUX   NET FLUX    HEATING RATE
          mb          W/m2          W/m2          W/m2        W/m2          W/m2       degree/day
  51    .06700        3.7271        0.0000       10.2033       10.2033       6.476216       0.00000
  50    .07753        3.7271        0.0000       10.2031       10.2031       6.475984       0.18565
  49    .09103        3.7271        0.0000       10.2028       10.2028       6.475695       0.18101
  48    0.1069        3.7271        0.0000       10.2025       10.2025       6.475364       0.17614
  47    0.1255        3.7271        0.0000       10.2021       10.2021       6.474986       0.17119
  46    0.1487        3.7271        0.0000       10.2016       10.2016       6.474514       0.17228
  45    0.1794        3.7271        0.0000       10.2010       10.2010       6.473875       0.17539
  44    0.2165        3.7271        0.0000       10.2003       10.2003       6.473128       0.16977
  43    0.2613        3.7271        0.0000       10.1994       10.1994       6.472258       0.16401
  42    0.3336        3.7271        0.0000       10.1980       10.1980       6.470850       0.16415
  41    0.4307        3.7271        0.0000       10.1962       10.1962       6.469041       0.15730
  40    0.5894        3.7271        0.0000       10.1933       10.1933       6.466216       0.15025
  39     1.339        3.7271        0.0000       10.1819       10.1819       6.454814       0.12836
  38     1.782        3.7271        0.0000       10.1765       10.1765       6.449373       0.10359
  37     2.292        3.7271        0.0000       10.1711       10.1711       6.444001       0.08898
  36     2.964        3.7271        0.0000       10.1653       10.1653       6.438166       0.07325
  35     3.853        3.7271        0.0000       10.1591       10.1592       6.432037       0.05816
  34     5.035        3.7271        0.0000       10.1529       10.1529       6.425779       0.04470
  33     6.613        3.7271        0.0000       10.1465       10.1465       6.419386       0.03418
  32     8.786        3.7271        0.0001       10.1395       10.1395       6.412425       0.02704
  31     11.80        3.7271        0.0001       10.1305       10.1306       6.403424       0.02520
  30     15.07        3.7271        0.0001       10.1206       10.1207       6.393575       0.02543
  29     18.79        3.7272        0.0001       10.1086       10.1088       6.381597       0.02716
  28     23.16        3.7272        0.0002       10.0934       10.0935       6.366324       0.02953
  27     28.12        3.7273        0.0002       10.0744       10.0745       6.347265       0.03240
  26     33.73        3.7274        0.0002       10.0513       10.0516       6.324207       0.03467
  25     40.54        3.7275        0.0003       10.0216       10.0218       6.294340       0.03705
  24     48.69        3.7277        0.0003        9.9836        9.9839       6.256202       0.03947
  23     57.69        3.7279        0.0004        9.9402        9.9406       6.212680       0.04079
  22     68.43        3.7283        0.0005        9.8877        9.8882       6.159937       0.04146
  21     81.20        3.7287        0.0005        9.8257        9.8262       6.097483       0.04127
  20     96.49        3.7294        0.0006        9.7543        9.7549       6.025513       0.03972
  19     114.6        3.7303        0.0008        9.6749        9.6757       5.945311       0.03745
  18     136.5        3.7316        0.0009        9.5892        9.5901       5.858426       0.03341
  17     162.9        3.7334        0.0011        9.4979        9.4990       5.765539       0.02969
  16     196.4        3.7362        0.0013        9.3929        9.3942       5.658028       0.02706
  15     218.7        3.7383        0.0014        9.3287        9.3301       5.591846       0.02513
  14     243.0        3.7409        0.0015        9.2605        9.2621       5.521138       0.02452
  13     269.0        3.7442        0.0017        9.1864        9.1881       5.443861       0.02507
  12     297.5        3.7484        0.0019        9.1035        9.1054       5.357001       0.02576
  11     328.5        3.7537        0.0020        9.0101        9.0122       5.258478       0.02679
  10     361.9        3.7604        0.0022        8.9035        8.9058       5.145354       0.02862
   9     398.1        3.7690        0.0024        8.7810        8.7835       5.014473       0.03049
   8     437.6        3.7802        0.0026        8.6389        8.6415       4.861375       0.03273
   7     480.5        3.7941        0.0029        8.4785        8.4814       4.687235       0.03420
   6     533.0        3.8147        0.0031        8.2698        8.2729       4.458279       0.03683
   5     589.8        3.8419        0.0034        8.0310        8.0343       4.192412       0.03946
   4     651.6        3.8793        0.0036        7.7552        7.7588       3.879545       0.04279
   3     718.7        3.9308        0.0039        7.4455        7.4493       3.518515       0.04537
   2     792.3        4.0039        0.0041        7.1031        7.1072       3.103297       0.04762
   1     891.5        4.1432        0.0044        6.6423        6.6467       2.503492       0.05104
   0    1013.0        4.4000        0.0047        6.1220        6.1267       1.726771       0.05393



 Wavenumbers:  5150. -  6150. cm-1, ATM      1
 LEVEL PRESSURE   UPWARD FLUX   DIFDOWN FLUX  DIRDOWN FLUX  DOWNWARD FLUX   NET FLUX    HEATING RATE
          mb          W/m2          W/m2          W/m2        W/m2          W/m2       degree/day
  51    .06700        9.2587        0.0000       25.5798       25.5798      16.321170       0.00000
  50    .07753        9.2587        0.0000       25.5798       25.5798      16.321158       0.00941
  49    .09103        9.2587        0.0000       25.5798       25.5798      16.321143       0.00955
  48    0.1069        9.2587        0.0000       25.5798       25.5798      16.321124       0.00969
  47    0.1255        9.2587        0.0000       25.5798       25.5798      16.321103       0.00984
  46    0.1487        9.2587        0.0000       25.5797       25.5797      16.321074       0.01036
  45    0.1794        9.2586        0.0000       25.5797       25.5797      16.321034       0.01102
  44    0.2165        9.2586        0.0000       25.5796       25.5796      16.320985       0.01119
  43    0.2613        9.2586        0.0000       25.5796       25.5796      16.320925       0.01136
  42    0.3336        9.2586        0.0000       25.5795       25.5795      16.320822       0.01201
  41    0.4307        9.2586        0.0000       25.5793       25.5793      16.320682       0.01218
  40    0.5894        9.2586        0.0000       25.5791       25.5791      16.320446       0.01250
  39     1.339        9.2586        0.0000       25.5779       25.5779      16.319303       0.01287
  38     1.782        9.2586        0.0001       25.5772       25.5773      16.318628       0.01285
  37     2.292        9.2586        0.0001       25.5764       25.5765      16.317857       0.01278
  36     2.964        9.2586        0.0001       25.5754       25.5755      16.316865       0.01245
  35     3.853        9.2586        0.0001       25.5741       25.5742      16.315586       0.01214
  34     5.035        9.2586        0.0002       25.5724       25.5725      16.313910       0.01197
  33     6.613        9.2586        0.0002       25.5701       25.5703      16.311692       0.01186
  32     8.786        9.2587        0.0003       25.5671       25.5674      16.308740       0.01146
  31     11.80        9.2587        0.0004       25.5629       25.5633      16.304606       0.01157
  30     15.07        9.2587        0.0005       25.5585       25.5590      16.300290       0.01114
  29     18.79        9.2588        0.0006       25.5538       25.5543      16.295585       0.01067
  28     23.16        9.2588        0.0007       25.5484       25.5491      16.290282       0.01025
  27     28.12        9.2589        0.0009       25.5425       25.5433      16.284429       0.00995
  26     33.73        9.2590        0.0010       25.5361       25.5372      16.278153       0.00944
  25     40.54        9.2592        0.0013       25.5289       25.5301      16.270884       0.00902
  24     48.69        9.2595        0.0015       25.5206       25.5221      16.262591       0.00858
  23     57.69        9.2598        0.0018       25.5119       25.5136      16.253843       0.00820
  22     68.43        9.2602        0.0021       25.5019       25.5040      16.243797       0.00790
  21     81.20        9.2608        0.0025       25.4904       25.4929      16.232145       0.00770
  20     96.49        9.2614        0.0030       25.4769       25.4799      16.218404       0.00758
  19     114.6        9.2623        0.0035       25.4607       25.4643      16.201986       0.00767
  18     136.5        9.2633        0.0042       25.4413       25.4455      16.182136       0.00763
  17     162.9        9.2646        0.0050       25.4122       25.4172      16.152556       0.00945
  16     196.4        9.2663        0.0060       25.3503       25.3563      16.089968       0.01575
  15     218.7        9.2675        0.0067       25.2605       25.2672      15.999665       0.03428
  14     243.0        9.2689        0.0074       25.1033       25.1107      15.841723       0.05478
  13     269.0        9.2706        0.0081       24.8519       24.8600      15.589378       0.08186
  12     297.5        9.2726        0.0089       24.4487       24.4576      15.185009       0.11993
  11     328.5        9.2750        0.0096       23.9528       23.9625      14.687442       0.13529
  10     361.9        9.2780        0.0104       23.4178       23.4282      14.150264       0.13591
   9     398.1        9.2816        0.0113       22.8428       22.8540      13.572456       0.13462
   8     437.6        9.2862        0.0121       22.1714       22.1835      12.897331       0.14435
   7     480.5        9.2921        0.0129       21.3890       21.4019      12.109842       0.15466
   6     533.0        9.3013        0.0138       20.3895       20.4033      11.102022       0.16213
   5     589.8        9.3149        0.0147       19.2978       19.3125       9.997561       0.16394
   4     651.6        9.3374        0.0154       18.0786       18.0941       8.756714       0.16969
   3     718.7        9.3748        0.0162       16.8881       16.9042       7.529475       0.15423
   2     792.3        9.4399        0.0170       15.8120       15.8289       6.389025       0.13080
   1     891.5        9.5942        0.0181       14.7434       14.7615       5.167361       0.10396
   0    1013.0        9.9571        0.0196       13.8443       13.8639       3.906743       0.08753



 Wavenumbers:  6150. -  7700. cm-1, ATM      1
 LEVEL PRESSURE   UPWARD FLUX   DIFDOWN FLUX  DIRDOWN FLUX  DOWNWARD FLUX   NET FLUX    HEATING RATE
          mb          W/m2          W/m2          W/m2        W/m2          W/m2       degree/day
  51    .06700       15.1845        0.0000       47.3109       47.3109      32.126347       0.00000
  50    .07753       15.1845        0.0000       47.3108       47.3108      32.126319       0.02253
  49    .09103       15.1845        0.0000       47.3108       47.3108      32.126283       0.02243
  48    0.1069       15.1845        0.0000       47.3107       47.3107      32.126241       0.02233
  47    0.1255       15.1845        0.0000       47.3107       47.3107      32.126192       0.02223
  46    0.1487       15.1845        0.0000       47.3106       47.3106      32.126129       0.02296
  45    0.1794       15.1845        0.0000       47.3105       47.3105      32.126042       0.02402
  44    0.2165       15.1845        0.0000       47.3104       47.3104      32.125937       0.02397
  43    0.2613       15.1845        0.0000       47.3103       47.3103      32.125810       0.02393
  42    0.3336       15.1845        0.0000       47.3100       47.3101      32.125596       0.02489
  41    0.4307       15.1845        0.0000       47.3097       47.3098      32.125309       0.02495
  40    0.5894       15.1845        0.0001       47.3092       47.3093      32.124834       0.02527
  39     1.339       15.1844        0.0002       47.3068       47.3070      32.122560       0.02560
  38     1.782       15.1844        0.0002       47.3054       47.3056      32.121228       0.02536
  37     2.292       15.1843        0.0003       47.3037       47.3040      32.119703       0.02526
  36     2.964       15.1843        0.0004       47.3016       47.3020      32.117731       0.02475
  35     3.853       15.1842        0.0005       47.2989       47.2994      32.115172       0.02429
  34     5.035       15.1841        0.0006       47.2953       47.2959      32.111816       0.02398
  33     6.613       15.1840        0.0008       47.2905       47.2914      32.107381       0.02371
  32     8.786       15.1838        0.0011       47.2842       47.2853      32.101489       0.02288
  31     11.80       15.1836        0.0015       47.2753       47.2768      32.093234       0.02311
  30     15.07       15.1833        0.0019       47.2660       47.2679      32.084593       0.02231
  29     18.79       15.1830        0.0024       47.2557       47.2581      32.075115       0.02149
  28     23.16       15.1826        0.0030       47.2441       47.2470      32.064374       0.02077
  27     28.12       15.1822        0.0036       47.2311       47.2347      32.052465       0.02024
  26     33.73       15.1818        0.0043       47.2171       47.2214      32.039645       0.01928
  25     40.54       15.1812        0.0052       47.2009       47.2060      32.024799       0.01842
  24     48.69       15.1806        0.0062       47.1822       47.1884      32.007798       0.01759
  23     57.69       15.1798        0.0073       47.1624       47.1698      31.989935       0.01674
  22     68.43       15.1790        0.0087       47.1398       47.1485      31.969537       0.01604
  21     81.20       15.1780        0.0103       47.1138       47.1241      31.946132       0.01547
  20     96.49       15.1767        0.0123       47.0835       47.0958      31.919049       0.01495
  19     114.6       15.1753        0.0146       47.0482       47.0628      31.887541       0.01471
  18     136.5       15.1736        0.0173       47.0069       47.0242      31.850619       0.01420
  17     162.9       15.1715        0.0206       46.9521       46.9726      31.801119       0.01582
  16     196.4       15.1689        0.0248       46.8546       46.8794      31.710420       0.02283
  15     218.7       15.1674        0.0276       46.7292       46.7568      31.589384       0.04595
  14     243.0       15.1659        0.0305       46.5001       46.5306      31.364787       0.07790
  13     269.0       15.1645        0.0336       46.1366       46.1701      31.005667       0.11650
  12     297.5       15.1635        0.0368       45.5912       45.6281      30.464554       0.16049
  11     328.5       15.1631        0.0402       44.8661       44.9063      29.743188       0.19614
  10     361.9       15.1636        0.0436       43.9755       44.0191      28.855520       0.22459
   9     398.1       15.1654        0.0470       42.9531       43.0002      27.834720       0.23782
   8     437.6       15.1696        0.0506       41.8020       41.8526      26.682971       0.24625
   7     480.5       15.1772        0.0541       40.5089       40.5630      25.385837       0.25475
   6     533.0       15.1923        0.0581       38.7980       38.8561      23.663735       0.27703
   5     589.8       15.2195        0.0617       36.8188       36.8805      21.660963       0.29728
   4     651.6       15.2714        0.0649       34.5027       34.5676      19.296148       0.32339
   3     718.7       15.3652        0.0676       32.0470       32.1146      16.749359       0.32006
   2     792.3       15.5376        0.0699       29.5421       29.6120      14.074448       0.30678
   1     891.5       15.9671        0.0726       26.5658       26.6383      10.671219       0.28960
   0    1013.0       17.0648        0.0755       23.6804       23.7559       6.691059       0.27636



 Wavenumbers:  7700. -  8050. cm-1, ATM      1
 LEVEL PRESSURE   UPWARD FLUX   DIFDOWN FLUX  DIRDOWN FLUX  DOWNWARD FLUX   NET FLUX    HEATING RATE
          mb          W/m2          W/m2          W/m2        W/m2          W/m2       degree/day
  51    .06700        6.5348        0.0000       11.1810       11.1810       4.646136       0.00000
  50    .07753        6.5348        0.0000       11.1809       11.1809       4.646114       0.01783
  49    .09103        6.5348        0.0000       11.1809       11.1809       4.646086       0.01747
  48    0.1069        6.5348        0.0000       11.1809       11.1809       4.646054       0.01711
  47    0.1255        6.5349        0.0000       11.1809       11.1809       4.646017       0.01674
  46    0.1487        6.5349        0.0000       11.1808       11.1808       4.645970       0.01699
  45    0.1794        6.5349        0.0000       11.1808       11.1808       4.645906       0.01748
  44    0.2165        6.5349        0.0000       11.1807       11.1807       4.645831       0.01715
  43    0.2613        6.5349        0.0000       11.1806       11.1806       4.645742       0.01682
  42    0.3336        6.5349        0.0000       11.1805       11.1805       4.645594       0.01721
  41    0.4307        6.5350        0.0000       11.1803       11.1804       4.645398       0.01703
  40    0.5894        6.5350        0.0000       11.1801       11.1801       4.645078       0.01701
  39     1.339        6.5353        0.0001       11.1788       11.1789       4.643565       0.01704
  38     1.782        6.5355        0.0001       11.1781       11.1782       4.642676       0.01692
  37     2.292        6.5357        0.0001       11.1772       11.1773       4.641648       0.01704
  36     2.964        6.5359        0.0002       11.1761       11.1762       4.640297       0.01696
  35     3.853        6.5363        0.0002       11.1746       11.1748       4.638512       0.01694
  34     5.035        6.5367        0.0003       11.1726       11.1729       4.636142       0.01693
  33     6.613        6.5373        0.0004       11.1699       11.1703       4.632975       0.01693
  32     8.786        6.5382        0.0005       11.1664       11.1669       4.628710       0.01657
  31     11.80        6.5393        0.0007       11.1613       11.1619       4.622611       0.01707
  30     15.07        6.5406        0.0009       11.1558       11.1567       4.616068       0.01689
  29     18.79        6.5420        0.0011       11.1497       11.1507       4.608684       0.01674
  28     23.16        6.5437        0.0013       11.1425       11.1438       4.600069       0.01666
  27     28.12        6.5456        0.0016       11.1343       11.1359       4.590232       0.01672
  26     33.73        6.5478        0.0019       11.1251       11.1270       4.579244       0.01652
  25     40.54        6.5504        0.0023       11.1141       11.1164       4.565996       0.01643
  24     48.69        6.5536        0.0027       11.1009       11.1037       4.550069       0.01648
  23     57.69        6.5571        0.0032       11.0865       11.0898       4.532630       0.01635
  22     68.43        6.5613        0.0038       11.0694       11.0733       4.511939       0.01627
  21     81.20        6.5664        0.0046       11.0492       11.0538       4.487399       0.01622
  20     96.49        6.5725        0.0054       11.0254       11.0308       4.458316       0.01605
  19     114.6        6.5798        0.0064       10.9974       11.0038       4.424008       0.01602
  18     136.5        6.5885        0.0076       10.9646       10.9722       4.383644       0.01552
  17     162.9        6.5991        0.0090       10.9261       10.9351       4.335981       0.01523
  16     196.4        6.6131        0.0109       10.8770       10.8879       4.274788       0.01540
  15     218.7        6.6224        0.0121       10.8453       10.8574       4.234938       0.01513
  14     243.0        6.6327        0.0134       10.8112       10.8246       4.191887       0.01493
  13     269.0        6.6440        0.0148       10.7747       10.7895       4.145504       0.01505
  12     297.5        6.6565        0.0164       10.7358       10.7521       4.095628       0.01479
  11     328.5        6.6702        0.0180       10.6942       10.7122       4.041975       0.01459
  10     361.9        6.6854        0.0198       10.6500       10.6698       3.984405       0.01457
   9     398.1        6.7020        0.0217       10.6029       10.6246       3.922575       0.01441
   8     437.6        6.7205        0.0238       10.5528       10.5766       3.856148       0.01420
   7     480.5        6.7408        0.0260       10.4996       10.5256       3.784750       0.01402
   6     533.0        6.7669        0.0287       10.4345       10.4632       3.696281       0.01423
   5     589.8        6.7965        0.0316       10.3644       10.3960       3.599485       0.01437
   4     651.6        6.8306        0.0347       10.2880       10.3228       3.492228       0.01467
   3     718.7        6.8699        0.0381       10.2045       10.2426       3.372714       0.01502
   2     792.3        6.9162        0.0417       10.1119       10.1536       3.237432       0.01552
   1     891.5        6.9868        0.0465        9.9801       10.0266       3.039786       0.01682
   0    1013.0        7.0860        0.0521        9.8101        9.8622       2.776203       0.01830



 Wavenumbers:  8050. - 12850. cm-1, ATM      1
 LEVEL PRESSURE   UPWARD FLUX   DIFDOWN FLUX  DIRDOWN FLUX  DOWNWARD FLUX   NET FLUX    HEATING RATE
          mb          W/m2          W/m2          W/m2        W/m2          W/m2       degree/day
  51    .06700       89.9289        0.0000      156.5418      156.5418      66.612860       0.00000
  50    .07753       89.9289        0.0000      156.5417      156.5417      66.612860       0.00000
  49    .09103       89.9289        0.0001      156.5417      156.5417      66.612860       0.00000
  48    0.1069       89.9288        0.0001      156.5416      156.5417      66.612860      -0.00000
  47    0.1255       89.9288        0.0002      156.5415      156.5417      66.612860      -0.00000
  46    0.1487       89.9288        0.0002      156.5414      156.5417      66.612860       0.00000
  45    0.1794       89.9288        0.0003      156.5413      156.5416      66.612860       0.00000
  44    0.2165       89.9287        0.0004      156.5412      156.5416      66.612860      -0.00000
  43    0.2613       89.9287        0.0005      156.5410      156.5415      66.612860       0.00000
  42    0.3336       89.9286        0.0007      156.5407      156.5414      66.612860      -0.00000
  41    0.4307       89.9285        0.0010      156.5403      156.5413      66.612860       0.00000
  40    0.5894       89.9283        0.0015      156.5397      156.5411      66.612860      -0.00000
  39     1.339       89.9274        0.0035      156.5367      156.5403      66.612860       0.00000
  38     1.782       89.9269        0.0048      156.5350      156.5398      66.612860      -0.00000
  37     2.292       89.9263        0.0062      156.5330      156.5392      66.612860       0.00000
  36     2.964       89.9255        0.0081      156.5303      156.5384      66.612860       0.00000
  35     3.853       89.9245        0.0105      156.5268      156.5374      66.612860      -0.00000
  34     5.035       89.9231        0.0138      156.5222      156.5360      66.612860      -0.00000
  33     6.613       89.9213        0.0182      156.5160      156.5342      66.612860       0.00000
  32     8.786       89.9189        0.0241      156.5076      156.5317      66.612860       0.00000
  31     11.80       89.9153        0.0325      156.4957      156.5282      66.612860       0.00000
  30     15.07       89.9115        0.0416      156.4828      156.5244      66.612860      -0.00000
  29     18.79       89.9073        0.0519      156.4682      156.5201      66.612860       0.00000
  28     23.16       89.9023        0.0639      156.4512      156.5151      66.612860       0.00000
  27     28.12       89.8965        0.0777      156.4317      156.5094      66.612860       0.00000
  26     33.73       89.8901        0.0931      156.4099      156.5030      66.612860       0.00000
  25     40.54       89.8823        0.1118      156.3834      156.4952      66.612860      -0.00000
  24     48.69       89.8729        0.1343      156.3515      156.4858      66.612860       0.00000
  23     57.69       89.8626        0.1590      156.3164      156.4755      66.612860      -0.00000
  22     68.43       89.8503        0.1886      156.2746      156.4631      66.612860      -0.00000
  21     81.20       89.8356        0.2239      156.2246      156.4484      66.612860       0.00000
  20     96.49       89.8180        0.2659      156.1649      156.4309      66.612860       0.00000
  19     114.6       89.7972        0.3160      156.0922      156.4082      66.611030       0.00085
  18     136.5       89.7724        0.3755      156.0057      156.3812      66.608754       0.00088
  17     162.9       89.7429        0.4465      155.9014      156.3479      66.604959       0.00121
  16     196.4       89.7045        0.5388      155.7609      156.2997      66.595139       0.00247
  15     218.7       89.6794        0.5996      155.6563      156.2558      66.576398       0.00712
  14     243.0       89.6524        0.6657      155.5169      156.1826      66.530181       0.01603
  13     269.0       89.6240        0.7374      155.3160      156.0535      66.429487       0.03266
  12     297.5       89.5949        0.8150      155.0243      155.8392      66.244375       0.05490
  11     328.5       89.5654        0.8987      154.6492      155.5479      65.982469       0.07121
  10     361.9       89.5368        0.9889      154.1899      155.1788      65.642041       0.08613
   9     398.1       89.5106        1.0859      153.6364      154.7224      65.211800       0.10024
   8     437.6       89.4899        1.1899      152.9636      154.1535      64.663604       0.11721
   7     480.5       89.4785        1.3010      152.1470      153.4481      63.969558       0.13631
   6     533.0       89.4845        1.4370      150.9774      152.4144      62.929908       0.16725
   5     589.8       89.5274        1.5821      149.4511      151.0331      61.505669       0.21140
   4     651.6       89.6494        1.7345      147.3457      149.0802      59.430873       0.28373
   3     718.7       89.9034        1.8932      144.6028      146.4960      56.592572       0.35670
   2     792.3       90.4025        2.0557      141.0784      143.1341      52.731637       0.44281
   1     891.5       91.6582        2.2616      135.6767      137.9383      46.280079       0.54900
   0    1013.0       94.5791        2.4930      128.9509      131.4440      36.864833       0.65375



 Wavenumbers: 12850. - 16000. cm-1, ATM      1
 LEVEL PRESSURE   UPWARD FLUX   DIFDOWN FLUX  DIRDOWN FLUX  DOWNWARD FLUX   NET FLUX    HEATING RATE
          mb          W/m2          W/m2          W/m2        W/m2          W/m2       degree/day
  51    .06700       75.2069        0.0000       98.0872       98.0872      22.880358       0.00000
  50    .07753       75.2069        0.0001       98.0864       98.0864      22.879566       0.63463
  49    .09103       75.2069        0.0002       98.0853       98.0854      22.878572       0.62157
  48    0.1069       75.2069        0.0003       98.0841       98.0843      22.877429       0.60827
  47    0.1255       75.2069        0.0004       98.0826       98.0830      22.876116       0.59526
  46    0.1487       75.2069        0.0005       98.0809       98.0814      22.874459       0.60409
  45    0.1794       75.2070        0.0007       98.0784       98.0792      22.872204       0.61897
  44    0.2165       75.2070        0.0010       98.0756       98.0766      22.869551       0.60342
  43    0.2613       75.2071        0.0012       98.0723       98.0736      22.866432       0.58808
  42    0.3336       75.2074        0.0017       98.0670       98.0687      22.861339       0.59379
  41    0.4307       75.2078        0.0023       98.0602       98.0625      22.854751       0.57275
  40    0.5894       75.2085        0.0033       98.0496       98.0529      22.844369       0.55214
  39     1.339       75.2151        0.0081       98.0043       98.0124      22.797280       0.53014
  38     1.782       75.2211        0.0108       97.9793       97.9901      22.768983       0.53872
  37     2.292       75.2301        0.0141       97.9498       97.9638      22.733722       0.58401
  36     2.964       75.2450        0.0183       97.9088       97.9271      22.682127       0.64768
  35     3.853       75.2690        0.0239       97.8503       97.8742      22.605271       0.72938
  34     5.035       75.3050        0.0313       97.7680       97.7993      22.494241       0.79315
  33     6.613       75.3554        0.0412       97.6562       97.6974      22.341947       0.81416
  32     8.786       75.4211        0.0545       97.5107       97.5652      22.144145       0.76819
  31     11.80       75.5065        0.0736       97.3179       97.3914      21.884948       0.72567
  30     15.07       75.5884        0.0940       97.1283       97.2224      21.633959       0.64800
  29     18.79       75.6721        0.1171       96.9300       97.0471      21.375054       0.58702
  28     23.16       75.7596        0.1440       96.7166       96.8606      21.101000       0.52993
  27     28.12       75.8477        0.1748       96.4935       96.6683      20.820516       0.47680
  26     33.73       75.9294        0.2092       96.2731       96.4823      20.552929       0.40232
  25     40.54       76.0082        0.2508       96.0408       96.2916      20.283341       0.33446
  24     48.69       76.0842        0.3009       95.7946       96.0955      20.011369       0.28145
  23     57.69       76.1490        0.3560       95.5573       95.9133      19.764320       0.23157
  22     68.43       76.2062        0.4217       95.3106       95.7323      19.526143       0.18724
  21     81.20       76.2468        0.5000       95.0644       95.5644      19.317621       0.13779
  20     96.49       76.2697        0.5935       94.8153       95.4088      19.139073       0.09855
  19     114.6       76.2938        0.7054       94.5411       95.2465      18.952714       0.08702
  18     136.5       76.3118        0.8380       94.2322       95.0702      18.758408       0.07472
  17     162.9       76.3236        0.9959       93.8757       94.8717      18.548127       0.06721
  16     196.4       76.3182        1.2007       93.4354       94.6361      18.317940       0.05794
  15     218.7       76.3073        1.3352       93.1527       94.4879      18.180649       0.05212
  14     243.0       76.2923        1.4814       92.8473       94.3287      18.036356       0.05005
  13     269.0       76.2729        1.6397       92.5187       94.1584      17.885481       0.04894
  12     297.5       76.2493        1.8108       92.1654       93.9762      17.726894       0.04704
  11     328.5       76.2232        1.9957       91.7843       93.7800      17.556770       0.04626
  10     361.9       76.1949        2.1947       91.3743       93.5690      17.374111       0.04621
   9     398.1       76.1650        2.4088       90.9337       93.3425      17.177557       0.04579
   8     437.6       76.1348        2.6388       90.4590       93.0978      16.962935       0.04589
   7     480.5       76.1055        2.8852       89.9479       92.8331      16.727586       0.04622
   6     533.0       76.0756        3.1884       89.3120       92.5004      16.424808       0.04871
   5     589.8       76.0551        3.5150       88.6128       92.1277      16.072650       0.05227
   4     651.6       76.0558        3.8656       87.8278       91.6934      15.637590       0.05950
   3     718.7       76.0918        4.2404       86.9422       91.1827      15.090891       0.06870
   2     792.3       76.1923        4.6386       85.9248       90.5634      14.371136       0.08255
   1     891.5       76.4732        5.1687       84.4239       89.5926      13.119357       0.10652
   0    1013.0       77.0678        5.7927       82.4992       88.2919      11.224111       0.13160



 Wavenumbers: 16000. - 22650. cm-1, ATM      1
 LEVEL PRESSURE   UPWARD FLUX   DIFDOWN FLUX  DIRDOWN FLUX  DOWNWARD FLUX   NET FLUX    HEATING RATE
          mb          W/m2          W/m2          W/m2        W/m2          W/m2       degree/day
  51    .06700      141.2741        0.0000      156.3892      156.3892      15.115197       0.00000
  50    .07753      141.2740        0.0004      156.3887      156.3891      15.115048       0.11874
  49    .09103      141.2740        0.0009      156.3879      156.3888      15.114833       0.13468
  48    0.1069      141.2740        0.0015      156.3871      156.3885      15.114544       0.15357
  47    0.1255      141.2740        0.0021      156.3861      156.3882      15.114158       0.17505
  46    0.1487      141.2741        0.0030      156.3847      156.3877      15.113589       0.20744
  45    0.1794      141.2742        0.0041      156.3828      156.3869      15.112700       0.24424
  44    0.2165      141.2744        0.0054      156.3805      156.3859      15.111493       0.27450
  43    0.2613      141.2748        0.0070      156.3776      156.3846      15.109856       0.30860
  42    0.3336      141.2756        0.0097      156.3726      156.3823      15.106743       0.36291
  41    0.4307      141.2768        0.0131      156.3657      156.3789      15.102051       0.40795
  40    0.5894      141.2794        0.0189      156.3537      156.3725      15.093103       0.47586
  39     1.339      141.3023        0.0458      156.2834      156.3293      15.026992       0.74429
  38     1.782      141.3234        0.0617      156.2324      156.2940      14.970673       1.07222
  37     2.292      141.3550        0.0800      156.1641      156.2441      14.889151       1.35022
  36     2.964      141.4075        0.1041      156.0605      156.1646      14.757084       1.65784
  35     3.853      141.4924        0.1359      155.9041      156.0400      14.547524       1.98876
  34     5.035      141.6206        0.1781      155.6774      155.8554      14.234874       2.23344
  33     6.613      141.7996        0.2343      155.3656      155.6000      13.800378       2.32282
  32     8.786      142.0328        0.3101      154.9577      155.2677      13.234990       2.19576
  31     11.80      142.3363        0.4183      154.4153      154.8335      12.497291       2.06533
  30     15.07      142.6270        0.5343      153.8804      154.4147      11.787631       1.83220
  29     18.79      142.9239        0.6651      153.3191      153.9842      11.060279       1.64913
  28     23.16      143.2343        0.8177      152.7126      153.5303      10.296001       1.47787
  27     28.12      143.5466        0.9919      152.0755      153.0674       9.520876       1.31766
  26     33.73      143.8349        1.1867      151.4409      152.6277       8.792782       1.09471
  25     40.54      144.1124        1.4219      150.7637      152.1856       8.073146       0.89279
  24     48.69      144.3782        1.7051      150.0339      151.7389       7.360677       0.73729
  23     57.69      144.6037        2.0158      149.3151      151.3309       6.727204       0.59379
  22     68.43      144.8005        2.3854      148.5476      150.9330       6.132526       0.46750
  21     81.20      144.9366        2.8255      147.7517      150.5772       5.640578       0.32507
  20     96.49      145.0076        3.3494      146.9127      150.2621       5.254513       0.21308
  19     114.6      145.0445        3.9697      145.9763      149.9460       4.901496       0.16483
  18     136.5      145.0567        4.7021      144.9088      149.6109       4.554219       0.13354
  17     162.9      145.0425        5.5702      143.6786      149.2488       4.206359       0.11119
  16     196.4      144.9619        6.6903      142.1652      148.8555       3.893552       0.07874
  15     218.7      144.8863        7.4223      141.2036      148.6259       3.739579       0.05846
  14     243.0      144.7936        8.2145      140.1759      148.3904       3.596840       0.04951
  13     269.0      144.6820        9.0691      139.0809      148.1501       3.468022       0.04179
  12     297.5      144.5510        9.9882      137.9167      147.9049       3.353912       0.03384
  11     328.5      144.4044       10.9760      136.6723      147.6484       3.244001       0.02988
  10     361.9      144.2418       12.0335      135.3471      147.3806       3.138816       0.02661
   9     398.1      144.0626       13.1646      133.9361      147.1007       3.038110       0.02346
   8     437.6      143.8673       14.3714      132.4357      146.8071       2.939744       0.02103
   7     480.5      143.6553       15.6560      130.8437      146.4997       2.844445       0.01872
   6     533.0      143.3921       17.2249      128.9045      146.1294       2.737296       0.01724
   5     589.8      143.1086       18.9009      126.8357      145.7366       2.628014       0.01622
   4     651.6      142.8073       20.6856      124.6324      145.3180       2.510757       0.01604
   3     718.7      142.4899       22.5808      122.2897      144.8705       2.380674       0.01635
   2     792.3      142.1621       24.5848      119.8038      144.3886       2.226474       0.01769
   1     891.5      141.7483       27.2467      116.4782      143.7250       1.976665       0.02126
   0    1013.0      141.2972       30.3782      112.5314      142.9096       1.612395       0.02529



 Wavenumbers: 22650. - 29000. cm-1, ATM      1
 LEVEL PRESSURE   UPWARD FLUX   DIFDOWN FLUX  DIRDOWN FLUX  DOWNWARD FLUX   NET FLUX    HEATING RATE
          mb          W/m2          W/m2          W/m2        W/m2          W/m2       degree/day
  51    .06700       58.3821        0.0000       59.0156       59.0156       0.633503       0.00000
  50    .07753       58.3820        0.0005       59.0151       59.0155       0.633503      -0.00000
  49    .09103       58.3819        0.0010       59.0144       59.0154       0.633503       0.00000
  48    0.1069       58.3818        0.0017       59.0136       59.0153       0.633503       0.00000
  47    0.1255       58.3816        0.0025       59.0127       59.0151       0.633503       0.00000
  46    0.1487       58.3814        0.0034       59.0115       59.0149       0.633503      -0.00000
  45    0.1794       58.3812        0.0048       59.0099       59.0147       0.633503       0.00000
  44    0.2165       58.3809        0.0063       59.0080       59.0144       0.633503       0.00000
  43    0.2613       58.3805        0.0082       59.0058       59.0140       0.633503      -0.00000
  42    0.3336       58.3799        0.0113       59.0022       59.0134       0.633503       0.00000
  41    0.4307       58.3791        0.0153       58.9973       59.0126       0.633503       0.00000
  40    0.5894       58.3778        0.0220       58.9894       59.0113       0.633503      -0.00000
  39     1.339       58.3717        0.0534       58.9518       59.0052       0.633503       0.00000
  38     1.782       58.3681        0.0719       58.9297       59.0016       0.633503       0.00000
  37     2.292       58.3639        0.0933       58.9042       58.9974       0.633503      -0.00000
  36     2.964       58.3585        0.1213       58.8706       58.9920       0.633503       0.00000
  35     3.853       58.3512        0.1584       58.8264       58.9847       0.633503      -0.00000
  34     5.035       58.3416        0.2076       58.7676       58.9751       0.633503       0.00000
  33     6.613       58.3288        0.2732       58.6891       58.9623       0.633503      -0.00000
  32     8.786       58.3116        0.3617       58.5834       58.9451       0.633503       0.00000
  31     11.80       58.2869        0.4880       58.4324       58.9205       0.633503       0.00000
  30     15.07       58.2605        0.6234       58.2706       58.8940       0.633503       0.00000
  29     18.79       58.2308        0.7760       58.0882       58.8643       0.633503      -0.00000
  28     23.16       58.1961        0.9539       57.8757       58.8296       0.633503      -0.00000
  27     28.12       58.1565        1.1567       57.6333       58.7900       0.633503       0.00000
  26     33.73       58.1124        1.3828       57.3631       58.7459       0.633503       0.00000
  25     40.54       58.0593        1.6549       57.0379       58.6928       0.633503       0.00000
  24     48.69       57.9956        1.9812       56.6479       58.6291       0.633503       0.00000
  23     57.69       57.9260        2.3375       56.2221       58.5596       0.633503       0.00000
  22     68.43       57.8438        2.7587       55.7186       58.4773       0.633503      -0.00000
  21     81.20       57.7466        3.2562       55.1239       58.3801       0.633503       0.00000
  20     96.49       57.6320        3.8427       54.4228       58.2655       0.633503       0.00000
  19     114.6       57.4976        4.5301       53.6010       58.1311       0.633503      -0.00000
  18     136.5       57.3407        5.3324       52.6418       57.9742       0.633503       0.00000
  17     162.9       57.1571        6.2703       51.5204       57.7906       0.633503       0.00000
  16     196.4       56.9244        7.4584       50.0995       57.5579       0.633503       0.00000
  15     218.7       56.7747        8.2219       49.1863       57.4082       0.633503      -0.00000
  14     243.0       56.6148        9.0369       48.2114       57.2483       0.633503       0.00000
  13     269.0       56.4447        9.9031       47.1751       57.0782       0.633503      -0.00000
  12     297.5       56.2647       10.8195       46.0786       56.8982       0.633503       0.00000
  11     328.5       56.0743       11.7876       44.9202       56.7078       0.633503      -0.00000
  10     361.9       55.8740       12.8046       43.7029       56.5075       0.633503      -0.00000
   9     398.1       55.6639       13.8707       42.4267       56.2974       0.633503       0.00000
   8     437.6       55.4443       14.9836       41.0941       56.0778       0.633503      -0.00000
   7     480.5       55.2155       16.1409       39.7081       55.8490       0.633503      -0.00000
   6     533.0       54.9433       17.5161       38.0607       55.5768       0.633503       0.00000
   5     589.8       54.6606       18.9411       36.3530       55.2941       0.633503      -0.00000
   4     651.6       54.3688       20.4086       34.5937       55.0023       0.633503       0.00000
   3     718.7       54.0691       21.9119       32.7906       54.7026       0.633503       0.00000
   2     792.3       53.7630       23.4424       30.9541       54.3965       0.633503      -0.00000
   1     891.5       53.3730       25.3853       28.6212       54.0065       0.633503       0.00000
   0    1013.0       52.9382       27.5399       26.0318       53.5717       0.633503       0.00000



 Wavenumbers: 29000. - 38000. cm-1, ATM      1
 LEVEL PRESSURE   UPWARD FLUX   DIFDOWN FLUX  DIRDOWN FLUX  DOWNWARD FLUX   NET FLUX    HEATING RATE
          mb          W/m2          W/m2          W/m2        W/m2          W/m2       degree/day
  51    .06700        8.7365        0.0000       20.8114       20.8114      12.074858       0.00000
  50    .07753        8.7363        0.0003       20.8070       20.8074      12.071050       3.05152
  49    .09103        8.7361        0.0007       20.8009       20.8016      12.065513       3.46081
  48    0.1069        8.7358        0.0012       20.7928       20.7939      12.058104       3.94425
  47    0.1255        8.7355        0.0017       20.7820       20.7837      12.048199       4.49029
  46    0.1487        8.7352        0.0024       20.7665       20.7688      12.033636       5.30838
  45    0.1794        8.7347        0.0033       20.7424       20.7457      12.010971       6.22197
  44    0.2165        8.7342        0.0044       20.7103       20.7147      11.980449       6.94332
  43    0.2613        8.7336        0.0056       20.6675       20.6731      11.939455       7.72723
  42    0.3336        8.7328        0.0077       20.5880       20.5956      11.862895       8.92614
  41    0.4307        8.7317        0.0104       20.4722       20.4826      11.750944       9.73389
  40    0.5894        8.7301        0.0147       20.2637       20.2784      11.548263      10.77831
  39     1.339        8.7267        0.0331       19.0984       19.1315      10.404808      12.87322
  38     1.782        8.7271        0.0427       18.4394       18.4820       9.754903      12.37315
  37     2.292        8.7298        0.0530       17.7714       17.8244       9.094585      10.93659
  36     2.964        8.7363        0.0656       17.0421       17.1078       8.371504       9.07686
  35     3.853        8.7490        0.0816       16.2679       16.3494       7.600392       7.31800
  34     5.035        8.7700        0.1017       15.4803       15.5820       6.811996       5.63197
  33     6.613        8.8006        0.1275       14.7157       14.8432       6.042551       4.11346
  32     8.786        8.8410        0.1612       13.9936       14.1548       5.313782       2.83028
  31     11.80        8.8937        0.2082       13.2835       13.4918       4.598057       2.00381
  30     15.07        8.9445        0.2570       12.7394       12.9963       4.051815       1.41029
  29     18.79        8.9970        0.3110       12.2666       12.5776       3.580611       1.06837
  28     23.16        9.0528        0.3725       11.8300       12.2025       3.149732       0.83318
  27     28.12        9.1099        0.4413       11.4279       11.8692       2.759309       0.66369
  26     33.73        9.1626        0.5172       11.0695       11.5866       2.424064       0.50405
  25     40.54        9.2125        0.6078       10.7209       11.3287       2.116163       0.38199
  24     48.69        9.2596        0.7153       10.3742       11.0895       1.829878       0.29626
  23     57.69        9.2982        0.8317       10.0549       10.8866       1.588367       0.22638
  22     68.43        9.3294        0.9682        9.7327       10.7009       1.371571       0.17043
  21     81.20        9.3441        1.1294        9.4134       10.5428       1.198710       0.11422
  20     96.49        9.3405        1.3189        9.0887       10.4076       1.067133       0.07262
  19     114.6        9.3266        1.5378        8.7388       10.2766       0.950021       0.05468
  18     136.5        9.3053        1.7881        8.3549       10.1430       0.837659       0.04321
  17     162.9        9.2768        2.0733        7.9311       10.0045       0.727653       0.03516
  16     196.4        9.2291        2.4267        7.4333        9.8600       0.630837       0.02437
  15     218.7        9.1948        2.6489        7.1296        9.7785       0.583622       0.01793
  14     243.0        9.1573        2.8812        6.8161        9.6973       0.540027       0.01512
  13     269.0        9.1162        3.1227        6.4944        9.6171       0.500886       0.01270
  12     297.5        9.0717        3.3723        6.1658        9.5381       0.466384       0.01023
  11     328.5        9.0253        3.6291        5.8296        9.4587       0.433353       0.00898
  10     361.9        8.9774        3.8905        5.4888        9.3793       0.401942       0.00795
   9     398.1        8.9280        4.1559        5.1443        9.3002       0.372178       0.00693
   8     437.6        8.8779        4.4241        4.7973        9.2213       0.343491       0.00613
   7     480.5        8.8271        4.6927        4.4507        9.1434       0.316259       0.00535
   6     533.0        8.7689        4.9985        4.0570        9.0555       0.286585       0.00477
   5     589.8        8.7116        5.2992        3.6703        8.9695       0.257856       0.00426
   4     651.6        8.6559        5.5928        3.2928        8.8856       0.229749       0.00384
   3     718.7        8.6024        5.8762        2.9284        8.8046       0.202224       0.00346
   2     792.3        8.5518        6.1466        2.5805        8.7271       0.175286       0.00309
   1     891.5        8.4938        6.4633        2.1725        8.6358       0.142032       0.00283
   0    1013.0        8.4379        6.7809        1.7624        8.5432       0.105327       0.00255



 Wavenumbers: 38000. - 50000. cm-1, ATM      1
 LEVEL PRESSURE   UPWARD FLUX   DIFDOWN FLUX  DIRDOWN FLUX  DOWNWARD FLUX   NET FLUX    HEATING RATE
          mb          W/m2          W/m2          W/m2        W/m2          W/m2       degree/day
  51    .06700        0.0061        0.0000        1.2836        1.2836       1.277518       0.00000
  50    .07753        0.0061        0.0001        1.2812        1.2812       1.275183       1.87150
  49    .09103        0.0060        0.0002        1.2777        1.2778       1.271851       2.08247
  48    0.1069        0.0059        0.0002        1.2731        1.2734       1.267473       2.33059
  47    0.1255        0.0058        0.0004        1.2672        1.2675       1.261717       2.60908
  46    0.1487        0.0057        0.0005        1.2586        1.2591       1.253391       3.03499
  45    0.1794        0.0055        0.0007        1.2455        1.2462       1.240623       3.50520
  44    0.2165        0.0054        0.0009        1.2282        1.2291       1.223697       3.85037
  43    0.2613        0.0052        0.0011        1.2054        1.2065       1.201348       4.21261
  42    0.3336        0.0049        0.0015        1.1639        1.1654       1.160524       4.75970
  41    0.4307        0.0045        0.0020        1.1051        1.1070       1.102565       5.03943
  40    0.5894        0.0039        0.0026        1.0039        1.0064       1.002524       5.32007
  39     1.339        0.0022        0.0035        0.5438        0.5473       0.545105       5.14971
  38     1.782        0.0016        0.0032        0.3635        0.3666       0.365006       3.42879
  37     2.292        0.0012        0.0027        0.2356        0.2383       0.237058       2.11916
  36     2.964        0.0009        0.0022        0.1455        0.1477       0.146786       1.13318
  35     3.853        0.0006        0.0017        0.0858        0.0875       0.086906       0.56828
  34     5.035        0.0004        0.0013        0.0488        0.0501       0.049701       0.26578
  33     6.613        0.0003        0.0010        0.0273        0.0282       0.027974       0.11615
  32     8.786        0.0002        0.0007        0.0144        0.0151       0.014928       0.05067
  31     11.80        0.0001        0.0004        0.0065        0.0070       0.006903       0.02247
  30     15.07        0.0000        0.0003        0.0031        0.0034       0.003329       0.00923
  29     18.79        0.0000        0.0002        0.0014        0.0016       0.001583       0.00396
  28     23.16        0.0000        0.0001        0.0006        0.0007       0.000720       0.00167
  27     28.12        0.0000        0.0001        0.0003        0.0003       0.000317       0.00069
  26     33.73        0.0000        0.0000        0.0001        0.0001       0.000140       0.00027
  25     40.54        0.0000        0.0000        0.0000        0.0001       0.000057       0.00010
  24     48.69        0.0000        0.0000        0.0000        0.0000       0.000021       0.00004
  23     57.69        0.0000        0.0000        0.0000        0.0000       0.000008       0.00001
  22     68.43        0.0000        0.0000        0.0000        0.0000       0.000003       0.00000
  21     81.20        0.0000        0.0000        0.0000        0.0000       0.000001       0.00000
  20     96.49        0.0000        0.0000        0.0000        0.0000       0.000000       0.00000
  19     114.6        0.0000        0.0000        0.0000        0.0000       0.000000       0.00000
  18     136.5        0.0000        0.0000        0.0000        0.0000       0.000000       0.00000
  17     162.9        0.0000        0.0000        0.0000        0.0000       0.000000       0.00000
  16     196.4        0.0000        0.0000        0.0000        0.0000       0.000000       0.00000
  15     218.7        0.0000        0.0000        0.0000        0.0000       0.000000       0.00000
  14     243.0        0.0000        0.0000        0.0000        0.0000       0.000000       0.00000
  13     269.0        0.0000        0.0000        0.0000        0.0000       0.000000       0.00000
  12     297.5        0.0000        0.0000        0.0000        0.0000       0.000000       0.00000
  11     328.5        0.0000        0.0000        0.0000        0.0000       0.000000       0.00000
  10     361.9        0.0000        0.0000        0.0000        0.0000       0.000000       0.00000
   9     398.1        0.0000        0.0000        0.0000        0.0000       0.000000       0.00000
   8     437.6        0.0000        0.0000        0.0000        0.0000       0.000000       0.00000
   7     480.5        0.0000        0.0000        0.0000        0.0000       0.000000       0.00000
   6     533.0        0.0000        0.0000        0.0000        0.0000       0.000000       0.00000
   5     589.8        0.0000        0.0000        0.0000        0.0000       0.000000       0.00000
   4     651.6        0.0000        0.0000        0.0000        0.0000       0.000000       0.00000
   3     718.7        0.0000        0.0000        0.0000        0.0000       0.000000       0.00000
   2     792.3        0.0000        0.0000        0.0000        0.0000       0.000000       0.00000
   1     891.5        0.0000        0.0000        0.0000        0.0000       0.000000       0.00000
   0    1013.0        0.0000        0.0000        0.0000        0.0000       0.000000       0.00000



 Wavenumbers:   820. -  2600. cm-1, ATM      1
 LEVEL PRESSURE   UPWARD FLUX   DIFDOWN FLUX  DIRDOWN FLUX  DOWNWARD FLUX   NET FLUX    HEATING RATE
          mb          W/m2          W/m2          W/m2        W/m2          W/m2       degree/day
  51    .06700        1.4902        0.0000        6.0047        6.0047       4.514433       0.00000
  50    .07753        1.4902        0.0000        6.0008        6.0008       4.510632       3.04658
  49    .09103        1.4902        0.0000        6.0000        6.0000       4.509814       0.51127
  48    0.1069        1.4902        0.0000        5.9991        5.9991       4.508905       0.48351
  47    0.1255        1.4902        0.0000        5.9981        5.9981       4.507884       0.46278
  46    0.1487        1.4902        0.0000        5.9969        5.9969       4.506654       0.44848
  45    0.1794        1.4902        0.0000        5.9953        5.9953       4.505114       0.42291
  44    0.2165        1.4902        0.0000        5.9937        5.9937       4.503490       0.36924
  43    0.2613        1.4902        0.0000        5.9920        5.9920       4.501800       0.31869
  42    0.3336        1.4902        0.0000        5.9896        5.9896       4.499380       0.28209
  41    0.4307        1.4902        0.0000        5.9868        5.9868       4.496533       0.24752
  40    0.5894        1.4902        0.0000        5.9823        5.9823       4.492068       0.23745
  39     1.339        1.4902        0.0000        5.9617        5.9617       4.471499       0.23158
  38     1.782        1.4902        0.0000        5.9503        5.9503       4.460113       0.21677
  37     2.292        1.4902        0.0000        5.9376        5.9376       4.447372       0.21103
  36     2.964        1.4902        0.0000        5.9214        5.9214       4.431207       0.20292
  35     3.853        1.4902        0.0000        5.9010        5.9010       4.410750       0.19414
  34     5.035        1.4902        0.0000        5.8752        5.8752       4.384976       0.18412
  33     6.613        1.4902        0.0000        5.8421        5.8421       4.351874       0.17696
  32     8.786        1.4902        0.0000        5.7988        5.7988       4.308546       0.16827
  31     11.80        1.4903        0.0000        5.7423        5.7423       4.252006       0.15829
  30     15.07        1.4903        0.0000        5.6929        5.6929       4.202609       0.12753
  29     18.79        1.4903        0.0000        5.6520        5.6520       4.161758       0.09262
  28     23.16        1.4903        0.0000        5.6203        5.6203       4.129990       0.06143
  27     28.12        1.4903        0.0000        5.5965        5.5965       4.106165       0.04050
  26     33.73        1.4904        0.0000        5.5769        5.5769       4.086500       0.02957
  25     40.54        1.4904        0.0000        5.5562        5.5562       4.065780       0.02571
  24     48.69        1.4904        0.0000        5.5320        5.5320       4.041564       0.02506
  23     57.69        1.4905        0.0000        5.5053        5.5053       4.014837       0.02505
  22     68.43        1.4906        0.0000        5.4734        5.4734       3.982830       0.02516
  21     81.20        1.4906        0.0000        5.4360        5.4360       3.945386       0.02474
  20     96.49        1.4907        0.0000        5.3923        5.3923       3.901554       0.02419
  19     114.6        1.4909        0.0000        5.3423        5.3424       3.851481       0.02338
  18     136.5        1.4910        0.0000        5.2861        5.2861       3.795046       0.02170
  17     162.9        1.4912        0.0000        5.2210        5.2210       3.729759       0.02087
  16     196.4        1.4916        0.0000        5.1341        5.1341       3.642547       0.02195
  15     218.7        1.4918        0.0000        5.0662        5.0662       3.574351       0.02589
  14     243.0        1.4922        0.0000        4.9722        4.9723       3.480004       0.03272
  13     269.0        1.4928        0.0000        4.8480        4.8480       3.355218       0.04048
  12     297.5        1.4936        0.0000        4.6973        4.6974       3.203754       0.04492
  11     328.5        1.4947        0.0000        4.5532        4.5533       3.058558       0.03948
  10     361.9        1.4961        0.0000        4.4119        4.4119       2.915846       0.03611
   9     398.1        1.4978        0.0000        4.2533        4.2534       2.755601       0.03733
   8     437.6        1.4999        0.0000        4.0594        4.0594       2.559486       0.04193
   7     480.5        1.5025        0.0001        3.8388        3.8389       2.336401       0.04381
   6     533.0        1.5062        0.0001        3.5834        3.5834       2.077256       0.04169
   5     589.8        1.5114        0.0001        3.3638        3.3639       1.852507       0.03336
   4     651.6        1.5197        0.0001        3.1967        3.1968       1.677137       0.02398
   3     718.7        1.5326        0.0001        3.0611        3.0611       1.528533       0.01868
   2     792.3        1.5541        0.0001        2.9031        2.9032       1.349085       0.02058
   1     891.5        1.6029        0.0001        2.6666        2.6667       1.063738       0.02428
   0    1013.0        1.7180        0.0001        2.3924        2.3925       0.674428       0.02703

  Modules and versions used in this calculation:

       rrtmg_sw.1col.f90:  $Revision$                    rrtmg_sw_init.f90:  $Revision$        
     rrtmgsw_cldprop.f90:  $Revision$                  rrtmgsw_cldprmc.f90:  NOT USED          
     rrtmg_sw_reftra.f90:  $Revision$                  rrtmg_sw_spcvrt.f90:  NOT USED          
     rrtmg_sw_spcvmc.f90:  NOT USED                    rrtmgsw_setcoef.f90:  NOT USED          
     rrtmg_sw_taumol.f90:  $Revision$                  rrtmg_sw_vrtqdr.f90:  NOT USED          
                rrtatm.f:  NOT USED                             util_xxx.f:  NOT USED          
                 extra.f:  NOT USED                       rrtmg_sw_k_g.f90:  $Revision$        

