

 Wavenumbers:   820. - 50000. cm-1, ATM      1
 LEVEL PRESSURE   UPWARD FLUX   DIFDOWN FLUX  DIRDOWN FLUX  DOWNWARD FLUX   NET FLUX    HEATING RATE
          mb          W/m2          W/m2          W/m2        W/m2          W/m2       degree/day
  51    .06700      431.8537        0.0000      617.8126      617.8126     185.958821       0.00000
  50    .07753      431.8534        0.0013      617.7950      617.7964     185.942982      12.69526
  49    .09103      431.8529        0.0030      617.7784      617.7815     185.928532       9.03148
  48    0.1069      431.8525        0.0050      617.7591      617.7641     185.911674       8.97376
  47    0.1255      431.8519        0.0072      617.7355      617.7427     185.890780       9.47206
  46    0.1487      431.8514        0.0100      617.7030      617.7130     185.861655      10.61661
  45    0.1794      431.8507        0.0139      617.6549      617.6688     185.818166      11.93882
  44    0.2165      431.8499        0.0184      617.5932      617.6116     185.761709      12.84288
  43    0.2613      431.8492        0.0238      617.5137      617.5375     185.688225      13.85141
  42    0.3336      431.8484        0.0326      617.3706      617.4033     185.554868      15.54812
  41    0.4307      431.8478        0.0443      617.1681      617.2123     185.364572      16.54579
  40    0.5894      431.8477        0.0630      616.8133      616.8764     185.028692      17.86168
  39     1.339      431.8658        0.1479      614.9740      615.1219     183.256137      19.95575
  38     1.782      431.8893        0.1957      614.0055      614.2011     182.311868      17.97736
  37     2.292      431.9281        0.2500      613.0537      613.3037     181.375570      15.50754
  36     2.964      431.9967        0.3207      612.0168      612.3375     180.340821      12.98922
  35     3.853      432.1117        0.4133      610.8755      611.2888     179.177137      11.04357
  34     5.035      432.2885        0.5355      609.6231      610.1586     177.870132       9.33670
  33     6.613      432.5376        0.6977      608.2579      608.9556     176.418058       7.76279
  32     8.786      432.8620        0.9154      606.7612      607.6766     174.814607       6.22722
  31     11.80      433.2822        1.2253      605.0142      606.2395     172.957283       5.19992
  30     15.07      433.6822        1.5560      603.4360      604.9920     171.309792       4.25350
  29     18.79      434.0884        1.9281      601.8697      603.7978     169.709438       3.62849
  28     23.16      434.5100        2.3604      600.2404      602.6009     168.090803       3.12992
  27     28.12      434.9306        2.8525      598.5676      601.4201     166.489537       2.72204
  26     33.73      435.3110        3.4011      596.9073      600.3084     164.997408       2.24346
  25     40.54      435.6656        4.0617      595.1204      599.1821     163.516477       1.83726
  24     48.69      435.9913        4.8543      593.1721      598.0263     162.035002       1.53309
  23     57.69      436.2505        5.7207      591.2197      596.9404     160.689876       1.26085
  22     68.43      436.4522        6.7471      589.0854      595.8325     159.380294       1.02951
  21     81.20      436.5439        7.9641      586.7823      594.7464     158.202577       0.77822
  20     96.49      436.5153        9.4050      584.2612      593.6663     157.150969       0.58041
  19     114.6      436.4213       11.1000      581.4086      592.5086     156.087278       0.49667
  18     136.5      436.2659       13.0848      578.1579      591.2427     154.976798       0.42701
  17     162.9      436.0433       15.4140      574.4225      589.8365     153.793219       0.37832
  16     196.4      435.6677       18.3845      569.7804      588.1649     152.497164       0.32623
  15     218.7      435.3924       20.3052      566.7440      587.0492     151.656740       0.31908
  14     243.0      435.0838       22.3655      563.3504      585.7159     150.632103       0.35538
  13     269.0      434.7407       24.5670      559.5186      584.0856     149.344928       0.41755
  12     297.5      434.3643       26.9106      555.2389      582.1494     147.785118       0.46262
  11     328.5      433.9625       29.4025      550.5516      579.9542     145.991703       0.48762
  10     361.9      433.5382       32.0391      545.4071      577.4463     143.908068       0.52718
   9     398.1      433.0942       34.8253      539.7450      574.5703     141.476139       0.56658
   8     437.6      432.6384       37.7603      533.5265      571.2868     138.648399       0.60459
   7     480.5      432.1773       40.8426      526.7898      567.6324     135.455094       0.62715
   6     533.0      431.6594       44.5498      518.3946      562.9444     131.285002       0.67084
   5     589.8      431.1843       48.4428      509.0813      557.5240     126.339717       0.73404
   4     651.6      430.8242       52.5142      498.4374      550.9516     120.127445       0.84955
   3     718.7      430.6676       56.7561      486.7081      543.4642     112.796588       0.92129
   2     792.3      430.8985       61.1535      473.9171      535.0706     104.172093       0.98913
   1     891.5      432.1944       66.8592      456.7794      523.6386      91.444158       1.08309
   0    1013.0      436.1891       73.3904      437.1762      510.5666      74.377436       1.18503



 Wavenumbers:  2600. -  3250. cm-1, ATM      1
 LEVEL PRESSURE   UPWARD FLUX   DIFDOWN FLUX  DIRDOWN FLUX  DOWNWARD FLUX   NET FLUX    HEATING RATE
          mb          W/m2          W/m2          W/m2        W/m2          W/m2       degree/day
  51    .06700        2.1081        0.0000        5.4450        5.4450       3.336893       0.00000
  50    .07753        2.1081        0.0000        5.4450        5.4450       3.336885       0.00640
  49    .09103        2.1081        0.0000        5.4450        5.4450       3.336875       0.00627
  48    0.1069        2.1081        0.0000        5.4450        5.4450       3.336864       0.00613
  47    0.1255        2.1081        0.0000        5.4450        5.4450       3.336850       0.00599
  46    0.1487        2.1081        0.0000        5.4450        5.4450       3.336834       0.00608
  45    0.1794        2.1081        0.0000        5.4450        5.4450       3.336811       0.00625
  44    0.2165        2.1081        0.0000        5.4449        5.4449       3.336784       0.00612
  43    0.2613        2.1081        0.0000        5.4449        5.4449       3.336752       0.00600
  42    0.3336        2.1081        0.0000        5.4448        5.4448       3.336699       0.00617
  41    0.4307        2.1081        0.0000        5.4448        5.4448       3.336628       0.00620
  40    0.5894        2.1081        0.0000        5.4446        5.4446       3.336508       0.00637
  39     1.339        2.1081        0.0000        5.4439        5.4439       3.335801       0.00797
  38     1.782        2.1081        0.0000        5.4434        5.4434       3.335258       0.01034
  37     2.292        2.1081        0.0000        5.4427        5.4427       3.334542       0.01186
  36     2.964        2.1081        0.0000        5.4416        5.4416       3.333503       0.01304
  35     3.853        2.1081        0.0000        5.4402        5.4402       3.332025       0.01402
  34     5.035        2.1081        0.0000        5.4381        5.4381       3.329969       0.01469
  33     6.613        2.1081        0.0000        5.4353        5.4353       3.327187       0.01487
  32     8.786        2.1081        0.0000        5.4317        5.4317       3.323553       0.01411
  31     11.80        2.1081        0.0000        5.4269        5.4269       3.318769       0.01339
  30     15.07        2.1082        0.0000        5.4224        5.4224       3.314237       0.01170
  29     18.79        2.1082        0.0000        5.4180        5.4180       3.309817       0.01002
  28     23.16        2.1082        0.0000        5.4135        5.4135       3.305320       0.00870
  27     28.12        2.1082        0.0000        5.4088        5.4088       3.300656       0.00793
  26     33.73        2.1082        0.0000        5.4036        5.4036       3.295393       0.00791
  25     40.54        2.1082        0.0000        5.3966        5.3967       3.288415       0.00866
  24     48.69        2.1083        0.0000        5.3872        5.3872       3.278885       0.00986
  23     57.69        2.1084        0.0000        5.3754        5.3754       3.267027       0.01111
  22     68.43        2.1085        0.0000        5.3599        5.3599       3.251434       0.01226
  21     81.20        2.1086        0.0000        5.3401        5.3401       3.231452       0.01320
  20     96.49        2.1089        0.0000        5.3155        5.3155       3.206679       0.01367
  19     114.6        2.1091        0.0001        5.2860        5.2861       3.176913       0.01390
  18     136.5        2.1095        0.0001        5.2518        5.2519       3.142323       0.01330
  17     162.9        2.1101        0.0001        5.2134        5.2135       3.103394       0.01244
  16     196.4        2.1109        0.0001        5.1687        5.1687       3.057815       0.01147
  15     218.7        2.1116        0.0001        5.1421        5.1422       3.030616       0.01033
  14     243.0        2.1124        0.0001        5.1151        5.1152       3.002796       0.00965
  13     269.0        2.1135        0.0001        5.0871        5.0872       2.973667       0.00945
  12     297.5        2.1151        0.0001        5.0569        5.0570       2.941947       0.00941
  11     328.5        2.1172        0.0001        5.0240        5.0242       2.906977       0.00951
  10     361.9        2.1200        0.0002        4.9870        4.9872       2.867175       0.01007
   9     398.1        2.1236        0.0002        4.9454        4.9456       2.821915       0.01054
   8     437.6        2.1283        0.0002        4.8961        4.8963       2.767992       0.01153
   7     480.5        2.1344        0.0002        4.8368        4.8370       2.702540       0.01285
   6     533.0        2.1436        0.0002        4.7530        4.7532       2.609631       0.01495
   5     589.8        2.1563        0.0002        4.6461        4.6463       2.490026       0.01775
   4     651.6        2.1748        0.0003        4.5042        4.5045       2.329737       0.02192
   3     718.7        2.2016        0.0003        4.3268        4.3271       2.125524       0.02566
   2     792.3        2.2420        0.0003        4.1128        4.1131       1.871081       0.02918
   1     891.5        2.3245        0.0003        3.8106        3.8109       1.486361       0.03274
   0    1013.0        2.4889        0.0003        3.4655        3.4659       0.977006       0.03537



 Wavenumbers:  3250. -  4000. cm-1, ATM      1
 LEVEL PRESSURE   UPWARD FLUX   DIFDOWN FLUX  DIRDOWN FLUX  DOWNWARD FLUX   NET FLUX    HEATING RATE
          mb          W/m2          W/m2          W/m2        W/m2          W/m2       degree/day
  51    .06700        0.3450        0.0000        9.1795        9.1795       8.834514       0.00000
  50    .07753        0.3450        0.0000        9.1748        9.1748       8.829833       3.75179
  49    .09103        0.3450        0.0000        9.1716        9.1716       8.826625       2.00546
  48    0.1069        0.3450        0.0000        9.1693        9.1693       8.824288       1.24390
  47    0.1255        0.3450        0.0000        9.1672        9.1672       8.822224       0.93551
  46    0.1487        0.3450        0.0000        9.1650        9.1650       8.820009       0.80748
  45    0.1794        0.3450        0.0000        9.1624        9.1624       8.817402       0.71558
  44    0.2165        0.3450        0.0000        9.1598        9.1598       8.814773       0.59821
  43    0.2613        0.3450        0.0000        9.1571        9.1571       8.812128       0.49859
  42    0.3336        0.3450        0.0000        9.1535        9.1535       8.808485       0.42467
  41    0.4307        0.3450        0.0000        9.1494        9.1494       8.804434       0.35222
  40    0.5894        0.3450        0.0000        9.1436        9.1436       8.798563       0.31222
  39     1.339        0.3450        0.0000        9.1206        9.1206       8.775571       0.25885
  38     1.782        0.3450        0.0000        9.1101        9.1101       8.765125       0.19887
  37     2.292        0.3450        0.0000        9.1000        9.1000       8.755001       0.16769
  36     2.964        0.3450        0.0000        9.0886        9.0886       8.743587       0.14328
  35     3.853        0.3450        0.0000        9.0751        9.0751       8.730101       0.12798
  34     5.035        0.3450        0.0000        9.0583        9.0583       8.713251       0.12037
  33     6.613        0.3450        0.0000        9.0360        9.0360       8.690964       0.11915
  32     8.786        0.3450        0.0000        9.0048        9.0048       8.659841       0.12087
  31     11.80        0.3450        0.0000        8.9581        8.9581       8.613094       0.13088
  30     15.07        0.3450        0.0000        8.9060        8.9060       8.560983       0.13454
  29     18.79        0.3450        0.0000        8.8456        8.8456       8.500591       0.13693
  28     23.16        0.3450        0.0000        8.7750        8.7750       8.430046       0.13641
  27     28.12        0.3450        0.0000        8.6967        8.6967       8.351728       0.13313
  26     33.73        0.3450        0.0000        8.6146        8.6147       8.269694       0.12334
  25     40.54        0.3450        0.0001        8.5247        8.5248       8.179800       0.11152
  24     48.69        0.3450        0.0001        8.4286        8.4287       8.083708       0.09944
  23     57.69        0.3449        0.0001        8.3337        8.3338       7.988841       0.08892
  22     68.43        0.3449        0.0001        8.2280        8.2281       7.883167       0.08307
  21     81.20        0.3449        0.0001        8.1061        8.1063       7.761344       0.08050
  20     96.49        0.3449        0.0001        7.9644        7.9645       7.619648       0.07821
  19     114.6        0.3449        0.0001        7.8027        7.8029       7.458014       0.07547
  18     136.5        0.3449        0.0002        7.6251        7.6252       7.280393       0.06830
  17     162.9        0.3448        0.0002        7.4319        7.4321       7.087280       0.06173
  16     196.4        0.3448        0.0002        7.2011        7.2013       6.856503       0.05809
  15     218.7        0.3448        0.0003        7.0413        7.0415       6.696772       0.06064
  14     243.0        0.3448        0.0003        6.8393        6.8396       6.494831       0.07004
  13     269.0        0.3448        0.0003        6.5719        6.5722       6.227357       0.08677
  12     297.5        0.3449        0.0003        6.2647        6.2650       5.920119       0.09112
  11     328.5        0.3451        0.0003        5.9492        5.9495       5.604436       0.08583
  10     361.9        0.3454        0.0003        5.6231        5.6235       5.278118       0.08256
   9     398.1        0.3459        0.0004        5.2647        5.2650       4.919165       0.08363
   8     437.6        0.3466        0.0004        4.8624        4.8627       4.516086       0.08618
   7     480.5        0.3479        0.0004        4.4338        4.4342       4.086283       0.08441
   6     533.0        0.3502        0.0004        3.9374        3.9377       3.587524       0.08023
   5     589.8        0.3541        0.0004        3.4461        3.4464       3.092298       0.07351
   4     651.6        0.3614        0.0003        2.9377        2.9381       2.576690       0.07051
   3     718.7        0.3745        0.0003        2.4447        2.4450       2.070568       0.06361
   2     792.3        0.3988        0.0003        1.9658        1.9660       1.567214       0.05773
   1     891.5        0.4621        0.0002        1.4144        1.4146       0.952507       0.05231
   0    1013.0        0.6408        0.0002        0.8921        0.8923       0.251534       0.04867



 Wavenumbers:  4000. -  4650. cm-1, ATM      1
 LEVEL PRESSURE   UPWARD FLUX   DIFDOWN FLUX  DIRDOWN FLUX  DOWNWARD FLUX   NET FLUX    HEATING RATE
          mb          W/m2          W/m2          W/m2        W/m2          W/m2       degree/day
  51    .06700        5.8366        0.0000       10.7795       10.7795       4.942967       0.00000
  50    .07753        5.8366        0.0000       10.7795       10.7795       4.942966       0.00083
  49    .09103        5.8366        0.0000       10.7795       10.7795       4.942965       0.00081
  48    0.1069        5.8366        0.0000       10.7795       10.7795       4.942964       0.00079
  47    0.1255        5.8366        0.0000       10.7795       10.7795       4.942962       0.00078
  46    0.1487        5.8366        0.0000       10.7795       10.7795       4.942960       0.00079
  45    0.1794        5.8366        0.0000       10.7795       10.7795       4.942957       0.00081
  44    0.2165        5.8366        0.0000       10.7795       10.7795       4.942953       0.00079
  43    0.2613        5.8366        0.0000       10.7795       10.7795       4.942949       0.00078
  42    0.3336        5.8366        0.0000       10.7795       10.7795       4.942942       0.00080
  41    0.4307        5.8366        0.0000       10.7795       10.7795       4.942933       0.00081
  40    0.5894        5.8366        0.0000       10.7795       10.7795       4.942917       0.00083
  39     1.339        5.8366        0.0000       10.7794       10.7794       4.942824       0.00105
  38     1.782        5.8366        0.0000       10.7793       10.7793       4.942751       0.00139
  37     2.292        5.8366        0.0000       10.7792       10.7792       4.942653       0.00162
  36     2.964        5.8366        0.0000       10.7791       10.7791       4.942507       0.00184
  35     3.853        5.8366        0.0000       10.7788       10.7789       4.942290       0.00206
  34     5.035        5.8366        0.0000       10.7785       10.7785       4.941970       0.00228
  33     6.613        5.8366        0.0000       10.7780       10.7781       4.941500       0.00252
  32     8.786        5.8366        0.0000       10.7773       10.7774       4.940804       0.00270
  31     11.80        5.8366        0.0001       10.7762       10.7763       4.939710       0.00306
  30     15.07        5.8366        0.0001       10.7750       10.7750       4.938424       0.00332
  29     18.79        5.8366        0.0001       10.7734       10.7735       4.936867       0.00353
  28     23.16        5.8367        0.0001       10.7715       10.7716       4.934930       0.00375
  27     28.12        5.8367        0.0001       10.7691       10.7693       4.932579       0.00400
  26     33.73        5.8368        0.0002       10.7663       10.7664       4.929674       0.00437
  25     40.54        5.8369        0.0002       10.7624       10.7626       4.925722       0.00490
  24     48.69        5.8370        0.0002       10.7572       10.7575       4.920440       0.00547
  23     57.69        5.8372        0.0003       10.7511       10.7514       4.914156       0.00589
  22     68.43        5.8375        0.0003       10.7434       10.7438       4.906250       0.00622
  21     81.20        5.8380        0.0004       10.7340       10.7344       4.896471       0.00646
  20     96.49        5.8386        0.0005       10.7226       10.7231       4.884515       0.00660
  19     114.6        5.8394        0.0006       10.7088       10.7094       4.870001       0.00678
  18     136.5        5.8405        0.0007       10.6922       10.6929       4.852420       0.00676
  17     162.9        5.8420        0.0008       10.6722       10.6730       4.831013       0.00684
  16     196.4        5.8442        0.0009       10.6458       10.6468       4.802501       0.00718
  15     218.7        5.8460        0.0010       10.6279       10.6289       4.782942       0.00743
  14     243.0        5.8482        0.0012       10.6073       10.6085       4.760251       0.00787
  13     269.0        5.8511        0.0013       10.5833       10.5845       4.733446       0.00870
  12     297.5        5.8548        0.0014       10.5546       10.5561       4.701293       0.00954
  11     328.5        5.8594        0.0016       10.5212       10.5227       4.663388       0.01031
  10     361.9        5.8651        0.0017       10.4825       10.4842       4.619124       0.01120
   9     398.1        5.8722        0.0019       10.4376       10.4394       4.567274       0.01208
   8     437.6        5.8810        0.0021       10.3846       10.3867       4.505643       0.01318
   7     480.5        5.8921        0.0022       10.3221       10.3243       4.432178       0.01443
   6     533.0        5.9084        0.0025       10.2349       10.2374       4.328984       0.01660
   5     589.8        5.9297        0.0027       10.1252       10.1279       4.198188       0.01941
   4     651.6        5.9594        0.0030        9.9798        9.9828       4.023379       0.02391
   3     718.7        5.9996        0.0032        9.7992        9.8024       3.802735       0.02773
   2     792.3        6.0563        0.0035        9.5843        9.5878       3.531523       0.03111
   1     891.5        6.1660        0.0038        9.2762        9.2800       3.114089       0.03552
   0    1013.0        6.3774        0.0042        8.8762        8.8804       2.503076       0.04243



 Wavenumbers:  4650. -  5150. cm-1, ATM      1
 LEVEL PRESSURE   UPWARD FLUX   DIFDOWN FLUX  DIRDOWN FLUX  DOWNWARD FLUX   NET FLUX    HEATING RATE
          mb          W/m2          W/m2          W/m2        W/m2          W/m2       degree/day
  51    .06700        4.0401        0.0000       10.2033       10.2033       6.163252       0.00000
  50    .07753        4.0401        0.0000       10.2031       10.2031       6.163022       0.18409
  49    .09103        4.0401        0.0000       10.2028       10.2028       6.162735       0.17950
  48    0.1069        4.0401        0.0000       10.2025       10.2025       6.162407       0.17467
  47    0.1255        4.0401        0.0000       10.2021       10.2021       6.162032       0.16976
  46    0.1487        4.0401        0.0000       10.2017       10.2017       6.161564       0.17085
  45    0.1794        4.0401        0.0000       10.2010       10.2010       6.160930       0.17393
  44    0.2165        4.0401        0.0000       10.2003       10.2003       6.160190       0.16836
  43    0.2613        4.0401        0.0000       10.1994       10.1994       6.159327       0.16266
  42    0.3336        4.0401        0.0000       10.1980       10.1980       6.157931       0.16280
  41    0.4307        4.0401        0.0000       10.1962       10.1962       6.156136       0.15601
  40    0.5894        4.0401        0.0000       10.1934       10.1934       6.153334       0.14903
  39     1.339        4.0401        0.0000       10.1821       10.1821       6.142023       0.12734
  38     1.782        4.0401        0.0000       10.1767       10.1767       6.136625       0.10278
  37     2.292        4.0401        0.0000       10.1714       10.1714       6.131294       0.08830
  36     2.964        4.0401        0.0000       10.1656       10.1656       6.125502       0.07270
  35     3.853        4.0401        0.0000       10.1595       10.1595       6.119417       0.05775
  34     5.035        4.0401        0.0000       10.1533       10.1533       6.113200       0.04441
  33     6.613        4.0401        0.0000       10.1469       10.1469       6.106844       0.03398
  32     8.786        4.0401        0.0001       10.1400       10.1400       6.099915       0.02691
  31     11.80        4.0401        0.0001       10.1310       10.1311       6.090948       0.02510
  30     15.07        4.0401        0.0001       10.1212       10.1213       6.081131       0.02535
  29     18.79        4.0402        0.0001       10.1093       10.1094       6.069187       0.02708
  28     23.16        4.0403        0.0002       10.0941       10.0942       6.053956       0.02945
  27     28.12        4.0404        0.0002       10.0751       10.0753       6.034945       0.03232
  26     33.73        4.0405        0.0002       10.0522       10.0524       6.011941       0.03459
  25     40.54        4.0407        0.0003       10.0225       10.0228       5.982139       0.03697
  24     48.69        4.0409        0.0003        9.9847        9.9850       5.944072       0.03939
  23     57.69        4.0413        0.0004        9.9415        9.9419       5.900620       0.04073
  22     68.43        4.0418        0.0005        9.8893        9.8897       5.847939       0.04141
  21     81.20        4.0425        0.0006        9.8275        9.8280       5.785524       0.04124
  20     96.49        4.0434        0.0007        9.7563        9.7570       5.713544       0.03973
  19     114.6        4.0448        0.0008        9.6772        9.6780       5.633262       0.03749
  18     136.5        4.0466        0.0009        9.5918        9.5927       5.546162       0.03349
  17     162.9        4.0491        0.0011        9.5009        9.5020       5.452908       0.02981
  16     196.4        4.0529        0.0013        9.3963        9.3976       5.344666       0.02725
  15     218.7        4.0559        0.0014        9.3325        9.3339       5.278048       0.02529
  14     243.0        4.0595        0.0016        9.2650        9.2666       5.207143       0.02459
  13     269.0        4.0639        0.0017        9.1925        9.1942       5.130382       0.02490
  12     297.5        4.0693        0.0019        9.1129        9.1148       5.045517       0.02517
  11     328.5        4.0759        0.0021        9.0246        9.0267       4.950834       0.02574
  10     361.9        4.0839        0.0023        8.9260        8.9283       4.844322       0.02695
   9     398.1        4.0939        0.0025        8.8155        8.8180       4.724128       0.02800
   8     437.6        4.1062        0.0027        8.6911        8.6938       4.587605       0.02919
   7     480.5        4.1216        0.0029        8.5514        8.5544       4.432738       0.03042
   6     533.0        4.1442        0.0032        8.3709        8.3741       4.229945       0.03262
   5     589.8        4.1741        0.0035        8.1653        8.1688       3.994642       0.03493
   4     651.6        4.2135        0.0037        7.9333        7.9371       3.723550       0.03707
   3     718.7        4.2665        0.0040        7.6732        7.6772       3.410660       0.03932
   2     792.3        4.3388        0.0043        7.3866        7.3909       3.052113       0.04112
   1     891.5        4.4705        0.0047        6.9956        7.0003       2.529811       0.04445
   0    1013.0        4.7022        0.0050        6.5425        6.5476       1.845377       0.04752



 Wavenumbers:  5150. -  6150. cm-1, ATM      1
 LEVEL PRESSURE   UPWARD FLUX   DIFDOWN FLUX  DIRDOWN FLUX  DOWNWARD FLUX   NET FLUX    HEATING RATE
          mb          W/m2          W/m2          W/m2        W/m2          W/m2       degree/day
  51    .06700       10.1232        0.0000       25.5798       25.5798      15.456610       0.00000
  50    .07753       10.1232        0.0000       25.5798       25.5798      15.456606       0.00393
  49    .09103       10.1232        0.0000       25.5798       25.5798      15.456599       0.00398
  48    0.1069       10.1232        0.0000       25.5798       25.5798      15.456592       0.00403
  47    0.1255       10.1232        0.0000       25.5798       25.5798      15.456583       0.00409
  46    0.1487       10.1232        0.0000       25.5798       25.5798      15.456571       0.00430
  45    0.1794       10.1232        0.0000       25.5798       25.5798      15.456554       0.00457
  44    0.2165       10.1232        0.0000       25.5797       25.5797      15.456534       0.00463
  43    0.2613       10.1232        0.0000       25.5797       25.5797      15.456509       0.00470
  42    0.3336       10.1232        0.0000       25.5797       25.5797      15.456466       0.00496
  41    0.4307       10.1232        0.0000       25.5796       25.5796      15.456408       0.00504
  40    0.5894       10.1232        0.0000       25.5795       25.5795      15.456311       0.00517
  39     1.339       10.1232        0.0000       25.5790       25.5790      15.455834       0.00537
  38     1.782       10.1232        0.0001       25.5787       25.5787      15.455548       0.00544
  37     2.292       10.1232        0.0001       25.5783       25.5784      15.455219       0.00546
  36     2.964       10.1232        0.0001       25.5779       25.5780      15.454790       0.00538
  35     3.853       10.1232        0.0001       25.5773       25.5774      15.454230       0.00531
  34     5.035       10.1232        0.0002       25.5766       25.5767      15.453488       0.00530
  33     6.613       10.1232        0.0002       25.5755       25.5757      15.452493       0.00532
  32     8.786       10.1233        0.0003       25.5741       25.5744      15.451149       0.00522
  31     11.80       10.1233        0.0004       25.5722       25.5726      15.449233       0.00537
  30     15.07       10.1234        0.0005       25.5701       25.5706      15.447190       0.00527
  29     18.79       10.1235        0.0006       25.5678       25.5684      15.444917       0.00515
  28     23.16       10.1236        0.0007       25.5652       25.5659      15.442299       0.00506
  27     28.12       10.1237        0.0009       25.5622       25.5631      15.439344       0.00502
  26     33.73       10.1239        0.0011       25.5590       25.5600      15.436074       0.00492
  25     40.54       10.1242        0.0013       25.5551       25.5564      15.432139       0.00488
  24     48.69       10.1246        0.0015       25.5505       25.5521      15.427458       0.00484
  23     57.69       10.1251        0.0018       25.5456       25.5474      15.422335       0.00480
  22     68.43       10.1257        0.0022       25.5399       25.5420      15.416262       0.00477
  21     81.20       10.1265        0.0026       25.5330       25.5356      15.409027       0.00478
  20     96.49       10.1275        0.0030       25.5248       25.5279      15.400320       0.00481
  19     114.6       10.1288        0.0036       25.5149       25.5185      15.389748       0.00494
  18     136.5       10.1303        0.0043       25.5028       25.5071      15.376800       0.00498
  17     162.9       10.1321        0.0051       25.4851       25.4902      15.358018       0.00600
  16     196.4       10.1346        0.0061       25.4481       25.4542      15.319545       0.00968
  15     218.7       10.1364        0.0068       25.3923       25.3991      15.262773       0.02155
  14     243.0       10.1383        0.0076       25.2838       25.2914      15.153097       0.03804
  13     269.0       10.1405        0.0083       25.1157       25.1240      14.983455       0.05503
  12     297.5       10.1431        0.0092       24.8862       24.8953      14.752204       0.06859
  11     328.5       10.1462        0.0100       24.5894       24.5994      14.453250       0.08128
  10     361.9       10.1498        0.0109       24.2130       24.2239      14.074171       0.09591
   9     398.1       10.1540        0.0118       23.7712       23.7830      13.628974       0.10372
   8     437.6       10.1592        0.0128       23.2776       23.2904      13.131204       0.10643
   7     480.5       10.1657        0.0138       22.7358       22.7496      12.583880       0.10749
   6     533.0       10.1755        0.0149       22.0122       22.0271      11.851644       0.11779
   5     589.8       10.1892        0.0160       21.1318       21.1479      10.958641       0.13255
   4     651.6       10.2109        0.0170       20.0502       20.0672       9.856281       0.15075
   3     718.7       10.2461        0.0180       18.8691       18.8870       8.640918       0.15274
   2     792.3       10.3067        0.0188       17.6444       17.6632       7.356520       0.14731
   1     891.5       10.4528        0.0199       16.2510       16.2710       5.818118       0.13091
   0    1013.0       10.8406        0.0214       15.0725       15.0939       4.253348       0.10865



 Wavenumbers:  6150. -  7700. cm-1, ATM      1
 LEVEL PRESSURE   UPWARD FLUX   DIFDOWN FLUX  DIRDOWN FLUX  DOWNWARD FLUX   NET FLUX    HEATING RATE
          mb          W/m2          W/m2          W/m2        W/m2          W/m2       degree/day
  51    .06700       17.9862        0.0000       47.3108       47.3108      29.324668       0.00000
  50    .07753       17.9862        0.0000       47.3108       47.3108      29.324647       0.01683
  49    .09103       17.9862        0.0000       47.3108       47.3108      29.324621       0.01663
  48    0.1069       17.9862        0.0000       47.3108       47.3108      29.324590       0.01643
  47    0.1255       17.9862        0.0000       47.3107       47.3107      29.324554       0.01623
  46    0.1487       17.9862        0.0000       47.3107       47.3107      29.324508       0.01663
  45    0.1794       17.9862        0.0000       47.3106       47.3106      29.324445       0.01727
  44    0.2165       17.9862        0.0000       47.3105       47.3105      29.324370       0.01710
  43    0.2613       17.9862        0.0000       47.3104       47.3104      29.324280       0.01694
  42    0.3336       17.9862        0.0000       47.3103       47.3103      29.324130       0.01750
  41    0.4307       17.9861        0.0000       47.3100       47.3101      29.323930       0.01743
  40    0.5894       17.9861        0.0001       47.3097       47.3097      29.323600       0.01755
  39     1.339       17.9861        0.0002       47.3079       47.3081      29.322029       0.01769
  38     1.782       17.9860        0.0002       47.3069       47.3072      29.321107       0.01754
  37     2.292       17.9860        0.0003       47.3058       47.3061      29.320048       0.01755
  36     2.964       17.9860        0.0004       47.3042       47.3046      29.318669       0.01731
  35     3.853       17.9859        0.0005       47.3022       47.3027      29.316866       0.01711
  34     5.035       17.9858        0.0007       47.2996       47.3003      29.314489       0.01698
  33     6.613       17.9857        0.0009       47.2961       47.2970      29.311336       0.01686
  32     8.786       17.9855        0.0012       47.2915       47.2926      29.307125       0.01635
  31     11.80       17.9853        0.0016       47.2849       47.2865      29.301180       0.01665
  30     15.07       17.9850        0.0020       47.2779       47.2799      29.294899       0.01622
  29     18.79       17.9847        0.0025       47.2702       47.2727      29.287934       0.01579
  28     23.16       17.9844        0.0031       47.2613       47.2644      29.279954       0.01543
  27     28.12       17.9840        0.0037       47.2513       47.2550      29.271012       0.01520
  26     33.73       17.9836        0.0044       47.2404       47.2448      29.261251       0.01468
  25     40.54       17.9831        0.0053       47.2275       47.2329      29.249780       0.01423
  24     48.69       17.9824        0.0064       47.2124       47.2189      29.236407       0.01384
  23     57.69       17.9818        0.0076       47.1963       47.2039      29.222157       0.01336
  22     68.43       17.9809        0.0090       47.1776       47.1866      29.205691       0.01294
  21     81.20       17.9800        0.0107       47.1559       47.1666      29.186639       0.01259
  20     96.49       17.9788        0.0127       47.1306       47.1433      29.164523       0.01221
  19     114.6       17.9774        0.0151       47.1012       47.1162      29.138795       0.01201
  18     136.5       17.9758        0.0179       47.0668       47.0847      29.108891       0.01150
  17     162.9       17.9739        0.0213       47.0238       47.0451      29.071183       0.01205
  16     196.4       17.9715        0.0257       46.9563       46.9820      29.010528       0.01527
  15     218.7       17.9700        0.0285       46.8819       46.9105      28.940489       0.02659
  14     243.0       17.9687        0.0316       46.7464       46.7780      28.809303       0.04550
  13     269.0       17.9677        0.0349       46.5179       46.5528      28.585138       0.07272
  12     297.5       17.9672        0.0384       46.1882       46.2267      28.259498       0.09658
  11     328.5       17.9673        0.0422       45.7798       45.8219      27.854646       0.11008
  10     361.9       17.9684        0.0461       45.2563       45.3024      27.333958       0.13174
   9     398.1       17.9712        0.0501       44.5844       44.6345      26.663352       0.15624
   8     437.6       17.9766        0.0543       43.7539       43.8082      25.831595       0.17783
   7     480.5       17.9858        0.0585       42.8016       42.8601      24.874341       0.18800
   6     533.0       18.0036        0.0635       41.5743       41.6378      23.634138       0.19951
   5     589.8       18.0348        0.0684       40.1223       40.1907      22.155910       0.21942
   4     651.6       18.0931        0.0729       38.2659       38.3388      20.245706       0.26123
   3     718.7       18.1972        0.0770       36.1202       36.1972      18.000000       0.28222
   2     792.3       18.3865        0.0806       33.7661       33.8467      15.460257       0.29128
   1     891.5       18.8518        0.0846       30.7803       30.8649      12.013081       0.29334
   0    1013.0       20.0185        0.0888       27.7789       27.8677       7.849168       0.28912



 Wavenumbers:  7700. -  8050. cm-1, ATM      1
 LEVEL PRESSURE   UPWARD FLUX   DIFDOWN FLUX  DIRDOWN FLUX  DOWNWARD FLUX   NET FLUX    HEATING RATE
          mb          W/m2          W/m2          W/m2        W/m2          W/m2       degree/day
  51    .06700        6.6012        0.0000       11.1810       11.1810       4.579750       0.00000
  50    .07753        6.6012        0.0000       11.1809       11.1809       4.579728       0.01791
  49    .09103        6.6012        0.0000       11.1809       11.1809       4.579700       0.01755
  48    0.1069        6.6012        0.0000       11.1809       11.1809       4.579668       0.01719
  47    0.1255        6.6012        0.0000       11.1809       11.1809       4.579631       0.01682
  46    0.1487        6.6012        0.0000       11.1808       11.1808       4.579584       0.01706
  45    0.1794        6.6013        0.0000       11.1808       11.1808       4.579520       0.01756
  44    0.2165        6.6013        0.0000       11.1807       11.1807       4.579444       0.01723
  43    0.2613        6.6013        0.0000       11.1806       11.1806       4.579354       0.01690
  42    0.3336        6.6013        0.0000       11.1805       11.1805       4.579206       0.01730
  41    0.4307        6.6014        0.0000       11.1803       11.1804       4.579009       0.01711
  40    0.5894        6.6014        0.0000       11.1801       11.1801       4.578688       0.01709
  39     1.339        6.6017        0.0001       11.1788       11.1789       4.577168       0.01712
  38     1.782        6.6019        0.0001       11.1781       11.1782       4.576275       0.01700
  37     2.292        6.6021        0.0001       11.1772       11.1773       4.575241       0.01712
  36     2.964        6.6024        0.0002       11.1761       11.1762       4.573884       0.01704
  35     3.853        6.6027        0.0002       11.1746       11.1748       4.572091       0.01701
  34     5.035        6.6032        0.0003       11.1726       11.1729       4.569709       0.01701
  33     6.613        6.6038        0.0004       11.1699       11.1703       4.566528       0.01701
  32     8.786        6.6046        0.0005       11.1664       11.1669       4.562243       0.01664
  31     11.80        6.6058        0.0007       11.1613       11.1619       4.556115       0.01715
  30     15.07        6.6071        0.0009       11.1558       11.1567       4.549541       0.01697
  29     18.79        6.6086        0.0011       11.1496       11.1507       4.542122       0.01682
  28     23.16        6.6103        0.0013       11.1424       11.1438       4.533466       0.01674
  27     28.12        6.6123        0.0016       11.1342       11.1358       4.523582       0.01680
  26     33.73        6.6145        0.0019       11.1251       11.1270       4.512540       0.01660
  25     40.54        6.6171        0.0023       11.1141       11.1164       4.499228       0.01651
  24     48.69        6.6204        0.0028       11.1009       11.1036       4.483223       0.01656
  23     57.69        6.6240        0.0033       11.0864       11.0897       4.465698       0.01643
  22     68.43        6.6283        0.0039       11.0693       11.0732       4.444903       0.01635
  21     81.20        6.6335        0.0046       11.0491       11.0537       4.420240       0.01630
  20     96.49        6.6397        0.0054       11.0253       11.0307       4.391008       0.01613
  19     114.6        6.6471        0.0064       10.9972       11.0037       4.356521       0.01610
  18     136.5        6.6561        0.0076       10.9644       10.9720       4.315943       0.01560
  17     162.9        6.6669        0.0091       10.9259       10.9349       4.268022       0.01532
  16     196.4        6.6812        0.0109       10.8768       10.8877       4.206488       0.01549
  15     218.7        6.6907        0.0121       10.8450       10.8572       4.166415       0.01521
  14     243.0        6.7013        0.0134       10.8110       10.8244       4.123128       0.01501
  13     269.0        6.7128        0.0149       10.7745       10.7894       4.076508       0.01512
  12     297.5        6.7256        0.0164       10.7356       10.7520       4.026416       0.01486
  11     328.5        6.7396        0.0181       10.6941       10.7122       3.972578       0.01464
  10     361.9        6.7550        0.0199       10.6500       10.6699       3.914882       0.01460
   9     398.1        6.7719        0.0218       10.6032       10.6249       3.853031       0.01441
   8     437.6        6.7906        0.0238       10.5535       10.5773       3.786771       0.01417
   7     480.5        6.8111        0.0261       10.5009       10.5269       3.715823       0.01393
   6     533.0        6.8372        0.0288       10.4368       10.4656       3.628365       0.01407
   5     589.8        6.8665        0.0317       10.3684       10.4001       3.533630       0.01406
   4     651.6        6.8996        0.0349       10.2951       10.3300       3.430414       0.01412
   3     718.7        6.9370        0.0382       10.2162       10.2545       3.317413       0.01420
   2     792.3        6.9800        0.0419       10.1308       10.1727       3.192692       0.01430
   1     891.5        7.0431        0.0467       10.0132       10.0599       3.016732       0.01497
   0    1013.0        7.1275        0.0525        9.8675        9.9200       2.792462       0.01557



 Wavenumbers:  8050. - 12850. cm-1, ATM      1
 LEVEL PRESSURE   UPWARD FLUX   DIFDOWN FLUX  DIRDOWN FLUX  DOWNWARD FLUX   NET FLUX    HEATING RATE
          mb          W/m2          W/m2          W/m2        W/m2          W/m2       degree/day
  51    .06700       97.7489        0.0000      156.5418      156.5418      58.792872       0.00000
  50    .07753       97.7489        0.0000      156.5417      156.5417      58.792872       0.00000
  49    .09103       97.7489        0.0001      156.5417      156.5417      58.792872       0.00000
  48    0.1069       97.7488        0.0001      156.5416      156.5417      58.792872      -0.00000
  47    0.1255       97.7488        0.0002      156.5415      156.5417      58.792872       0.00000
  46    0.1487       97.7488        0.0002      156.5414      156.5417      58.792872      -0.00000
  45    0.1794       97.7488        0.0003      156.5413      156.5416      58.792872       0.00000
  44    0.2165       97.7487        0.0004      156.5412      156.5416      58.792872       0.00000
  43    0.2613       97.7487        0.0006      156.5410      156.5415      58.792872      -0.00000
  42    0.3336       97.7486        0.0008      156.5407      156.5415      58.792872       0.00000
  41    0.4307       97.7485        0.0010      156.5403      156.5413      58.792872       0.00000
  40    0.5894       97.7483        0.0015      156.5397      156.5412      58.792872      -0.00000
  39     1.339       97.7475        0.0036      156.5367      156.5403      58.792872       0.00000
  38     1.782       97.7470        0.0049      156.5350      156.5399      58.792872      -0.00000
  37     2.292       97.7464        0.0063      156.5330      156.5393      58.792872       0.00000
  36     2.964       97.7457        0.0082      156.5303      156.5386      58.792872       0.00000
  35     3.853       97.7447        0.0107      156.5268      156.5376      58.792872       0.00000
  34     5.035       97.7434        0.0141      156.5222      156.5363      58.792872      -0.00000
  33     6.613       97.7417        0.0185      156.5160      156.5345      58.792872       0.00000
  32     8.786       97.7393        0.0246      156.5076      156.5322      58.792872       0.00000
  31     11.80       97.7360        0.0332      156.4957      156.5288      58.792872      -0.00000
  30     15.07       97.7324        0.0425      156.4828      156.5252      58.792872       0.00000
  29     18.79       97.7283        0.0529      156.4682      156.5212      58.792872      -0.00000
  28     23.16       97.7235        0.0652      156.4512      156.5164      58.792872       0.00000
  27     28.12       97.7181        0.0792      156.4317      156.5109      58.792872      -0.00000
  26     33.73       97.7120        0.0950      156.4099      156.5048      58.792872       0.00000
  25     40.54       97.7046        0.1140      156.3834      156.4974      58.792872       0.00000
  24     48.69       97.6956        0.1370      156.3515      156.4885      58.792872      -0.00000
  23     57.69       97.6858        0.1622      156.3164      156.4787      58.792872       0.00000
  22     68.43       97.6741        0.1924      156.2746      156.4669      58.792872       0.00000
  21     81.20       97.6601        0.2284      156.2246      156.4529      58.792872       0.00000
  20     96.49       97.6434        0.2713      156.1649      156.4362      58.792872       0.00000
  19     114.6       97.6235        0.3224      156.0933      156.4156      58.792133       0.00034
  18     136.5       97.5999        0.3831      156.0081      156.3911      58.791212       0.00035
  17     162.9       97.5718        0.4555      155.9060      156.3614      58.789676       0.00049
  16     196.4       97.5352        0.5497      155.7712      156.3209      58.785687       0.00100
  15     218.7       97.5112        0.6117      155.6776      156.2892      58.778011       0.00291
  14     243.0       97.4854        0.6792      155.5651      156.2443      58.758836       0.00665
  13     269.0       97.4581        0.7525      155.4216      156.1741      58.716011       0.01389
  12     297.5       97.4299        0.8319      155.2315      156.0634      58.633458       0.02448
  11     328.5       97.4011        0.9178      154.9915      155.9092      58.508154       0.03407
  10     361.9       97.3724        1.0104      154.6942      155.7046      58.332197       0.04452
   9     398.1       97.3453        1.1102      154.3280      155.4382      58.092878       0.05576
   8     437.6       97.3221        1.2174      153.8786      155.0960      57.773843       0.06821
   7     480.5       97.3058        1.3324      153.3404      154.6728      57.366975       0.07991
   6     533.0       97.3015        1.4739      152.5962      154.0701      56.768628       0.09625
   5     589.8       97.3255        1.6261      151.6560      153.2821      55.956665       0.12052
   4     651.6       97.4104        1.7885      150.3678      152.1563      54.745817       0.16559
   3     718.7       97.5969        1.9601      148.6599      150.6199      53.023024       0.21651
   2     792.3       97.9700        2.1393      146.4018      148.5411      50.571150       0.28120
   1     891.5       98.9066        2.3726      142.7268      145.0993      46.192698       0.37259
   0    1013.0      101.0509        2.6395      137.8013      140.4409      39.389938       0.47235



 Wavenumbers: 12850. - 16000. cm-1, ATM      1
 LEVEL PRESSURE   UPWARD FLUX   DIFDOWN FLUX  DIRDOWN FLUX  DOWNWARD FLUX   NET FLUX    HEATING RATE
          mb          W/m2          W/m2          W/m2        W/m2          W/m2       degree/day
  51    .06700       76.5361        0.0000       98.0872       98.0872      21.551108       0.00000
  50    .07753       76.5361        0.0001       98.0864       98.0864      21.550315       0.63523
  49    .09103       76.5361        0.0002       98.0853       98.0854      21.549320       0.62225
  48    0.1069       76.5361        0.0003       98.0841       98.0843      21.548176       0.60904
  47    0.1255       76.5361        0.0004       98.0826       98.0830      21.546861       0.59614
  46    0.1487       76.5362        0.0005       98.0809       98.0814      21.545200       0.60513
  45    0.1794       76.5362        0.0007       98.0784       98.0792      21.542941       0.62020
  44    0.2165       76.5363        0.0010       98.0756       98.0766      21.540283       0.60479
  43    0.2613       76.5364        0.0012       98.0723       98.0736      21.537155       0.58963
  42    0.3336       76.5367        0.0017       98.0670       98.0687      21.532046       0.59561
  41    0.4307       76.5371        0.0023       98.0602       98.0625      21.525435       0.57480
  40    0.5894       76.5379        0.0033       98.0496       98.0529      21.515007       0.55454
  39     1.339       76.5449        0.0081       98.0043       98.0125      21.467586       0.53388
  38     1.782       76.5512        0.0109       97.9793       97.9902      21.439006       0.54411
  37     2.292       76.5606        0.0142       97.9498       97.9640      21.403335       0.59080
  36     2.964       76.5762        0.0184       97.9088       97.9273      21.351075       0.65602
  35     3.853       76.6012        0.0241       97.8503       97.8744      21.273163       0.73940
  34     5.035       76.6390        0.0315       97.7680       97.7995      21.160556       0.80442
  33     6.613       76.6916        0.0415       97.6562       97.6977      21.006064       0.82591
  32     8.786       76.7602        0.0550       97.5107       97.5656      20.805393       0.77933
  31     11.80       76.8496        0.0742       97.3179       97.3920      20.542438       0.73619
  30     15.07       76.9353        0.0948       97.1283       97.2231      20.287817       0.65738
  29     18.79       77.0229        0.1180       96.9300       97.0480      20.025171       0.59550
  28     23.16       77.1146        0.1451       96.7166       96.8617      19.747165       0.53757
  27     28.12       77.2070        0.1762       96.4935       96.6697      19.462649       0.48366
  26     33.73       77.2927        0.2109       96.2731       96.4840      19.191252       0.40805
  25     40.54       77.3757        0.2528       96.0408       96.2936      18.917867       0.33916
  24     48.69       77.4559        0.3034       95.7946       96.0979      18.642090       0.28539
  23     57.69       77.5246        0.3589       95.5573       95.9162      18.391585       0.23481
  22     68.43       77.5857        0.4251       95.3106       95.7357      18.150059       0.18987
  21     81.20       77.6298        0.5041       95.0644       95.5684      17.938603       0.13973
  20     96.49       77.6561        0.5983       94.8153       95.4136      17.757513       0.09995
  19     114.6       77.6824        0.7110       94.5412       95.2522      17.569809       0.08764
  18     136.5       77.7030        0.8446       94.2324       95.0771      17.374040       0.07528
  17     162.9       77.7180        1.0037       93.8760       94.8797      17.161692       0.06788
  16     196.4       77.7170        1.2101       93.4358       94.6459      16.928900       0.05860
  15     218.7       77.7091        1.3456       93.1534       94.4990      16.789907       0.05277
  14     243.0       77.6974        1.4928       92.8483       94.3411      16.643721       0.05070
  13     269.0       77.6817        1.6524       92.5207       94.1731      16.491336       0.04943
  12     297.5       77.6621        1.8248       92.1695       93.9942      16.332133       0.04722
  11     328.5       77.6403        2.0110       91.7915       93.8026      16.162313       0.04617
  10     361.9       77.6166        2.2116       91.3863       93.5979      15.981374       0.04578
   9     398.1       77.5913        2.4274       90.9527       93.3801      15.788762       0.04487
   8     437.6       77.5658        2.6592       90.4883       93.1474      15.581672       0.04428
   7     480.5       77.5405        2.9076       89.9918       92.8994      15.358881       0.04376
   6     533.0       77.5140        3.2135       89.3799       92.5934      15.079378       0.04496
   5     589.8       77.4935        3.5433       88.7161       92.2594      14.765913       0.04653
   4     651.6       77.4860        3.8977       87.9901       91.8878      14.401794       0.04979
   3     718.7       77.4994        4.2776       87.1934       91.4709      13.971512       0.05407
   2     792.3       77.5496        4.6829       86.3116       90.9945      13.444927       0.06039
   1     891.5       77.6972        5.2266       85.0698       90.2965      12.599281       0.07196
   0    1013.0       78.0266        5.8737       83.5164       89.3900      11.363381       0.08581



 Wavenumbers: 16000. - 22650. cm-1, ATM      1
 LEVEL PRESSURE   UPWARD FLUX   DIFDOWN FLUX  DIRDOWN FLUX  DOWNWARD FLUX   NET FLUX    HEATING RATE
          mb          W/m2          W/m2          W/m2        W/m2          W/m2       degree/day
  51    .06700      141.5862        0.0000      156.3892      156.3892      14.803069       0.00000
  50    .07753      141.5862        0.0004      156.3887      156.3891      14.802921       0.11899
  49    .09103      141.5861        0.0009      156.3879      156.3888      14.802705       0.13496
  48    0.1069      141.5861        0.0015      156.3871      156.3885      14.802416       0.15390
  47    0.1255      141.5862        0.0021      156.3861      156.3882      14.802029       0.17542
  46    0.1487      141.5862        0.0030      156.3847      156.3877      14.801458       0.20787
  45    0.1794      141.5863        0.0041      156.3828      156.3869      14.800567       0.24476
  44    0.2165      141.5866        0.0054      156.3805      156.3859      14.799358       0.27508
  43    0.2613      141.5869        0.0070      156.3776      156.3846      14.797717       0.30925
  42    0.3336      141.5877        0.0097      156.3726      156.3823      14.794598       0.36368
  41    0.4307      141.5890        0.0132      156.3657      156.3789      14.789896       0.40881
  40    0.5894      141.5916        0.0189      156.3537      156.3725      14.780929       0.47686
  39     1.339      141.6146        0.0459      156.2834      156.3293      14.714678       0.74586
  38     1.782      141.6358        0.0617      156.2324      156.2941      14.658240       1.07449
  37     2.292      141.6676        0.0801      156.1641      156.2442      14.576546       1.35308
  36     2.964      141.7205        0.1042      156.0605      156.1647      14.444199       1.66135
  35     3.853      141.8058        0.1360      155.9041      156.0400      14.234195       1.99298
  34     5.035      141.9346        0.1782      155.6774      155.8555      13.920881       2.23818
  33     6.613      142.1146        0.2345      155.3656      155.6001      13.485458       2.32777
  32     8.786      142.3491        0.3103      154.9577      155.2679      12.918861       2.20046
  31     11.80      142.6542        0.4185      154.4153      154.8338      12.179574       2.06977
  30     15.07      142.9466        0.5346      153.8804      154.4150      11.468377       1.83617
  29     18.79      143.2451        0.6655      153.3191      153.9846      10.739441       1.65272
  28     23.16      143.5572        0.8182      152.7126      153.5307       9.973487       1.48111
  27     28.12      143.8714        0.9925      152.0755      153.0680       9.196651       1.32057
  26     33.73      144.1614        1.1874      151.4409      152.6284       8.466939       1.09714
  25     40.54      144.4407        1.4227      150.7637      152.1864       7.745693       0.89479
  24     48.69      144.7083        1.7061      150.0339      151.7399       7.031620       0.73895
  23     57.69      144.9354        2.0169      149.3151      151.3321       6.396711       0.59513
  22     68.43      145.1337        2.3868      148.5476      150.9344       5.800677       0.46856
  21     81.20      145.2713        2.8272      147.7517      150.5789       5.307599       0.32582
  20     96.49      145.3434        3.3514      146.9127      150.2641       4.920643       0.21357
  19     114.6      145.3814        3.9721      145.9763      149.9484       4.566964       0.16514
  18     136.5      145.3947        4.7049      144.9088      149.6138       4.219033       0.13379
  17     162.9      145.3817        5.5736      143.6786      149.2522       3.870517       0.11140
  16     196.4      145.3025        6.6944      142.1652      148.8596       3.557135       0.07888
  15     218.7      145.2276        7.4268      141.2037      148.6305       3.402911       0.05855
  14     243.0      145.1356        8.2196      140.1760      148.3956       3.260013       0.04956
  13     269.0      145.0248        9.0747      139.0812      148.1560       3.131211       0.04178
  12     297.5      144.8943        9.9944      137.9173      147.9117       3.017403       0.03375
  11     328.5      144.7483       10.9828      136.6735      147.6564       2.908107       0.02972
  10     361.9      144.5861       12.0410      135.3491      147.3901       2.803962       0.02635
   9     398.1      144.4071       13.1728      133.9392      147.1120       2.704899       0.02308
   8     437.6      144.2117       14.3803      132.4405      146.8208       2.609059       0.02049
   7     480.5      143.9991       15.6657      130.8509      146.5166       2.517458       0.01799
   6     533.0      143.7345       17.2354      128.9156      146.1511       2.416536       0.01624
   5     589.8      143.4483       18.9125      126.8527      145.7651       2.316795       0.01480
   4     651.6      143.1416       20.6982      124.6587      145.3569       2.215305       0.01388
   3     718.7      142.8149       22.5944      122.3305      144.9249       2.109988       0.01324
   2     792.3      142.4708       24.5996      119.8675      144.4671       1.996289       0.01304
   1     891.5      142.0201       27.2640      116.5881      143.8521       1.831965       0.01398
   0    1013.0      141.5020       30.3998      112.7169      143.1167       1.614691       0.01509



 Wavenumbers: 22650. - 29000. cm-1, ATM      1
 LEVEL PRESSURE   UPWARD FLUX   DIFDOWN FLUX  DIRDOWN FLUX  DOWNWARD FLUX   NET FLUX    HEATING RATE
          mb          W/m2          W/m2          W/m2        W/m2          W/m2       degree/day
  51    .06700       58.3821        0.0000       59.0156       59.0156       0.633509       0.00000
  50    .07753       58.3820        0.0005       59.0151       59.0155       0.633509      -0.00000
  49    .09103       58.3819        0.0010       59.0144       59.0154       0.633509       0.00000
  48    0.1069       58.3818        0.0017       59.0136       59.0153       0.633509      -0.00000
  47    0.1255       58.3816        0.0025       59.0127       59.0151       0.633509      -0.00000
  46    0.1487       58.3814        0.0034       59.0115       59.0149       0.633509       0.00000
  45    0.1794       58.3812        0.0048       59.0099       59.0147       0.633509       0.00000
  44    0.2165       58.3809        0.0063       59.0080       59.0144       0.633509       0.00000
  43    0.2613       58.3805        0.0082       59.0058       59.0140       0.633509      -0.00000
  42    0.3336       58.3799        0.0113       59.0022       59.0134       0.633509       0.00000
  41    0.4307       58.3791        0.0153       58.9973       59.0126       0.633509       0.00000
  40    0.5894       58.3778        0.0220       58.9894       59.0113       0.633509      -0.00000
  39     1.339       58.3717        0.0534       58.9518       59.0052       0.633509       0.00000
  38     1.782       58.3681        0.0719       58.9297       59.0016       0.633509       0.00000
  37     2.292       58.3639        0.0933       58.9042       58.9974       0.633509      -0.00000
  36     2.964       58.3584        0.1213       58.8706       58.9920       0.633509       0.00000
  35     3.853       58.3512        0.1584       58.8264       58.9847       0.633509       0.00000
  34     5.035       58.3416        0.2076       58.7676       58.9751       0.633509      -0.00000
  33     6.613       58.3288        0.2732       58.6891       58.9623       0.633509       0.00000
  32     8.786       58.3116        0.3617       58.5834       58.9451       0.633509      -0.00000
  31     11.80       58.2869        0.4880       58.4325       58.9205       0.633509       0.00000
  30     15.07       58.2605        0.6234       58.2706       58.8940       0.633509      -0.00000
  29     18.79       58.2308        0.7760       58.0882       58.8643       0.633509       0.00000
  28     23.16       58.1961        0.9539       57.8757       58.8296       0.633509       0.00000
  27     28.12       58.1565        1.1567       57.6333       58.7900       0.633509       0.00000
  26     33.73       58.1124        1.3828       57.3631       58.7459       0.633509      -0.00000
  25     40.54       58.0593        1.6549       57.0379       58.6928       0.633509       0.00000
  24     48.69       57.9956        1.9812       56.6479       58.6291       0.633509      -0.00000
  23     57.69       57.9260        2.3375       56.2221       58.5596       0.633509       0.00000
  22     68.43       57.8438        2.7587       55.7186       58.4773       0.633509      -0.00000
  21     81.20       57.7466        3.2562       55.1239       58.3801       0.633509       0.00000
  20     96.49       57.6320        3.8427       54.4228       58.2655       0.633509      -0.00000
  19     114.6       57.4976        4.5301       53.6010       58.1311       0.633509       0.00000
  18     136.5       57.3407        5.3324       52.6418       57.9742       0.633509       0.00000
  17     162.9       57.1571        6.2703       51.5204       57.7906       0.633509      -0.00000
  16     196.4       56.9244        7.4584       50.0995       57.5579       0.633509      -0.00000
  15     218.7       56.7747        8.2219       49.1863       57.4082       0.633509       0.00000
  14     243.0       56.6148        9.0369       48.2114       57.2483       0.633509       0.00000
  13     269.0       56.4447        9.9031       47.1752       57.0782       0.633509      -0.00000
  12     297.5       56.2647       10.8195       46.0787       56.8982       0.633509       0.00000
  11     328.5       56.0743       11.7874       44.9204       56.7078       0.633509      -0.00000
  10     361.9       55.8741       12.8044       43.7032       56.5076       0.633509       0.00000
   9     398.1       55.6640       13.8704       42.4271       56.2975       0.633509      -0.00000
   8     437.6       55.4443       14.9831       41.0947       56.0779       0.633509       0.00000
   7     480.5       55.2157       16.1401       39.7090       55.8492       0.633509       0.00000
   6     533.0       54.9435       17.5151       38.0619       55.5770       0.633509       0.00000
   5     589.8       54.6610       18.9387       36.3558       55.2946       0.633509       0.00000
   4     651.6       54.3695       20.4049       34.5981       55.0030       0.633509       0.00000
   3     718.7       54.0701       21.9067       32.7969       54.7036       0.633509      -0.00000
   2     792.3       53.7643       23.4360       30.9619       54.3978       0.633509       0.00000
   1     891.5       53.3755       25.3731       28.6359       54.0090       0.633509       0.00000
   0    1013.0       52.9411       27.5252       26.0494       53.5746       0.633509       0.00000



 Wavenumbers: 29000. - 38000. cm-1, ATM      1
 LEVEL PRESSURE   UPWARD FLUX   DIFDOWN FLUX  DIRDOWN FLUX  DOWNWARD FLUX   NET FLUX    HEATING RATE
          mb          W/m2          W/m2          W/m2        W/m2          W/m2       degree/day
  51    .06700        8.7365        0.0000       20.8114       20.8114      12.074867       0.00000
  50    .07753        8.7363        0.0003       20.8070       20.8074      12.071060       3.05152
  49    .09103        8.7361        0.0007       20.8009       20.8016      12.065523       3.46081
  48    0.1069        8.7358        0.0012       20.7928       20.7939      12.058113       3.94425
  47    0.1255        8.7355        0.0017       20.7820       20.7837      12.048208       4.49029
  46    0.1487        8.7352        0.0024       20.7665       20.7688      12.033645       5.30838
  45    0.1794        8.7347        0.0033       20.7424       20.7457      12.010981       6.22197
  44    0.2165        8.7342        0.0044       20.7103       20.7147      11.980458       6.94332
  43    0.2613        8.7336        0.0056       20.6675       20.6731      11.939464       7.72723
  42    0.3336        8.7327        0.0077       20.5880       20.5956      11.862904       8.92613
  41    0.4307        8.7317        0.0104       20.4722       20.4826      11.750953       9.73389
  40    0.5894        8.7301        0.0147       20.2637       20.2784      11.548272      10.77831
  39     1.339        8.7267        0.0331       19.0984       19.1315      10.404818      12.87322
  38     1.782        8.7271        0.0427       18.4394       18.4820       9.754912      12.37315
  37     2.292        8.7298        0.0530       17.7714       17.8244       9.094594      10.93659
  36     2.964        8.7363        0.0656       17.0421       17.1078       8.371513       9.07685
  35     3.853        8.7490        0.0816       16.2679       16.3494       7.600401       7.31799
  34     5.035        8.7700        0.1017       15.4803       15.5820       6.812006       5.63197
  33     6.613        8.8006        0.1275       14.7157       14.8432       6.042561       4.11346
  32     8.786        8.8410        0.1612       13.9936       14.1548       5.313792       2.83027
  31     11.80        8.8937        0.2082       13.2835       13.4918       4.598067       2.00380
  30     15.07        8.9445        0.2570       12.7394       12.9963       4.051826       1.41029
  29     18.79        8.9970        0.3110       12.2666       12.5776       3.580622       1.06836
  28     23.16        9.0528        0.3725       11.8300       12.2025       3.149744       0.83318
  27     28.12        9.1099        0.4413       11.4279       11.8692       2.759322       0.66369
  26     33.73        9.1625        0.5172       11.0695       11.5866       2.424078       0.50405
  25     40.54        9.2125        0.6078       10.7209       11.3287       2.116177       0.38199
  24     48.69        9.2596        0.7153       10.3742       11.0895       1.829893       0.29626
  23     57.69        9.2982        0.8317       10.0549       10.8866       1.588383       0.22638
  22     68.43        9.3293        0.9682        9.7327       10.7009       1.371587       0.17043
  21     81.20        9.3441        1.1294        9.4134       10.5428       1.198728       0.11422
  20     96.49        9.3405        1.3189        9.0887       10.4076       1.067151       0.07262
  19     114.6        9.3265        1.5378        8.7388       10.2766       0.950040       0.05468
  18     136.5        9.3053        1.7881        8.3549       10.1430       0.837678       0.04321
  17     162.9        9.2768        2.0733        7.9311       10.0045       0.727673       0.03516
  16     196.4        9.2291        2.4267        7.4333        9.8600       0.630858       0.02437
  15     218.7        9.1948        2.6489        7.1296        9.7785       0.583643       0.01793
  14     243.0        9.1572        2.8812        6.8161        9.6973       0.540049       0.01512
  13     269.0        9.1162        3.1227        6.4944        9.6171       0.500907       0.01270
  12     297.5        9.0717        3.3723        6.1659        9.5381       0.466405       0.01023
  11     328.5        9.0253        3.6290        5.8296        9.4587       0.433375       0.00898
  10     361.9        8.9774        3.8904        5.4889        9.3793       0.401964       0.00795
   9     398.1        8.9280        4.1559        5.1443        9.3002       0.372200       0.00693
   8     437.6        8.8778        4.4240        4.7973        9.2214       0.343512       0.00613
   7     480.5        8.8271        4.6926        4.4507        9.1434       0.316280       0.00535
   6     533.0        8.7689        4.9984        4.0571        9.0555       0.286605       0.00477
   5     589.8        8.7116        5.2992        3.6703        8.9695       0.257876       0.00426
   4     651.6        8.6559        5.5928        3.2928        8.8856       0.229768       0.00384
   3     718.7        8.6024        5.8762        2.9284        8.8046       0.202242       0.00346
   2     792.3        8.5520        6.1460        2.5813        8.7273       0.175303       0.00309
   1     891.5        8.4939        6.4626        2.1734        8.6360       0.142048       0.00283
   0    1013.0        8.4382        6.7797        1.7638        8.5435       0.105328       0.00255



 Wavenumbers: 38000. - 50000. cm-1, ATM      1
 LEVEL PRESSURE   UPWARD FLUX   DIFDOWN FLUX  DIRDOWN FLUX  DOWNWARD FLUX   NET FLUX    HEATING RATE
          mb          W/m2          W/m2          W/m2        W/m2          W/m2       degree/day
  51    .06700        0.0061        0.0000        1.2836        1.2836       1.277518       0.00000
  50    .07753        0.0061        0.0001        1.2812        1.2812       1.275183       1.87150
  49    .09103        0.0060        0.0002        1.2777        1.2778       1.271851       2.08247
  48    0.1069        0.0059        0.0002        1.2731        1.2734       1.267473       2.33059
  47    0.1255        0.0058        0.0004        1.2672        1.2675       1.261717       2.60908
  46    0.1487        0.0057        0.0005        1.2586        1.2591       1.253391       3.03499
  45    0.1794        0.0055        0.0007        1.2455        1.2462       1.240623       3.50520
  44    0.2165        0.0054        0.0009        1.2282        1.2291       1.223697       3.85037
  43    0.2613        0.0052        0.0011        1.2054        1.2065       1.201348       4.21261
  42    0.3336        0.0049        0.0015        1.1639        1.1654       1.160524       4.75970
  41    0.4307        0.0045        0.0020        1.1051        1.1070       1.102565       5.03943
  40    0.5894        0.0039        0.0026        1.0039        1.0064       1.002524       5.32007
  39     1.339        0.0022        0.0035        0.5438        0.5473       0.545105       5.14971
  38     1.782        0.0016        0.0032        0.3635        0.3666       0.365006       3.42879
  37     2.292        0.0012        0.0027        0.2356        0.2383       0.237058       2.11916
  36     2.964        0.0009        0.0022        0.1455        0.1477       0.146786       1.13318
  35     3.853        0.0006        0.0017        0.0858        0.0875       0.086906       0.56828
  34     5.035        0.0004        0.0013        0.0488        0.0501       0.049701       0.26578
  33     6.613        0.0003        0.0010        0.0273        0.0282       0.027974       0.11615
  32     8.786        0.0002        0.0007        0.0144        0.0151       0.014928       0.05067
  31     11.80        0.0001        0.0004        0.0065        0.0070       0.006903       0.02247
  30     15.07        0.0000        0.0003        0.0031        0.0034       0.003329       0.00923
  29     18.79        0.0000        0.0002        0.0014        0.0016       0.001583       0.00396
  28     23.16        0.0000        0.0001        0.0006        0.0007       0.000720       0.00167
  27     28.12        0.0000        0.0001        0.0003        0.0003       0.000317       0.00069
  26     33.73        0.0000        0.0000        0.0001        0.0001       0.000140       0.00027
  25     40.54        0.0000        0.0000        0.0000        0.0001       0.000057       0.00010
  24     48.69        0.0000        0.0000        0.0000        0.0000       0.000021       0.00004
  23     57.69        0.0000        0.0000        0.0000        0.0000       0.000008       0.00001
  22     68.43        0.0000        0.0000        0.0000        0.0000       0.000003       0.00000
  21     81.20        0.0000        0.0000        0.0000        0.0000       0.000001       0.00000
  20     96.49        0.0000        0.0000        0.0000        0.0000       0.000000       0.00000
  19     114.6        0.0000        0.0000        0.0000        0.0000       0.000000       0.00000
  18     136.5        0.0000        0.0000        0.0000        0.0000       0.000000       0.00000
  17     162.9        0.0000        0.0000        0.0000        0.0000       0.000000       0.00000
  16     196.4        0.0000        0.0000        0.0000        0.0000       0.000000       0.00000
  15     218.7        0.0000        0.0000        0.0000        0.0000       0.000000       0.00000
  14     243.0        0.0000        0.0000        0.0000        0.0000       0.000000       0.00000
  13     269.0        0.0000        0.0000        0.0000        0.0000       0.000000       0.00000
  12     297.5        0.0000        0.0000        0.0000        0.0000       0.000000       0.00000
  11     328.5        0.0000        0.0000        0.0000        0.0000       0.000000       0.00000
  10     361.9        0.0000        0.0000        0.0000        0.0000       0.000000       0.00000
   9     398.1        0.0000        0.0000        0.0000        0.0000       0.000000       0.00000
   8     437.6        0.0000        0.0000        0.0000        0.0000       0.000000       0.00000
   7     480.5        0.0000        0.0000        0.0000        0.0000       0.000000       0.00000
   6     533.0        0.0000        0.0000        0.0000        0.0000       0.000000       0.00000
   5     589.8        0.0000        0.0000        0.0000        0.0000       0.000000       0.00000
   4     651.6        0.0000        0.0000        0.0000        0.0000       0.000000       0.00000
   3     718.7        0.0000        0.0000        0.0000        0.0000       0.000000       0.00000
   2     792.3        0.0000        0.0000        0.0000        0.0000       0.000000       0.00000
   1     891.5        0.0000        0.0000        0.0000        0.0000       0.000000       0.00000
   0    1013.0        0.0000        0.0000        0.0000        0.0000       0.000000       0.00000



 Wavenumbers:   820. -  2600. cm-1, ATM      1
 LEVEL PRESSURE   UPWARD FLUX   DIFDOWN FLUX  DIRDOWN FLUX  DOWNWARD FLUX   NET FLUX    HEATING RATE
          mb          W/m2          W/m2          W/m2        W/m2          W/m2       degree/day
  51    .06700        1.8174        0.0000        6.0047        6.0047       4.187223       0.00000
  50    .07753        1.8174        0.0000        6.0009        6.0009       4.183435       3.03626
  49    .09103        1.8174        0.0000        6.0001        6.0001       4.182634       0.50079
  48    0.1069        1.8174        0.0000        5.9992        5.9992       4.181745       0.47284
  47    0.1255        1.8174        0.0000        5.9982        5.9982       4.180749       0.45194
  46    0.1487        1.8174        0.0000        5.9970        5.9970       4.179550       0.43705
  45    0.1794        1.8174        0.0000        5.9955        5.9955       4.178053       0.41073
  44    0.2165        1.8174        0.0000        5.9939        5.9939       4.176485       0.35687
  43    0.2613        1.8174        0.0000        5.9923        5.9923       4.174861       0.30611
  42    0.3336        1.8174        0.0000        5.9900        5.9900       4.172555       0.26880
  41    0.4307        1.8174        0.0000        5.9873        5.9873       4.169863       0.23405
  40    0.5894        1.8174        0.0000        5.9831        5.9831       4.165658       0.22365
  39     1.339        1.8174        0.0000        5.9638        5.9638       4.146320       0.21770
  38     1.782        1.8174        0.0000        5.9531        5.9531       4.135633       0.20347
  37     2.292        1.8174        0.0000        5.9411        5.9411       4.123660       0.19831
  36     2.964        1.8174        0.0000        5.9259        5.9259       4.108427       0.19121
  35     3.853        1.8174        0.0000        5.9065        5.9065       4.089072       0.18369
  34     5.035        1.8174        0.0000        5.8820        5.8820       4.064529       0.17532
  33     6.613        1.8174        0.0000        5.8502        5.8502       4.032768       0.16980
  32     8.786        1.8175        0.0000        5.8081        5.8081       3.990622       0.16368
  31     11.80        1.8175        0.0000        5.7523        5.7523       3.934871       0.15609
  30     15.07        1.8175        0.0000        5.7031        5.7031       3.885656       0.12706
  29     18.79        1.8175        0.0000        5.6623        5.6623       3.844805       0.09262
  28     23.16        1.8175        0.0000        5.6309        5.6309       3.813336       0.06085
  27     28.12        1.8176        0.0000        5.6079        5.6079       3.790371       0.03904
  26     33.73        1.8176        0.0000        5.5896        5.5896       3.772053       0.02754
  25     40.54        1.8176        0.0000        5.5707        5.5707       3.753078       0.02354
  24     48.69        1.8177        0.0000        5.5485        5.5485       3.730805       0.02305
  23     57.69        1.8178        0.0000        5.5237        5.5238       3.705974       0.02328
  22     68.43        1.8179        0.0000        5.4938        5.4938       3.675942       0.02361
  21     81.20        1.8180        0.0000        5.4586        5.4586       3.640569       0.02337
  20     96.49        1.8182        0.0000        5.4172        5.4172       3.599043       0.02292
  19     114.6        1.8184        0.0000        5.3699        5.3700       3.551568       0.02217
  18     136.5        1.8186        0.0000        5.3170        5.3170       3.498393       0.02045
  17     162.9        1.8190        0.0000        5.2573        5.2573       3.438332       0.01920
  16     196.4        1.8194        0.0000        5.1824        5.1824       3.363030       0.01895
  15     218.7        1.8198        0.0000        5.1304        5.1305       3.310702       0.01987
  14     243.0        1.8202        0.0000        5.0656        5.0657       3.245427       0.02264
  13     269.0        1.8209        0.0000        4.9828        4.9829       3.162002       0.02706
  12     297.5        1.8217        0.0000        4.8769        4.8769       3.055216       0.03167
  11     328.5        1.8228        0.0000        4.7629        4.7629       2.940137       0.03129
  10     361.9        1.8241        0.0000        4.6474        4.6474       2.823314       0.02956
   9     398.1        1.8258        0.0001        4.5318        4.5318       2.706054       0.02732
   8     437.6        1.8279        0.0001        4.4077        4.4078       2.579908       0.02697
   7     480.5        1.8304        0.0001        4.2646        4.2646       2.434207       0.02862
   6     533.0        1.8342        0.0001        4.0643        4.0643       2.230115       0.03283
   5     589.8        1.8396        0.0001        3.8252        3.8252       1.985623       0.03629
   4     651.6        1.8481        0.0001        3.5635        3.5636       1.715495       0.03694
   3     718.7        1.8613        0.0001        3.3497        3.3498       1.488495       0.02853
   2     792.3        1.8829        0.0001        3.2023        3.2024       1.319516       0.01938
   1     891.5        1.9302        0.0001        3.0441        3.0442       1.113959       0.01749
   0    1013.0        2.0344        0.0001        2.8329        2.8330       0.798618       0.02190

  Modules and versions used in this calculation:

       rrtmg_sw.1col.f90:  $Revision$                    rrtmg_sw_init.f90:  $Revision$        
     rrtmgsw_cldprop.f90:  $Revision$                  rrtmgsw_cldprmc.f90:  NOT USED          
     rrtmg_sw_reftra.f90:  $Revision$                  rrtmg_sw_spcvrt.f90:  NOT USED          
     rrtmg_sw_spcvmc.f90:  NOT USED                    rrtmgsw_setcoef.f90:  NOT USED          
     rrtmg_sw_taumol.f90:  $Revision$                  rrtmg_sw_vrtqdr.f90:  NOT USED          
                rrtatm.f:  NOT USED                             util_xxx.f:  NOT USED          
                 extra.f:  NOT USED                       rrtmg_sw_k_g.f90:  $Revision$        

