

 Wavenumbers:   820. - 50000. cm-1, ATM      1
 LEVEL PRESSURE   UPWARD FLUX   DIFDOWN FLUX  DIRDOWN FLUX  DOWNWARD FLUX   NET FLUX    HEATING RATE
          mb          W/m2          W/m2          W/m2        W/m2          W/m2       degree/day
  51    .06700      441.2755        0.0000      617.8126      617.8126     176.537048       0.00000
  50    .07753      441.2752        0.0014      617.7950      617.7964     176.521228      12.68041
  49    .09103      441.2747        0.0030      617.7785      617.7815     176.506804       9.01528
  48    0.1069      441.2742        0.0050      617.7592      617.7642     176.489973       8.95920
  47    0.1255      441.2737        0.0072      617.7356      617.7428     176.469109       9.45871
  46    0.1487      441.2731        0.0101      617.7031      617.7132     176.440018      10.60389
  45    0.1794      441.2724        0.0139      617.6551      617.6690     176.396577      11.92568
  44    0.2165      441.2717        0.0184      617.5935      617.6119     176.340177      12.82995
  43    0.2613      441.2710        0.0238      617.5140      617.5378     176.266760      13.83888
  42    0.3336      441.2702        0.0327      617.3711      617.4037     176.133515      15.53504
  41    0.4307      441.2696        0.0443      617.1687      617.2130     175.943371      16.53260
  40    0.5894      441.2695        0.0631      616.8142      616.8773     175.607738      17.84855
  39     1.339      441.2879        0.1480      614.9760      615.1240     173.836165      19.94469
  38     1.782      441.3115        0.1958      614.0081      614.2039     172.892349      17.96874
  37     2.292      441.3506        0.2501      613.0570      613.3071     171.956487      15.50033
  36     2.964      441.4196        0.3208      612.0209      612.3418     170.922177      12.98371
  35     3.853      441.5352        0.4135      610.8806      611.2941     169.758902      11.03970
  34     5.035      441.7130        0.5358      609.6294      610.1652     168.452255       9.33415
  33     6.613      441.9633        0.6981      608.2656      608.9638     167.000484       7.76117
  32     8.786      442.2894        0.9159      606.7707      607.6867     165.397249       6.22638
  31     11.80      442.7118        1.2260      605.0259      606.2519     163.540081       5.19948
  30     15.07      443.1140        1.5569      603.4497      605.0066     161.892606       4.25346
  29     18.79      443.5224        1.9292      601.8855      603.8147     160.292328       3.62832
  28     23.16      443.9465        2.3618      600.2586      602.6204     158.673904       3.12951
  27     28.12      444.3696        2.8542      598.5883      601.4426     157.073015       2.72140
  26     33.73      444.7525        3.4032      596.9309      600.3341     155.581574       2.24242
  25     40.54      445.1097        4.0641      595.1472      599.2113     154.101634       1.83603
  24     48.69      445.4382        4.8572      593.2025      598.0597     152.621500       1.53171
  23     57.69      445.7001        5.7242      591.2538      596.9780     151.277913       1.25941
  22     68.43      445.9046        6.7513      589.1237      595.8751     149.970419       1.02786
  21     81.20      445.9992        7.9691      586.8255      594.7946     148.795405       0.77643
  20     96.49      445.9737        9.4110      584.3100      593.7210     147.747312       0.57847
  19     114.6      445.8826       11.1071      581.4647      592.5717     146.689134       0.49409
  18     136.5      445.7307       13.0931      578.2230      591.3160     145.585381       0.42442
  17     162.9      445.5125       15.4239      574.5029      589.9268     144.414328       0.37432
  16     196.4      445.1428       18.3964      569.8996      588.2960     143.153237       0.31743
  15     218.7      444.8715       20.3184      566.9312      587.2497     142.378195       0.29425
  14     243.0      444.5672       22.3802      563.6785      586.0588     141.491548       0.30752
  13     269.0      444.2289       24.5835      560.0763      584.6597     140.430817       0.34410
  12     297.5      443.8577       26.9289      556.0875      583.0164     139.158763       0.37728
  11     328.5      443.4611       29.4230      551.7733      581.1962     137.735105       0.38709
  10     361.9      443.0421       32.0620      547.1145      579.1765     136.134369       0.40500
   9     398.1      442.6032       34.8510      542.0221      576.8731     134.269930       0.43437
   8     437.6      442.1517       37.7892      536.4174      574.2066     132.054857       0.47360
   7     480.5      441.6936       40.8751      530.3079      571.1830     129.489422       0.50384
   6     533.0      441.1754       44.5872      522.6977      567.2849     126.109503       0.54372
   5     589.8      440.6927       48.4861      514.3201      562.8061     122.113396       0.59315
   4     651.6      440.3101       52.5652      504.8161      557.3812     117.071103       0.68955
   3     718.7      440.1063       56.8162      494.2447      551.0610     110.954626       0.76867
   2     792.3      440.2406       61.2269      482.5757      543.8027     103.562070       0.84784
   1     891.5      441.2799       66.9544      466.8274      533.7818      92.501880       0.94117
   0    1013.0      444.6366       73.5152      448.6910      522.2062      77.569611       1.03682



 Wavenumbers:  2600. -  3250. cm-1, ATM      1
 LEVEL PRESSURE   UPWARD FLUX   DIFDOWN FLUX  DIRDOWN FLUX  DOWNWARD FLUX   NET FLUX    HEATING RATE
          mb          W/m2          W/m2          W/m2        W/m2          W/m2       degree/day
  51    .06700        2.3616        0.0000        5.4450        5.4450       3.083424       0.00000
  50    .07753        2.3616        0.0000        5.4450        5.4450       3.083416       0.00640
  49    .09103        2.3616        0.0000        5.4450        5.4450       3.083406       0.00627
  48    0.1069        2.3616        0.0000        5.4450        5.4450       3.083395       0.00613
  47    0.1255        2.3616        0.0000        5.4450        5.4450       3.083382       0.00600
  46    0.1487        2.3616        0.0000        5.4450        5.4450       3.083365       0.00608
  45    0.1794        2.3616        0.0000        5.4450        5.4450       3.083342       0.00625
  44    0.2165        2.3616        0.0000        5.4449        5.4449       3.083315       0.00612
  43    0.2613        2.3616        0.0000        5.4449        5.4449       3.083283       0.00600
  42    0.3336        2.3616        0.0000        5.4448        5.4448       3.083231       0.00617
  41    0.4307        2.3616        0.0000        5.4448        5.4448       3.083159       0.00620
  40    0.5894        2.3616        0.0000        5.4446        5.4446       3.083040       0.00637
  39     1.339        2.3616        0.0000        5.4439        5.4439       3.082332       0.00797
  38     1.782        2.3616        0.0000        5.4434        5.4434       3.081789       0.01034
  37     2.292        2.3616        0.0000        5.4427        5.4427       3.081073       0.01186
  36     2.964        2.3616        0.0000        5.4416        5.4416       3.080034       0.01304
  35     3.853        2.3616        0.0000        5.4402        5.4402       3.078556       0.01403
  34     5.035        2.3616        0.0000        5.4381        5.4381       3.076499       0.01469
  33     6.613        2.3616        0.0000        5.4353        5.4353       3.073716       0.01488
  32     8.786        2.3616        0.0000        5.4317        5.4317       3.070081       0.01412
  31     11.80        2.3616        0.0000        5.4269        5.4269       3.065295       0.01340
  30     15.07        2.3616        0.0000        5.4224        5.4224       3.060760       0.01171
  29     18.79        2.3616        0.0000        5.4180        5.4180       3.056336       0.01003
  28     23.16        2.3617        0.0000        5.4135        5.4135       3.051832       0.00871
  27     28.12        2.3617        0.0000        5.4088        5.4088       3.047159       0.00794
  26     33.73        2.3617        0.0000        5.4036        5.4036       3.041884       0.00793
  25     40.54        2.3618        0.0000        5.3966        5.3967       3.034888       0.00868
  24     48.69        2.3619        0.0000        5.3872        5.3872       3.025331       0.00989
  23     57.69        2.3620        0.0000        5.3754        5.3754       3.013437       0.01115
  22     68.43        2.3621        0.0000        5.3599        5.3599       2.997795       0.01230
  21     81.20        2.3624        0.0000        5.3401        5.3401       2.977745       0.01325
  20     96.49        2.3627        0.0000        5.3155        5.3155       2.952879       0.01372
  19     114.6        2.3631        0.0001        5.2861        5.2861       2.923081       0.01391
  18     136.5        2.3636        0.0001        5.2520        5.2520       2.888400       0.01334
  17     162.9        2.3644        0.0001        5.2136        5.2137       2.849314       0.01249
  16     196.4        2.3655        0.0001        5.1690        5.1691       2.803551       0.01152
  15     218.7        2.3664        0.0001        5.1427        5.1428       2.776412       0.01030
  14     243.0        2.3675        0.0001        5.1164        5.1165       2.749033       0.00950
  13     269.0        2.3689        0.0001        5.0899        5.0901       2.721186       0.00903
  12     297.5        2.3706        0.0001        5.0627        5.0629       2.692222       0.00859
  11     328.5        2.3729        0.0001        5.0344        5.0346       2.661658       0.00831
  10     361.9        2.3759        0.0002        5.0042        5.0044       2.628512       0.00839
   9     398.1        2.3797        0.0002        4.9704        4.9706       2.590919       0.00876
   8     437.6        2.3847        0.0002        4.9305        4.9307       2.545984       0.00961
   7     480.5        2.3911        0.0002        4.8838        4.8840       2.492909       0.01042
   6     533.0        2.4006        0.0002        4.8195        4.8198       2.419160       0.01186
   5     589.8        2.4134        0.0003        4.7386        4.7389       2.325491       0.01390
   4     651.6        2.4314        0.0003        4.6333        4.6336       2.202190       0.01686
   3     718.7        2.4570        0.0003        4.4994        4.4997       2.042705       0.02004
   2     792.3        2.4946        0.0003        4.3319        4.3322       1.837645       0.02352
   1     891.5        2.5690        0.0003        4.0816        4.0819       1.512953       0.02763
   0    1013.0        2.7146        0.0004        3.7798        3.7802       1.065606       0.03106



 Wavenumbers:  3250. -  4000. cm-1, ATM      1
 LEVEL PRESSURE   UPWARD FLUX   DIFDOWN FLUX  DIRDOWN FLUX  DOWNWARD FLUX   NET FLUX    HEATING RATE
          mb          W/m2          W/m2          W/m2        W/m2          W/m2       degree/day
  51    .06700        0.6617        0.0000        9.1795        9.1795       8.517852       0.00000
  50    .07753        0.6617        0.0000        9.1749        9.1749       8.513180       3.74429
  49    .09103        0.6617        0.0000        9.1717        9.1717       8.509986       1.99669
  48    0.1069        0.6617        0.0000        9.1693        9.1693       8.507662       1.23682
  47    0.1255        0.6617        0.0000        9.1673        9.1673       8.505611       0.92969
  46    0.1487        0.6617        0.0000        9.1651        9.1651       8.503409       0.80262
  45    0.1794        0.6617        0.0000        9.1625        9.1625       8.500820       0.71074
  44    0.2165        0.6617        0.0000        9.1599        9.1599       8.498211       0.59362
  43    0.2613        0.6617        0.0000        9.1573        9.1573       8.495588       0.49445
  42    0.3336        0.6617        0.0000        9.1537        9.1537       8.491983       0.42032
  41    0.4307        0.6617        0.0000        9.1497        9.1497       8.487983       0.34776
  40    0.5894        0.6617        0.0000        9.1439        9.1439       8.482194       0.30786
  39     1.339        0.6617        0.0000        9.1211        9.1211       8.459461       0.25594
  38     1.782        0.6617        0.0000        9.1108        9.1108       8.449101       0.19723
  37     2.292        0.6617        0.0000        9.1007        9.1007       8.439053       0.16642
  36     2.964        0.6617        0.0000        9.0894        9.0894       8.427713       0.14235
  35     3.853        0.6617        0.0000        9.0760        9.0760       8.414313       0.12717
  34     5.035        0.6617        0.0000        9.0592        9.0593       8.397581       0.11953
  33     6.613        0.6617        0.0000        9.0371        9.0371       8.375470       0.11821
  32     8.786        0.6617        0.0000        9.0062        9.0063       8.344590       0.11992
  31     11.80        0.6617        0.0000        8.9598        8.9598       8.298179       0.12994
  30     15.07        0.6617        0.0000        8.9080        8.9080       8.246342       0.13383
  29     18.79        0.6617        0.0000        8.8479        8.8479       8.186265       0.13621
  28     23.16        0.6616        0.0000        8.7776        8.7777       8.116018       0.13584
  27     28.12        0.6616        0.0000        8.6995        8.6995       8.037867       0.13285
  26     33.73        0.6616        0.0000        8.6175        8.6176       7.955947       0.12317
  25     40.54        0.6616        0.0001        8.5277        8.5277       7.866093       0.11147
  24     48.69        0.6616        0.0001        8.4317        8.4318       7.770143       0.09929
  23     57.69        0.6616        0.0001        8.3370        8.3371       7.675446       0.08876
  22     68.43        0.6616        0.0001        8.2317        8.2318       7.570178       0.08275
  21     81.20        0.6616        0.0001        8.1103        8.1104       7.448829       0.08019
  20     96.49        0.6616        0.0001        7.9692        7.9693       7.307744       0.07787
  19     114.6        0.6615        0.0002        7.8086        7.8087       7.147172       0.07498
  18     136.5        0.6615        0.0002        7.6321        7.6323       6.970782       0.06783
  17     162.9        0.6615        0.0002        7.4414        7.4417       6.780156       0.06093
  16     196.4        0.6615        0.0002        7.2180        7.2182       6.556763       0.05623
  15     218.7        0.6615        0.0003        7.0729        7.0732       6.411740       0.05506
  14     243.0        0.6615        0.0003        6.9050        6.9053       6.243857       0.05823
  13     269.0        0.6615        0.0003        6.7012        6.7015       6.040018       0.06612
  12     297.5        0.6617        0.0003        6.4525        6.4528       5.791141       0.07381
  11     328.5        0.6619        0.0004        6.1914        6.1918       5.529844       0.07105
  10     361.9        0.6624        0.0004        5.9305        5.9309       5.268508       0.06612
   9     398.1        0.6631        0.0004        5.6507        5.6511       4.988010       0.06535
   8     437.6        0.6642        0.0004        5.3335        5.3339       4.669702       0.06806
   7     480.5        0.6660        0.0004        4.9749        4.9754       4.309347       0.07077
   6     533.0        0.6693        0.0004        4.5274        4.5278       3.858540       0.07252
   5     589.8        0.6747        0.0004        4.0529        4.0534       3.378670       0.07123
   4     651.6        0.6846        0.0004        3.5447        3.5452       2.860610       0.07085
   3     718.7        0.7020        0.0004        3.0426        3.0430       2.341019       0.06530
   2     792.3        0.7339        0.0004        2.5500        2.5503       1.816463       0.06016
   1     891.5        0.8139        0.0003        1.9745        1.9748       1.160956       0.05578
   0    1013.0        1.0223        0.0003        1.4233        1.4236       0.401291       0.05275



 Wavenumbers:  4000. -  4650. cm-1, ATM      1
 LEVEL PRESSURE   UPWARD FLUX   DIFDOWN FLUX  DIRDOWN FLUX  DOWNWARD FLUX   NET FLUX    HEATING RATE
          mb          W/m2          W/m2          W/m2        W/m2          W/m2       degree/day
  51    .06700        6.1301        0.0000       10.7795       10.7795       4.649454       0.00000
  50    .07753        6.1301        0.0000       10.7795       10.7795       4.649453       0.00084
  49    .09103        6.1301        0.0000       10.7795       10.7795       4.649451       0.00083
  48    0.1069        6.1301        0.0000       10.7795       10.7795       4.649450       0.00081
  47    0.1255        6.1301        0.0000       10.7795       10.7795       4.649448       0.00079
  46    0.1487        6.1301        0.0000       10.7795       10.7795       4.649446       0.00080
  45    0.1794        6.1301        0.0000       10.7795       10.7795       4.649443       0.00083
  44    0.2165        6.1301        0.0000       10.7795       10.7795       4.649439       0.00081
  43    0.2613        6.1301        0.0000       10.7795       10.7795       4.649435       0.00079
  42    0.3336        6.1301        0.0000       10.7795       10.7795       4.649428       0.00082
  41    0.4307        6.1301        0.0000       10.7795       10.7795       4.649419       0.00082
  40    0.5894        6.1301        0.0000       10.7795       10.7795       4.649403       0.00085
  39     1.339        6.1301        0.0000       10.7794       10.7794       4.649307       0.00107
  38     1.782        6.1301        0.0000       10.7793       10.7793       4.649233       0.00142
  37     2.292        6.1301        0.0000       10.7792       10.7792       4.649133       0.00166
  36     2.964        6.1301        0.0000       10.7791       10.7791       4.648983       0.00188
  35     3.853        6.1301        0.0000       10.7788       10.7789       4.648761       0.00210
  34     5.035        6.1301        0.0000       10.7785       10.7785       4.648434       0.00234
  33     6.613        6.1301        0.0000       10.7780       10.7781       4.647953       0.00258
  32     8.786        6.1301        0.0000       10.7773       10.7773       4.647241       0.00276
  31     11.80        6.1301        0.0001       10.7762       10.7762       4.646120       0.00314
  30     15.07        6.1301        0.0001       10.7749       10.7750       4.644803       0.00340
  29     18.79        6.1302        0.0001       10.7733       10.7734       4.643207       0.00362
  28     23.16        6.1302        0.0001       10.7713       10.7715       4.641220       0.00384
  27     28.12        6.1303        0.0001       10.7690       10.7691       4.638807       0.00410
  26     33.73        6.1304        0.0002       10.7661       10.7662       4.635823       0.00449
  25     40.54        6.1306        0.0002       10.7621       10.7623       4.631761       0.00504
  24     48.69        6.1308        0.0002       10.7569       10.7571       4.626327       0.00562
  23     57.69        6.1311        0.0003       10.7507       10.7510       4.619857       0.00607
  22     68.43        6.1315        0.0003       10.7429       10.7433       4.611708       0.00641
  21     81.20        6.1322        0.0004       10.7334       10.7338       4.601618       0.00667
  20     96.49        6.1330        0.0005       10.7218       10.7223       4.589267       0.00682
  19     114.6        6.1342        0.0006       10.7079       10.7084       4.574288       0.00699
  18     136.5        6.1357        0.0007       10.6911       10.6918       4.556129       0.00698
  17     162.9        6.1378        0.0008       10.6710       10.6718       4.533999       0.00707
  16     196.4        6.1408        0.0009       10.6445       10.6454       4.504568       0.00741
  15     218.7        6.1431        0.0011       10.6267       10.6277       4.484606       0.00758
  14     243.0        6.1459        0.0012       10.6067       10.6079       4.461970       0.00785
  13     269.0        6.1495        0.0013       10.5839       10.5852       4.435769       0.00850
  12     297.5        6.1538        0.0014       10.5577       10.5591       4.405284       0.00904
  11     328.5        6.1591        0.0016       10.5276       10.5291       4.370005       0.00959
  10     361.9        6.1656        0.0017       10.4934       10.4952       4.329588       0.01023
   9     398.1        6.1734        0.0019       10.4545       10.4564       4.282963       0.01086
   8     437.6        6.1829        0.0021       10.4096       10.4117       4.228761       0.01159
   7     480.5        6.1946        0.0023       10.3580       10.3602       4.165644       0.01240
   6     533.0        6.2112        0.0025       10.2887       10.2912       4.080026       0.01377
   5     589.8        6.2325        0.0028       10.2047       10.2075       3.974989       0.01559
   4     651.6        6.2609        0.0030       10.0967       10.0997       3.838857       0.01862
   3     718.7        6.2987        0.0033        9.9595        9.9628       3.664141       0.02196
   2     792.3        6.3512        0.0036        9.7867        9.7903       3.439053       0.02582
   1     891.5        6.4459        0.0040        9.5279        9.5319       3.085985       0.03004
   0    1013.0        6.6144        0.0044        9.2062        9.2106       2.596129       0.03401



 Wavenumbers:  4650. -  5150. cm-1, ATM      1
 LEVEL PRESSURE   UPWARD FLUX   DIFDOWN FLUX  DIRDOWN FLUX  DOWNWARD FLUX   NET FLUX    HEATING RATE
          mb          W/m2          W/m2          W/m2        W/m2          W/m2       degree/day
  51    .06700        4.2179        0.0000       10.2033       10.2033       5.985475       0.00000
  50    .07753        4.2179        0.0000       10.2031       10.2031       5.985246       0.18354
  49    .09103        4.2179        0.0000       10.2028       10.2028       5.984960       0.17897
  48    0.1069        4.2179        0.0000       10.2025       10.2025       5.984632       0.17415
  47    0.1255        4.2179        0.0000       10.2021       10.2021       5.984259       0.16926
  46    0.1487        4.2179        0.0000       10.2017       10.2017       5.983792       0.17034
  45    0.1794        4.2179        0.0000       10.2010       10.2010       5.983160       0.17342
  44    0.2165        4.2179        0.0000       10.2003       10.2003       5.982422       0.16786
  43    0.2613        4.2179        0.0000       10.1994       10.1994       5.981562       0.16218
  42    0.3336        4.2179        0.0000       10.1980       10.1980       5.980170       0.16232
  41    0.4307        4.2179        0.0000       10.1962       10.1962       5.978381       0.15555
  40    0.5894        4.2179        0.0000       10.1934       10.1935       5.975586       0.14859
  39     1.339        4.2179        0.0000       10.1822       10.1822       5.964309       0.12696
  38     1.782        4.2179        0.0000       10.1768       10.1768       5.958927       0.10248
  37     2.292        4.2179        0.0000       10.1715       10.1715       5.953612       0.08803
  36     2.964        4.2179        0.0000       10.1657       10.1657       5.947837       0.07249
  35     3.853        4.2179        0.0000       10.1596       10.1596       5.941770       0.05758
  34     5.035        4.2179        0.0000       10.1534       10.1534       5.935570       0.04428
  33     6.613        4.2179        0.0000       10.1471       10.1471       5.929232       0.03389
  32     8.786        4.2179        0.0001       10.1401       10.1402       5.922321       0.02684
  31     11.80        4.2179        0.0001       10.1312       10.1313       5.913376       0.02504
  30     15.07        4.2180        0.0001       10.1214       10.1215       5.903581       0.02529
  29     18.79        4.2180        0.0001       10.1095       10.1097       5.891663       0.02702
  28     23.16        4.2181        0.0002       10.0944       10.0946       5.876462       0.02939
  27     28.12        4.2182        0.0002       10.0755       10.0757       5.857487       0.03226
  26     33.73        4.2184        0.0002       10.0527       10.0529       5.834524       0.03453
  25     40.54        4.2186        0.0003       10.0231       10.0234       5.804770       0.03691
  24     48.69        4.2189        0.0003        9.9854        9.9857       5.766759       0.03934
  23     57.69        4.2194        0.0004        9.9423        9.9427       5.723360       0.04068
  22     68.43        4.2200        0.0005        9.8902        9.8907       5.670729       0.04137
  21     81.20        4.2208        0.0006        9.8286        9.8291       5.608350       0.04122
  20     96.49        4.2220        0.0007        9.7577        9.7583       5.536373       0.03973
  19     114.6        4.2235        0.0008        9.6788        9.6796       5.456040       0.03751
  18     136.5        4.2257        0.0009        9.5936        9.5945       5.368794       0.03355
  17     162.9        4.2287        0.0011        9.5029        9.5040       5.275252       0.02990
  16     196.4        4.2333        0.0013        9.3985        9.3998       5.166487       0.02738
  15     218.7        4.2368        0.0014        9.3349        9.3363       5.099481       0.02544
  14     243.0        4.2411        0.0016        9.2677        9.2693       5.028212       0.02472
  13     269.0        4.2463        0.0017        9.1958        9.1975       4.951257       0.02496
  12     297.5        4.2526        0.0019        9.1173        9.1192       4.866618       0.02510
  11     328.5        4.2602        0.0021        9.0308        9.0329       4.772703       0.02554
  10     361.9        4.2694        0.0023        8.9349        8.9372       4.667755       0.02655
   9     398.1        4.2806        0.0025        8.8281        8.8306       4.550083       0.02741
   8     437.6        4.2942        0.0027        8.7097        8.7125       4.418309       0.02817
   7     480.5        4.3107        0.0030        8.5787        8.5816       4.270902       0.02895
   6     533.0        4.3344        0.0032        8.4121        8.4154       4.080990       0.03055
   5     589.8        4.3646        0.0035        8.2269        8.2304       3.865819       0.03194
   4     651.6        4.4046        0.0038        8.0181        8.0219       3.617225       0.03400
   3     718.7        4.4582        0.0041        7.7851        7.7892       3.331097       0.03596
   2     792.3        4.5293        0.0044        7.5304        7.5348       3.005565       0.03733
   1     891.5        4.6562        0.0048        7.1814        7.1862       2.530038       0.04046
   0    1013.0        4.8697        0.0052        6.7757        6.7809       1.911134       0.04297



 Wavenumbers:  5150. -  6150. cm-1, ATM      1
 LEVEL PRESSURE   UPWARD FLUX   DIFDOWN FLUX  DIRDOWN FLUX  DOWNWARD FLUX   NET FLUX    HEATING RATE
          mb          W/m2          W/m2          W/m2        W/m2          W/m2       degree/day
  51    .06700       10.7971        0.0000       25.5798       25.5798      14.782716       0.00000
  50    .07753       10.7971        0.0000       25.5798       25.5798      14.782713       0.00210
  49    .09103       10.7971        0.0000       25.5798       25.5798      14.782710       0.00212
  48    0.1069       10.7971        0.0000       25.5798       25.5798      14.782706       0.00215
  47    0.1255       10.7971        0.0000       25.5798       25.5798      14.782701       0.00217
  46    0.1487       10.7971        0.0000       25.5798       25.5798      14.782695       0.00228
  45    0.1794       10.7971        0.0000       25.5798       25.5798      14.782686       0.00242
  44    0.2165       10.7971        0.0000       25.5798       25.5798      14.782675       0.00245
  43    0.2613       10.7971        0.0000       25.5798       25.5798      14.782662       0.00248
  42    0.3336       10.7971        0.0000       25.5797       25.5797      14.782639       0.00262
  41    0.4307       10.7971        0.0000       25.5797       25.5797      14.782609       0.00265
  40    0.5894       10.7971        0.0000       25.5796       25.5797      14.782558       0.00273
  39     1.339       10.7971        0.0000       25.5794       25.5794      14.782303       0.00287
  38     1.782       10.7971        0.0001       25.5792       25.5792      14.782148       0.00296
  37     2.292       10.7971        0.0001       25.5790       25.5791      14.781966       0.00301
  36     2.964       10.7971        0.0001       25.5787       25.5788      14.781726       0.00301
  35     3.853       10.7971        0.0001       25.5784       25.5785      14.781409       0.00301
  34     5.035       10.7971        0.0002       25.5780       25.5781      14.780983       0.00305
  33     6.613       10.7972        0.0002       25.5773       25.5776      14.780403       0.00310
  32     8.786       10.7972        0.0003       25.5765       25.5768      14.779610       0.00308
  31     11.80       10.7973        0.0004       25.5753       25.5757      14.778460       0.00322
  30     15.07       10.7974        0.0005       25.5741       25.5746      14.777211       0.00322
  29     18.79       10.7975        0.0006       25.5727       25.5733      14.775798       0.00321
  28     23.16       10.7976        0.0007       25.5710       25.5717      14.774142       0.00320
  27     28.12       10.7978        0.0009       25.5691       25.5700      14.772240       0.00323
  26     33.73       10.7980        0.0011       25.5670       25.5681      14.770078       0.00325
  25     40.54       10.7984        0.0013       25.5645       25.5657      14.767392       0.00333
  24     48.69       10.7988        0.0016       25.5614       25.5629      14.764087       0.00342
  23     57.69       10.7994        0.0018       25.5579       25.5598      14.760371       0.00348
  22     68.43       10.8001        0.0022       25.5538       25.5560      14.755871       0.00354
  21     81.20       10.8011        0.0026       25.5489       25.5515      14.750424       0.00360
  20     96.49       10.8022        0.0031       25.5430       25.5460      14.743807       0.00365
  19     114.6       10.8036        0.0037       25.5357       25.5394      14.735734       0.00377
  18     136.5       10.8054        0.0043       25.5269       25.5312      14.725831       0.00381
  17     162.9       10.8076        0.0052       25.5145       25.5196      14.712071       0.00440
  16     196.4       10.8105        0.0062       25.4903       25.4965      14.686079       0.00654
  15     218.7       10.8124        0.0069       25.4555       25.4625      14.650040       0.01368
  14     243.0       10.8147        0.0077       25.3840       25.3917      14.577037       0.02532
  13     269.0       10.8172        0.0085       25.2601       25.2686      14.451375       0.04076
  12     297.5       10.8202        0.0093       25.0891       25.0985      14.278272       0.05134
  11     328.5       10.8237        0.0103       24.8914       24.9017      14.078011       0.05445
  10     361.9       10.8278        0.0112       24.6438       24.6550      13.827229       0.06345
   9     398.1       10.8327        0.0122       24.3247       24.3369      13.504211       0.07526
   8     437.6       10.8388        0.0133       23.9313       23.9446      13.105762       0.08519
   7     480.5       10.8465        0.0143       23.4875       23.5018      12.655296       0.08847
   6     533.0       10.8582        0.0156       22.9252       22.9408      12.082579       0.09213
   5     589.8       10.8750        0.0169       22.2580       22.2749      11.399918       0.10133
   4     651.6       10.9016        0.0181       21.3803       21.3984      10.496792       0.12350
   3     718.7       10.9452        0.0193       20.3367       20.3560       9.410811       0.13648
   2     792.3       11.0210        0.0203       19.1720       19.1924       8.171401       0.14215
   1     891.5       11.2070        0.0216       17.6922       17.7138       6.506839       0.14165
   0    1013.0       11.7043        0.0230       16.2736       16.2966       4.592269       0.13294



 Wavenumbers:  6150. -  7700. cm-1, ATM      1
 LEVEL PRESSURE   UPWARD FLUX   DIFDOWN FLUX  DIRDOWN FLUX  DOWNWARD FLUX   NET FLUX    HEATING RATE
          mb          W/m2          W/m2          W/m2        W/m2          W/m2       degree/day
  51    .06700       20.2136        0.0000       47.3108       47.3108      27.097240       0.00000
  50    .07753       20.2136        0.0000       47.3108       47.3108      27.097221       0.01493
  49    .09103       20.2136        0.0000       47.3108       47.3108      27.097197       0.01470
  48    0.1069       20.2136        0.0000       47.3108       47.3108      27.097170       0.01446
  47    0.1255       20.2136        0.0000       47.3107       47.3107      27.097139       0.01423
  46    0.1487       20.2136        0.0000       47.3107       47.3107      27.097099       0.01452
  45    0.1794       20.2136        0.0000       47.3106       47.3106      27.097044       0.01501
  44    0.2165       20.2136        0.0000       47.3106       47.3106      27.096979       0.01481
  43    0.2613       20.2136        0.0000       47.3105       47.3105      27.096902       0.01461
  42    0.3336       20.2136        0.0000       47.3103       47.3104      27.096773       0.01503
  41    0.4307       20.2136        0.0000       47.3101       47.3102      27.096601       0.01492
  40    0.5894       20.2136        0.0001       47.3098       47.3099      27.096320       0.01497
  39     1.339       20.2135        0.0002       47.3083       47.3085      27.094983       0.01504
  38     1.782       20.2135        0.0002       47.3074       47.3077      27.094200       0.01492
  37     2.292       20.2134        0.0003       47.3064       47.3067      27.093296       0.01497
  36     2.964       20.2134        0.0004       47.3051       47.3055      27.092116       0.01481
  35     3.853       20.2133        0.0005       47.3034       47.3039      27.090567       0.01469
  34     5.035       20.2132        0.0007       47.3011       47.3018      27.088521       0.01462
  33     6.613       20.2131        0.0009       47.2980       47.2989      27.085801       0.01454
  32     8.786       20.2130        0.0012       47.2939       47.2951      27.082161       0.01414
  31     11.80       20.2127        0.0016       47.2882       47.2897      27.077005       0.01444
  30     15.07       20.2125        0.0020       47.2820       47.2840      27.071535       0.01412
  29     18.79       20.2122        0.0025       47.2751       47.2777      27.065442       0.01382
  28     23.16       20.2119        0.0031       47.2672       47.2703      27.058428       0.01356
  27     28.12       20.2115        0.0038       47.2583       47.2621      27.050534       0.01342
  26     33.73       20.2111        0.0046       47.2484       47.2530      27.041866       0.01303
  25     40.54       20.2106        0.0055       47.2368       47.2422      27.031614       0.01272
  24     48.69       20.2100        0.0066       47.2230       47.2296      27.019567       0.01247
  23     57.69       20.2094        0.0078       47.2083       47.2160      27.006657       0.01210
  22     68.43       20.2086        0.0092       47.1910       47.2003      26.991668       0.01178
  21     81.20       20.2077        0.0110       47.1710       47.1819      26.974275       0.01149
  20     96.49       20.2066        0.0130       47.1476       47.1606      26.954083       0.01114
  19     114.6       20.2052        0.0155       47.1204       47.1359      26.930617       0.01096
  18     136.5       20.2037        0.0184       47.0888       47.1072      26.903461       0.01044
  17     162.9       20.2019        0.0218       47.0504       47.0723      26.870404       0.01057
  16     196.4       20.1996        0.0263       46.9950       47.0213      26.821774       0.01224
  15     218.7       20.1982        0.0293       46.9425       46.9718      26.773627       0.01828
  14     243.0       20.1970        0.0325       46.8539       46.8865      26.689426       0.02920
  13     269.0       20.1963        0.0360       46.7035       46.7395      26.543178       0.04744
  12     297.5       20.1963        0.0396       46.4746       46.5142      26.317927       0.06681
  11     328.5       20.1970        0.0436       46.1909       46.2345      26.037496       0.07625
  10     361.9       20.1989        0.0477       45.8455       45.8932      25.694381       0.08681
   9     398.1       20.2025        0.0521       45.4064       45.4585      25.256044       0.10212
   8     437.6       20.2090        0.0567       44.8348       44.8915      24.682537       0.12262
   7     480.5       20.2196        0.0615       44.1268       44.1883      23.968677       0.14020
   6     533.0       20.2395        0.0671       43.1608       43.2279      22.988359       0.15770
   5     589.8       20.2735        0.0728       42.0143       42.0871      21.813526       0.17438
   4     651.6       20.3361        0.0783       40.5698       40.6481      20.312034       0.20533
   3     718.7       20.4464        0.0836       38.8235       38.9071      18.460721       0.23266
   2     792.3       20.6451        0.0884       36.7595       36.8479      16.202783       0.25896
   1     891.5       21.1289        0.0937       33.9669       34.0606      12.931712       0.27835
   0    1013.0       22.3260        0.0993       30.9807       31.0799       8.753900       0.29009



 Wavenumbers:  7700. -  8050. cm-1, ATM      1
 LEVEL PRESSURE   UPWARD FLUX   DIFDOWN FLUX  DIRDOWN FLUX  DOWNWARD FLUX   NET FLUX    HEATING RATE
          mb          W/m2          W/m2          W/m2        W/m2          W/m2       degree/day
  51    .06700        6.6275        0.0000       11.1810       11.1810       4.553437       0.00000
  50    .07753        6.6275        0.0000       11.1809       11.1809       4.553415       0.01794
  49    .09103        6.6275        0.0000       11.1809       11.1809       4.553387       0.01758
  48    0.1069        6.6275        0.0000       11.1809       11.1809       4.553354       0.01721
  47    0.1255        6.6276        0.0000       11.1809       11.1809       4.553317       0.01684
  46    0.1487        6.6276        0.0000       11.1808       11.1808       4.553270       0.01709
  45    0.1794        6.6276        0.0000       11.1808       11.1808       4.553206       0.01758
  44    0.2165        6.6276        0.0000       11.1807       11.1807       4.553131       0.01725
  43    0.2613        6.6276        0.0000       11.1806       11.1806       4.553041       0.01692
  42    0.3336        6.6276        0.0000       11.1805       11.1805       4.552892       0.01732
  41    0.4307        6.6277        0.0000       11.1803       11.1804       4.552695       0.01713
  40    0.5894        6.6277        0.0000       11.1801       11.1801       4.552373       0.01711
  39     1.339        6.6280        0.0001       11.1788       11.1789       4.550851       0.01714
  38     1.782        6.6282        0.0001       11.1781       11.1782       4.549957       0.01702
  37     2.292        6.6284        0.0001       11.1772       11.1773       4.548922       0.01714
  36     2.964        6.6287        0.0002       11.1761       11.1762       4.547563       0.01706
  35     3.853        6.6290        0.0002       11.1746       11.1748       4.545768       0.01704
  34     5.035        6.6295        0.0003       11.1726       11.1729       4.543383       0.01704
  33     6.613        6.6301        0.0004       11.1699       11.1703       4.540197       0.01703
  32     8.786        6.6310        0.0005       11.1664       11.1669       4.535906       0.01667
  31     11.80        6.6322        0.0007       11.1613       11.1619       4.529770       0.01718
  30     15.07        6.6335        0.0009       11.1558       11.1566       4.523188       0.01700
  29     18.79        6.6349        0.0011       11.1496       11.1507       4.515758       0.01684
  28     23.16        6.6367        0.0013       11.1424       11.1438       4.507090       0.01676
  27     28.12        6.6386        0.0016       11.1342       11.1358       4.497193       0.01683
  26     33.73        6.6409        0.0019       11.1251       11.1270       4.486136       0.01662
  25     40.54        6.6436        0.0023       11.1141       11.1164       4.472806       0.01654
  24     48.69        6.6468        0.0028       11.1009       11.1036       4.456778       0.01659
  23     57.69        6.6505        0.0033       11.0864       11.0897       4.439228       0.01645
  22     68.43        6.6548        0.0039       11.0693       11.0732       4.418403       0.01637
  21     81.20        6.6600        0.0046       11.0491       11.0537       4.393704       0.01632
  20     96.49        6.6663        0.0054       11.0253       11.0307       4.364429       0.01616
  19     114.6        6.6738        0.0064       10.9972       11.0037       4.329891       0.01613
  18     136.5        6.6828        0.0077       10.9644       10.9720       4.289251       0.01563
  17     162.9        6.6937        0.0091       10.9259       10.9349       4.241254       0.01534
  16     196.4        6.7081        0.0109       10.8768       10.8877       4.179622       0.01551
  15     218.7        6.7177        0.0121       10.8450       10.8572       4.139484       0.01524
  14     243.0        6.7283        0.0135       10.8109       10.8244       4.096129       0.01504
  13     269.0        6.7399        0.0149       10.7745       10.7894       4.049441       0.01515
  12     297.5        6.7527        0.0164       10.7356       10.7520       3.999290       0.01487
  11     328.5        6.7668        0.0181       10.6941       10.7122       3.945405       0.01465
  10     361.9        6.7823        0.0199       10.6501       10.6700       3.887682       0.01460
   9     398.1        6.7993        0.0218       10.6033       10.6251       3.825843       0.01441
   8     437.6        6.8180        0.0239       10.5538       10.5777       3.759659       0.01415
   7     480.5        6.8386        0.0261       10.5014       10.5275       3.688883       0.01390
   6     533.0        6.8647        0.0288       10.4376       10.4665       3.601774       0.01401
   5     589.8        6.8938        0.0317       10.3698       10.4015       3.507672       0.01397
   4     651.6        6.9265        0.0349       10.2975       10.3324       3.405862       0.01392
   3     718.7        6.9632        0.0383       10.2203       10.2586       3.295409       0.01388
   2     792.3        7.0047        0.0419       10.1378       10.1797       3.175092       0.01380
   1     891.5        7.0646        0.0468       10.0258       10.0726       3.007962       0.01422
   0    1013.0        7.1433        0.0527        9.8892        9.9419       2.798622       0.01454



 Wavenumbers:  8050. - 12850. cm-1, ATM      1
 LEVEL PRESSURE   UPWARD FLUX   DIFDOWN FLUX  DIRDOWN FLUX  DOWNWARD FLUX   NET FLUX    HEATING RATE
          mb          W/m2          W/m2          W/m2        W/m2          W/m2       degree/day
  51    .06700      102.3764        0.0000      156.5418      156.5418      54.165322       0.00000
  50    .07753      102.3764        0.0000      156.5417      156.5417      54.165322       0.00000
  49    .09103      102.3764        0.0001      156.5417      156.5417      54.165322       0.00000
  48    0.1069      102.3764        0.0001      156.5416      156.5417      54.165322       0.00000
  47    0.1255      102.3764        0.0002      156.5415      156.5417      54.165322      -0.00000
  46    0.1487      102.3763        0.0002      156.5414      156.5417      54.165322      -0.00000
  45    0.1794      102.3763        0.0003      156.5413      156.5416      54.165322       0.00000
  44    0.2165      102.3763        0.0004      156.5412      156.5416      54.165322      -0.00000
  43    0.2613      102.3762        0.0006      156.5410      156.5415      54.165322       0.00000
  42    0.3336      102.3761        0.0008      156.5407      156.5415      54.165322       0.00000
  41    0.4307      102.3760        0.0010      156.5403      156.5414      54.165322       0.00000
  40    0.5894      102.3759        0.0015      156.5397      156.5412      54.165322      -0.00000
  39     1.339      102.3751        0.0037      156.5367      156.5404      54.165322       0.00000
  38     1.782      102.3746        0.0049      156.5350      156.5399      54.165322      -0.00000
  37     2.292      102.3740        0.0064      156.5330      156.5394      54.165322       0.00000
  36     2.964      102.3733        0.0083      156.5303      156.5386      54.165322       0.00000
  35     3.853      102.3724        0.0109      156.5268      156.5377      54.165322      -0.00000
  34     5.035      102.3711        0.0142      156.5222      156.5364      54.165322       0.00000
  33     6.613      102.3694        0.0187      156.5160      156.5348      54.165322      -0.00000
  32     8.786      102.3672        0.0248      156.5076      156.5325      54.165322       0.00000
  31     11.80      102.3639        0.0336      156.4957      156.5292      54.165322      -0.00000
  30     15.07      102.3604        0.0429      156.4828      156.5257      54.165322       0.00000
  29     18.79      102.3564        0.0535      156.4682      156.5218      54.165322       0.00000
  28     23.16      102.3518        0.0659      156.4512      156.5171      54.165322      -0.00000
  27     28.12      102.3465        0.0801      156.4317      156.5118      54.165322       0.00000
  26     33.73      102.3406        0.0960      156.4099      156.5059      54.165322      -0.00000
  25     40.54      102.3334        0.1153      156.3834      156.4987      54.165322       0.00000
  24     48.69      102.3247        0.1385      156.3515      156.4900      54.165322      -0.00000
  23     57.69      102.3152        0.1641      156.3164      156.4805      54.165322      -0.00000
  22     68.43      102.3038        0.1945      156.2746      156.4691      54.165322       0.00000
  21     81.20      102.2902        0.2309      156.2246      156.4555      54.165322       0.00000
  20     96.49      102.2740        0.2743      156.1649      156.4393      54.165322      -0.00000
  19     114.6      102.2547        0.3260      156.0936      156.4196      54.164949       0.00017
  18     136.5      102.2318        0.3874      156.0089      156.3962      54.164484       0.00018
  17     162.9      102.2044        0.4606      155.9075      156.3681      54.163704       0.00025
  16     196.4      102.1688        0.5559      155.7747      156.3305      54.161673       0.00051
  15     218.7      102.1456        0.6186      155.6847      156.3033      54.157749       0.00149
  14     243.0      102.1204        0.6869      155.5814      156.2683      54.147894       0.00342
  13     269.0      102.0938        0.7611      155.4584      156.2194      54.125674       0.00721
  12     297.5      102.0660        0.8414      155.3066      156.1481      54.082048       0.01294
  11     328.5      102.0374        0.9285      155.1231      156.0516      54.014185       0.01845
  10     361.9      102.0085        1.0224      154.9015      155.9239      53.915360       0.02500
   9     398.1      101.9805        1.1237      154.6320      155.7557      53.775156       0.03266
   8     437.6      101.9553        1.2327      154.3017      155.5344      53.579048       0.04193
   7     480.5      101.9352        1.3498      153.9032      155.2530      53.317771       0.05131
   6     533.0      101.9231        1.4941      153.3504      154.8445      52.921360       0.06377
   5     589.8      101.9330        1.6499      152.6622      154.3120      52.379005       0.08050
   4     651.6      101.9910        1.8168      151.7518      153.5686      51.577655       0.10959
   3     718.7      102.1283        1.9950      150.5694      152.5644      50.436042       0.14347
   2     792.3      102.4104        2.1832      149.0026      151.1859      48.775450       0.19045
   1     891.5      103.1193        2.4318      146.4075      148.8393      45.720039       0.26000
   0    1013.0      104.6981        2.7214      142.7898      145.5112      40.813043       0.34072



 Wavenumbers: 12850. - 16000. cm-1, ATM      1
 LEVEL PRESSURE   UPWARD FLUX   DIFDOWN FLUX  DIRDOWN FLUX  DOWNWARD FLUX   NET FLUX    HEATING RATE
          mb          W/m2          W/m2          W/m2        W/m2          W/m2       degree/day
  51    .06700       77.0321        0.0000       98.0872       98.0872      21.055165       0.00000
  50    .07753       77.0321        0.0001       98.0864       98.0864      21.054372       0.63545
  49    .09103       77.0321        0.0002       98.0853       98.0855      21.053376       0.62251
  48    0.1069       77.0321        0.0003       98.0841       98.0843      21.052231       0.60933
  47    0.1255       77.0321        0.0004       98.0826       98.0830      21.050915       0.59648
  46    0.1487       77.0321        0.0005       98.0809       98.0814      21.049254       0.60553
  45    0.1794       77.0322        0.0007       98.0784       98.0792      21.046993       0.62066
  44    0.2165       77.0323        0.0010       98.0756       98.0766      21.044332       0.60532
  43    0.2613       77.0324        0.0012       98.0723       98.0736      21.041201       0.59022
  42    0.3336       77.0326        0.0017       98.0670       98.0687      21.036087       0.59630
  41    0.4307       77.0331        0.0023       98.0602       98.0625      21.029467       0.57558
  40    0.5894       77.0339        0.0033       98.0496       98.0529      21.019022       0.55544
  39     1.339       77.0410        0.0081       98.0043       98.0125      20.971475       0.53530
  38     1.782       77.0475        0.0110       97.9793       97.9902      20.942788       0.54615
  37     2.292       77.0570        0.0142       97.9498       97.9640      20.906962       0.59337
  36     2.964       77.0729        0.0185       97.9088       97.9273      20.854450       0.65918
  35     3.853       77.0983        0.0241       97.8503       97.8745      20.776139       0.74319
  34     5.035       77.1367        0.0316       97.7680       97.7996      20.662935       0.80868
  33     6.613       77.1902        0.0416       97.6562       97.6978      20.507612       0.83036
  32     8.786       77.2599        0.0551       97.5107       97.5658      20.305855       0.78355
  31     11.80       77.3508        0.0744       97.3179       97.3922      20.041478       0.74017
  30     15.07       77.4379        0.0950       97.1283       97.2234      19.785483       0.66093
  29     18.79       77.5270        0.1184       96.9300       97.0484      19.521421       0.59871
  28     23.16       77.6202        0.1456       96.7166       96.8621      19.241920       0.54046
  27     28.12       77.7143        0.1767       96.4935       96.6702      18.955878       0.48625
  26     33.73       77.8015        0.2115       96.2731       96.4846      18.683039       0.41022
  25     40.54       77.8861        0.2535       96.0408       96.2943      18.408218       0.34095
  24     48.69       77.9678        0.3042       95.7946       96.0988      18.130999       0.28688
  23     57.69       78.0381        0.3600       95.5573       95.9173      17.879184       0.23604
  22     68.43       78.1006        0.4264       95.3106       95.7370      17.636382       0.19087
  21     81.20       78.1461        0.5056       95.0644       95.5699      17.423801       0.14047
  20     96.49       78.1737        0.6001       94.8153       95.4154      17.241723       0.10049
  19     114.6       78.2008        0.7131       94.5412       95.2543      17.053478       0.08790
  18     136.5       78.2225        0.8471       94.2324       95.0795      16.857042       0.07553
  17     162.9       78.2388        1.0066       93.8760       94.8826      16.643843       0.06815
  16     196.4       78.2395        1.2135       93.4359       94.6494      16.409893       0.05889
  15     218.7       78.2328        1.3494       93.1535       94.5029      16.270118       0.05307
  14     243.0       78.2225        1.4971       92.8487       94.3457      16.123223       0.05095
  13     269.0       78.2083        1.6571       92.5214       94.1785      15.970167       0.04965
  12     297.5       78.1904        1.8300       92.1708       94.0007      15.810386       0.04739
  11     328.5       78.1703        2.0167       91.7940       93.8107      15.640422       0.04621
  10     361.9       78.1485        2.2179       91.3904       93.6082      15.459712       0.04572
   9     398.1       78.1253        2.4343       90.9591       93.3934      15.268065       0.04465
   8     437.6       78.1017        2.6668       90.4981       93.1648      15.063121       0.04382
   7     480.5       78.0783        2.9160       90.0065       92.9224      14.844159       0.04300
   6     533.0       78.0534        3.2229       89.4026       92.6255      14.572101       0.04377
   5     589.8       78.0332        3.5538       88.7510       92.3048      14.271567       0.04461
   4     651.6       78.0228        3.9097       88.0445       91.9542      13.931450       0.04651
   3     718.7       78.0278        4.2916       87.2777       91.5693      13.541543       0.04900
   2     792.3       78.0585        4.6997       86.4434       91.1431      13.084585       0.05241
   1     891.5       78.1549        5.2488       85.2930       90.5418      12.386883       0.05937
   0    1013.0       78.3763        5.9048       83.8855       89.7904      11.414096       0.06755



 Wavenumbers: 16000. - 22650. cm-1, ATM      1
 LEVEL PRESSURE   UPWARD FLUX   DIFDOWN FLUX  DIRDOWN FLUX  DOWNWARD FLUX   NET FLUX    HEATING RATE
          mb          W/m2          W/m2          W/m2        W/m2          W/m2       degree/day
  51    .06700      141.6954        0.0000      156.3892      156.3892      14.693837       0.00000
  50    .07753      141.6954        0.0004      156.3887      156.3891      14.693688       0.11908
  49    .09103      141.6954        0.0009      156.3879      156.3888      14.693472       0.13506
  48    0.1069      141.6954        0.0015      156.3871      156.3885      14.693183       0.15401
  47    0.1255      141.6954        0.0021      156.3861      156.3882      14.692795       0.17555
  46    0.1487      141.6954        0.0030      156.3847      156.3877      14.692225       0.20803
  45    0.1794      141.6956        0.0041      156.3828      156.3869      14.691332       0.24494
  44    0.2165      141.6958        0.0054      156.3805      156.3859      14.690122       0.27528
  43    0.2613      141.6962        0.0070      156.3776      156.3847      14.688480       0.30948
  42    0.3336      141.6969        0.0097      156.3726      156.3823      14.685359       0.36395
  41    0.4307      141.6982        0.0132      156.3657      156.3789      14.680654       0.40912
  40    0.5894      141.7009        0.0189      156.3537      156.3726      14.671680       0.47722
  39     1.339      141.7239        0.0459      156.2834      156.3293      14.605380       0.74641
  38     1.782      141.7452        0.0617      156.2324      156.2941      14.548900       1.07528
  37     2.292      141.7770        0.0801      156.1641      156.2442      14.467145       1.35408
  36     2.964      141.8300        0.1042      156.0605      156.1647      14.334700       1.66258
  35     3.853      141.9155        0.1360      155.9041      156.0401      14.124541       1.99446
  34     5.035      142.0446        0.1782      155.6774      155.8556      13.810994       2.23985
  33     6.613      142.2249        0.2345      155.3656      155.6001      13.375246       2.32951
  32     8.786      142.4598        0.3103      154.9577      155.2680      12.808224       2.20211
  31     11.80      142.7655        0.4186      154.4153      154.8339      12.068380       2.07133
  30     15.07      143.0584        0.5347      153.8804      154.4151      11.356645       1.83756
  29     18.79      143.3576        0.6656      153.3191      153.9847      10.627152       1.65398
  28     23.16      143.6703        0.8183      152.7126      153.5309       9.860610       1.48224
  27     28.12      143.9850        0.9927      152.0755      153.0682       9.083174       1.32159
  26     33.73      144.2757        1.1877      151.4409      152.6286       8.352895       1.09799
  25     40.54      144.5556        1.4230      150.7637      152.1867       7.631084       0.89549
  24     48.69      144.8238        1.7064      150.0339      151.7402       6.916448       0.73954
  23     57.69      145.0515        2.0173      149.3151      151.3325       6.281036       0.59560
  22     68.43      145.2504        2.3873      148.5476      150.9349       5.684525       0.46894
  21     81.20      145.3884        2.8278      147.7517      150.5794       5.191051       0.32608
  20     96.49      145.4610        3.3521      146.9127      150.2648       4.803783       0.21374
  19     114.6      145.4993        3.9729      145.9763      149.9492       4.449871       0.16525
  18     136.5      145.5130        4.7059      144.9088      149.6147       4.101710       0.13388
  17     162.9      145.5004        5.5748      143.6786      149.2534       3.752964       0.11147
  16     196.4      145.4217        6.6958      142.1652      148.8610       3.439378       0.07893
  15     218.7      145.3470        7.4284      141.2037      148.6321       3.285067       0.05859
  14     243.0      145.2553        8.2213      140.1761      148.3974       3.142113       0.04958
  13     269.0      145.1447        9.0767      139.0813      148.1580       3.013315       0.04178
  12     297.5      145.0145        9.9965      137.9176      147.9141       2.899613       0.03372
  11     328.5      144.8686       10.9852      136.6739      147.6591       2.790534       0.02966
  10     361.9      144.7066       12.0436      135.3498      147.3933       2.686753       0.02626
   9     398.1      144.5276       13.1757      133.9402      147.1159       2.588267       0.02295
   8     437.6      144.3322       14.3834      132.4421      146.8255       2.493314       0.02030
   7     480.5      144.1193       15.6691      130.8533      146.5223       2.403011       0.01774
   6     533.0      143.8542       17.2391      128.9194      146.1585       2.304274       0.01588
   5     589.8      143.5670       18.9165      126.8583      145.7748       2.207879       0.01431
   4     651.6      143.2582       20.7026      124.6676      145.3701       2.111917       0.01312
   3     718.7      142.9281       22.5992      122.3442      144.9434       2.015286       0.01214
   2     792.3      142.5780       24.6048      119.8889      144.4937       1.915773       0.01141
   1     891.5      142.1141       27.2702      116.6252      143.8954       1.781342       0.01144
   0    1013.0      141.5722       30.4076      112.7800      143.1877       1.615480       0.01152



 Wavenumbers: 22650. - 29000. cm-1, ATM      1
 LEVEL PRESSURE   UPWARD FLUX   DIFDOWN FLUX  DIRDOWN FLUX  DOWNWARD FLUX   NET FLUX    HEATING RATE
          mb          W/m2          W/m2          W/m2        W/m2          W/m2       degree/day
  51    .06700       58.3821        0.0000       59.0156       59.0156       0.633511       0.00000
  50    .07753       58.3820        0.0005       59.0151       59.0155       0.633511       0.00000
  49    .09103       58.3819        0.0010       59.0144       59.0154       0.633511       0.00000
  48    0.1069       58.3818        0.0017       59.0136       59.0153       0.633511       0.00000
  47    0.1255       58.3816        0.0025       59.0127       59.0151       0.633511       0.00000
  46    0.1487       58.3814        0.0034       59.0115       59.0149       0.633511      -0.00000
  45    0.1794       58.3812        0.0048       59.0099       59.0147       0.633511      -0.00000
  44    0.2165       58.3809        0.0063       59.0080       59.0144       0.633511       0.00000
  43    0.2613       58.3805        0.0082       59.0058       59.0140       0.633511       0.00000
  42    0.3336       58.3799        0.0113       59.0022       59.0134       0.633511       0.00000
  41    0.4307       58.3791        0.0153       58.9973       59.0126       0.633511      -0.00000
  40    0.5894       58.3778        0.0220       58.9894       59.0113       0.633511       0.00000
  39     1.339       58.3717        0.0534       58.9518       59.0052       0.633511      -0.00000
  38     1.782       58.3681        0.0719       58.9297       59.0016       0.633511       0.00000
  37     2.292       58.3639        0.0933       58.9042       58.9974       0.633511      -0.00000
  36     2.964       58.3584        0.1213       58.8706       58.9920       0.633511       0.00000
  35     3.853       58.3512        0.1584       58.8264       58.9847       0.633511      -0.00000
  34     5.035       58.3416        0.2076       58.7676       58.9751       0.633511       0.00000
  33     6.613       58.3288        0.2732       58.6891       58.9623       0.633511      -0.00000
  32     8.786       58.3116        0.3617       58.5834       58.9451       0.633511      -0.00000
  31     11.80       58.2869        0.4880       58.4325       58.9205       0.633511       0.00000
  30     15.07       58.2605        0.6234       58.2706       58.8940       0.633511       0.00000
  29     18.79       58.2308        0.7760       58.0882       58.8643       0.633511      -0.00000
  28     23.16       58.1961        0.9539       57.8757       58.8296       0.633511       0.00000
  27     28.12       58.1565        1.1567       57.6333       58.7900       0.633511      -0.00000
  26     33.73       58.1124        1.3828       57.3631       58.7459       0.633511       0.00000
  25     40.54       58.0593        1.6549       57.0379       58.6928       0.633511      -0.00000
  24     48.69       57.9956        1.9812       56.6479       58.6291       0.633511      -0.00000
  23     57.69       57.9260        2.3375       56.2221       58.5596       0.633511       0.00000
  22     68.43       57.8438        2.7587       55.7186       58.4773       0.633511       0.00000
  21     81.20       57.7466        3.2562       55.1239       58.3801       0.633511      -0.00000
  20     96.49       57.6320        3.8427       54.4228       58.2655       0.633511       0.00000
  19     114.6       57.4976        4.5301       53.6010       58.1311       0.633511      -0.00000
  18     136.5       57.3407        5.3324       52.6418       57.9742       0.633511       0.00000
  17     162.9       57.1571        6.2703       51.5204       57.7906       0.633511       0.00000
  16     196.4       56.9244        7.4584       50.0995       57.5579       0.633511      -0.00000
  15     218.7       56.7747        8.2219       49.1863       57.4082       0.633511       0.00000
  14     243.0       56.6148        9.0369       48.2114       57.2483       0.633511       0.00000
  13     269.0       56.4447        9.9031       47.1752       57.0782       0.633511      -0.00000
  12     297.5       56.2647       10.8194       46.0788       56.8982       0.633511       0.00000
  11     328.5       56.0743       11.7874       44.9204       56.7078       0.633511       0.00000
  10     361.9       55.8741       12.8043       43.7033       56.5076       0.633511       0.00000
   9     398.1       55.6640       13.8703       42.4272       56.2975       0.633511      -0.00000
   8     437.6       55.4444       14.9829       41.0949       56.0779       0.633511       0.00000
   7     480.5       55.2157       16.1399       39.7093       55.8492       0.633511       0.00000
   6     533.0       54.9435       17.5147       38.0623       55.5771       0.633511       0.00000
   5     589.8       54.6611       18.9383       36.3564       55.2946       0.633511       0.00000
   4     651.6       54.3696       20.4042       34.5989       55.0032       0.633511      -0.00000
   3     718.7       54.0703       21.9058       32.7980       54.7038       0.633511       0.00000
   2     792.3       53.7646       23.4348       30.9633       54.3981       0.633511      -0.00000
   1     891.5       53.3759       25.3710       28.6384       54.0094       0.633511       0.00000
   0    1013.0       52.9425       27.5182       26.0578       53.5760       0.633511       0.00000



 Wavenumbers: 29000. - 38000. cm-1, ATM      1
 LEVEL PRESSURE   UPWARD FLUX   DIFDOWN FLUX  DIRDOWN FLUX  DOWNWARD FLUX   NET FLUX    HEATING RATE
          mb          W/m2          W/m2          W/m2        W/m2          W/m2       degree/day
  51    .06700        8.7365        0.0000       20.8114       20.8114      12.074866       0.00000
  50    .07753        8.7363        0.0003       20.8070       20.8074      12.071059       3.05152
  49    .09103        8.7361        0.0007       20.8009       20.8016      12.065522       3.46081
  48    0.1069        8.7358        0.0012       20.7928       20.7939      12.058112       3.94425
  47    0.1255        8.7355        0.0017       20.7820       20.7837      12.048207       4.49029
  46    0.1487        8.7352        0.0024       20.7665       20.7688      12.033644       5.30838
  45    0.1794        8.7347        0.0033       20.7424       20.7457      12.010980       6.22197
  44    0.2165        8.7342        0.0044       20.7103       20.7147      11.980457       6.94332
  43    0.2613        8.7336        0.0056       20.6675       20.6731      11.939463       7.72723
  42    0.3336        8.7327        0.0077       20.5880       20.5956      11.862903       8.92613
  41    0.4307        8.7317        0.0104       20.4722       20.4826      11.750952       9.73389
  40    0.5894        8.7301        0.0147       20.2637       20.2784      11.548271      10.77831
  39     1.339        8.7267        0.0331       19.0984       19.1315      10.404817      12.87322
  38     1.782        8.7271        0.0427       18.4394       18.4820       9.754911      12.37315
  37     2.292        8.7298        0.0530       17.7714       17.8244       9.094593      10.93659
  36     2.964        8.7363        0.0656       17.0421       17.1078       8.371512       9.07685
  35     3.853        8.7490        0.0816       16.2679       16.3494       7.600400       7.31799
  34     5.035        8.7700        0.1017       15.4803       15.5820       6.812005       5.63197
  33     6.613        8.8006        0.1275       14.7157       14.8432       6.042560       4.11346
  32     8.786        8.8410        0.1612       13.9936       14.1548       5.313791       2.83027
  31     11.80        8.8937        0.2082       13.2835       13.4918       4.598066       2.00380
  30     15.07        8.9445        0.2570       12.7394       12.9963       4.051825       1.41029
  29     18.79        8.9970        0.3110       12.2666       12.5776       3.580622       1.06836
  28     23.16        9.0528        0.3725       11.8300       12.2025       3.149743       0.83318
  27     28.12        9.1099        0.4413       11.4279       11.8692       2.759321       0.66369
  26     33.73        9.1625        0.5172       11.0695       11.5866       2.424078       0.50405
  25     40.54        9.2125        0.6078       10.7209       11.3287       2.116177       0.38199
  24     48.69        9.2596        0.7153       10.3742       11.0895       1.829893       0.29626
  23     57.69        9.2982        0.8317       10.0549       10.8866       1.588383       0.22638
  22     68.43        9.3293        0.9682        9.7327       10.7009       1.371588       0.17043
  21     81.20        9.3441        1.1294        9.4134       10.5428       1.198728       0.11422
  20     96.49        9.3405        1.3189        9.0887       10.4076       1.067152       0.07262
  19     114.6        9.3265        1.5378        8.7388       10.2766       0.950041       0.05468
  18     136.5        9.3053        1.7881        8.3549       10.1430       0.837679       0.04321
  17     162.9        9.2768        2.0733        7.9311       10.0045       0.727675       0.03516
  16     196.4        9.2291        2.4267        7.4333        9.8600       0.630860       0.02437
  15     218.7        9.1948        2.6489        7.1296        9.7785       0.583645       0.01793
  14     243.0        9.1572        2.8812        6.8161        9.6973       0.540051       0.01512
  13     269.0        9.1162        3.1227        6.4944        9.6171       0.500909       0.01270
  12     297.5        9.0717        3.3723        6.1659        9.5381       0.466407       0.01023
  11     328.5        9.0253        3.6290        5.8296        9.4587       0.433377       0.00898
  10     361.9        8.9774        3.8904        5.4889        9.3793       0.401966       0.00795
   9     398.1        8.9280        4.1559        5.1444        9.3002       0.372202       0.00693
   8     437.6        8.8778        4.4240        4.7974        9.2214       0.343514       0.00613
   7     480.5        8.8271        4.6926        4.4508        9.1434       0.316282       0.00535
   6     533.0        8.7689        4.9984        4.0571        9.0555       0.286607       0.00477
   5     589.8        8.7116        5.2991        3.6704        8.9695       0.257877       0.00426
   4     651.6        8.6559        5.5928        3.2929        8.8856       0.229769       0.00384
   3     718.7        8.6026        5.8753        2.9295        8.8048       0.202246       0.00346
   2     792.3        8.5522        6.1450        2.5825        8.7275       0.175308       0.00309
   1     891.5        8.4943        6.4610        2.1753        8.6363       0.142054       0.00283
   0    1013.0        8.4386        6.7779        1.7660        8.5439       0.105329       0.00255



 Wavenumbers: 38000. - 50000. cm-1, ATM      1
 LEVEL PRESSURE   UPWARD FLUX   DIFDOWN FLUX  DIRDOWN FLUX  DOWNWARD FLUX   NET FLUX    HEATING RATE
          mb          W/m2          W/m2          W/m2        W/m2          W/m2       degree/day
  51    .06700        0.0061        0.0000        1.2836        1.2836       1.277518       0.00000
  50    .07753        0.0061        0.0001        1.2812        1.2812       1.275183       1.87150
  49    .09103        0.0060        0.0002        1.2777        1.2778       1.271851       2.08247
  48    0.1069        0.0059        0.0002        1.2731        1.2734       1.267473       2.33059
  47    0.1255        0.0058        0.0004        1.2672        1.2675       1.261717       2.60908
  46    0.1487        0.0057        0.0005        1.2586        1.2591       1.253391       3.03499
  45    0.1794        0.0055        0.0007        1.2455        1.2462       1.240623       3.50520
  44    0.2165        0.0054        0.0009        1.2282        1.2291       1.223697       3.85037
  43    0.2613        0.0052        0.0011        1.2054        1.2065       1.201348       4.21261
  42    0.3336        0.0049        0.0015        1.1639        1.1654       1.160524       4.75970
  41    0.4307        0.0045        0.0020        1.1051        1.1070       1.102565       5.03943
  40    0.5894        0.0039        0.0026        1.0039        1.0064       1.002524       5.32007
  39     1.339        0.0022        0.0035        0.5438        0.5473       0.545105       5.14971
  38     1.782        0.0016        0.0032        0.3635        0.3666       0.365006       3.42879
  37     2.292        0.0012        0.0027        0.2356        0.2383       0.237058       2.11916
  36     2.964        0.0009        0.0022        0.1455        0.1477       0.146786       1.13318
  35     3.853        0.0006        0.0017        0.0858        0.0875       0.086906       0.56828
  34     5.035        0.0004        0.0013        0.0488        0.0501       0.049701       0.26578
  33     6.613        0.0003        0.0010        0.0273        0.0282       0.027974       0.11615
  32     8.786        0.0002        0.0007        0.0144        0.0151       0.014928       0.05067
  31     11.80        0.0001        0.0004        0.0065        0.0070       0.006903       0.02247
  30     15.07        0.0000        0.0003        0.0031        0.0034       0.003329       0.00923
  29     18.79        0.0000        0.0002        0.0014        0.0016       0.001583       0.00396
  28     23.16        0.0000        0.0001        0.0006        0.0007       0.000720       0.00167
  27     28.12        0.0000        0.0001        0.0003        0.0003       0.000317       0.00069
  26     33.73        0.0000        0.0000        0.0001        0.0001       0.000140       0.00027
  25     40.54        0.0000        0.0000        0.0000        0.0001       0.000057       0.00010
  24     48.69        0.0000        0.0000        0.0000        0.0000       0.000021       0.00004
  23     57.69        0.0000        0.0000        0.0000        0.0000       0.000008       0.00001
  22     68.43        0.0000        0.0000        0.0000        0.0000       0.000003       0.00000
  21     81.20        0.0000        0.0000        0.0000        0.0000       0.000001       0.00000
  20     96.49        0.0000        0.0000        0.0000        0.0000       0.000000       0.00000
  19     114.6        0.0000        0.0000        0.0000        0.0000       0.000000       0.00000
  18     136.5        0.0000        0.0000        0.0000        0.0000       0.000000       0.00000
  17     162.9        0.0000        0.0000        0.0000        0.0000       0.000000       0.00000
  16     196.4        0.0000        0.0000        0.0000        0.0000       0.000000       0.00000
  15     218.7        0.0000        0.0000        0.0000        0.0000       0.000000       0.00000
  14     243.0        0.0000        0.0000        0.0000        0.0000       0.000000       0.00000
  13     269.0        0.0000        0.0000        0.0000        0.0000       0.000000       0.00000
  12     297.5        0.0000        0.0000        0.0000        0.0000       0.000000       0.00000
  11     328.5        0.0000        0.0000        0.0000        0.0000       0.000000       0.00000
  10     361.9        0.0000        0.0000        0.0000        0.0000       0.000000       0.00000
   9     398.1        0.0000        0.0000        0.0000        0.0000       0.000000       0.00000
   8     437.6        0.0000        0.0000        0.0000        0.0000       0.000000       0.00000
   7     480.5        0.0000        0.0000        0.0000        0.0000       0.000000       0.00000
   6     533.0        0.0000        0.0000        0.0000        0.0000       0.000000       0.00000
   5     589.8        0.0000        0.0000        0.0000        0.0000       0.000000       0.00000
   4     651.6        0.0000        0.0000        0.0000        0.0000       0.000000       0.00000
   3     718.7        0.0000        0.0000        0.0000        0.0000       0.000000       0.00000
   2     792.3        0.0000        0.0000        0.0000        0.0000       0.000000       0.00000
   1     891.5        0.0000        0.0000        0.0000        0.0000       0.000000       0.00000
   0    1013.0        0.0000        0.0000        0.0000        0.0000       0.000000       0.00000



 Wavenumbers:   820. -  2600. cm-1, ATM      1
 LEVEL PRESSURE   UPWARD FLUX   DIFDOWN FLUX  DIRDOWN FLUX  DOWNWARD FLUX   NET FLUX    HEATING RATE
          mb          W/m2          W/m2          W/m2        W/m2          W/m2       degree/day
  51    .06700        2.0374        0.0000        6.0047        6.0047       3.967233       0.00000
  50    .07753        2.0374        0.0000        6.0009        6.0009       3.963449       3.03282
  49    .09103        2.0374        0.0000        6.0001        6.0001       3.962653       0.49729
  48    0.1069        2.0374        0.0000        5.9992        5.9992       3.961772       0.46929
  47    0.1255        2.0374        0.0000        5.9982        5.9982       3.960783       0.44833
  46    0.1487        2.0374        0.0000        5.9970        5.9970       3.959594       0.43323
  45    0.1794        2.0374        0.0000        5.9955        5.9955       3.958113       0.40666
  44    0.2165        2.0374        0.0000        5.9940        5.9940       3.956562       0.35274
  43    0.2613        2.0374        0.0000        5.9924        5.9924       3.954961       0.30192
  42    0.3336        2.0374        0.0000        5.9901        5.9901       3.952693       0.26437
  41    0.4307        2.0374        0.0000        5.9875        5.9875       3.950053       0.22955
  40    0.5894        2.0374        0.0000        5.9834        5.9834       3.945934       0.21904
  39     1.339        2.0374        0.0000        5.9644        5.9644       3.927009       0.21306
  38     1.782        2.0374        0.0000        5.9540        5.9540       3.916557       0.19900
  37     2.292        2.0374        0.0000        5.9423        5.9423       3.904842       0.19403
  36     2.964        2.0374        0.0000        5.9273        5.9273       3.889923       0.18727
  35     3.853        2.0374        0.0000        5.9084        5.9084       3.870939       0.18016
  34     5.035        2.0374        0.0000        5.8842        5.8842       3.846814       0.17234
  33     6.613        2.0374        0.0000        5.8529        5.8529       3.815485       0.16749
  32     8.786        2.0374        0.0000        5.8111        5.8111       3.773706       0.16225
  31     11.80        2.0375        0.0000        5.7557        5.7557       3.718215       0.15536
  30     15.07        2.0375        0.0000        5.7065        5.7065       3.669070       0.12688
  29     18.79        2.0375        0.0000        5.6657        5.6657       3.628250       0.09255
  28     23.16        2.0375        0.0000        5.6344        5.6344       3.596885       0.06065
  27     28.12        2.0376        0.0000        5.6118        5.6118       3.574203       0.03856
  26     33.73        2.0376        0.0000        5.5939        5.5939       3.556332       0.02687
  25     40.54        2.0377        0.0000        5.5756        5.5756       3.537940       0.02282
  24     48.69        2.0377        0.0000        5.5541        5.5541       3.516313       0.02238
  23     57.69        2.0378        0.0000        5.5300        5.5300       3.492113       0.02268
  22     68.43        2.0380        0.0000        5.5007        5.5007       3.462736       0.02309
  21     81.20        2.0382        0.0000        5.4662        5.4662       3.428045       0.02292
  20     96.49        2.0384        0.0000        5.4256        5.4256       3.387238       0.02252
  19     114.6        2.0387        0.0000        5.3791        5.3791       3.340460       0.02184
  18     136.5        2.0390        0.0000        5.3273        5.3273       3.288307       0.02005
  17     162.9        2.0394        0.0000        5.2696        5.2696       3.230179       0.01858
  16     196.4        2.0400        0.0000        5.1991        5.1991       3.159077       0.01790
  15     218.7        2.0405        0.0000        5.1532        5.1532       3.112716       0.01760
  14     243.0        2.0410        0.0000        5.1001        5.1001       3.059093       0.01860
  13     269.0        2.0417        0.0000        5.0366        5.0367       2.995016       0.02079
  12     297.5        2.0425        0.0000        4.9585        4.9586       2.916042       0.02342
  11     328.5        2.0436        0.0000        4.8715        4.8715       2.827956       0.02395
  10     361.9        2.0449        0.0000        4.7782        4.7783       2.733410       0.02392
   9     398.1        2.0464        0.0001        4.6810        4.6811       2.634656       0.02301
   8     437.6        2.0484        0.0001        4.5800        4.5800       2.531635       0.02203
   7     480.5        2.0508        0.0001        4.4738        4.4738       2.423030       0.02133
   6     533.0        2.0544        0.0001        4.3345        4.3346       2.280222       0.02297
   5     589.8        2.0593        0.0001        4.1567        4.1568       2.097470       0.02713
   4     651.6        2.0670        0.0001        3.9201        3.9202       1.853231       0.03340
   3     718.7        2.0787        0.0001        3.6587        3.6588       1.580094       0.03433
   2     792.3        2.0973        0.0001        3.4266        3.4267       1.329440       0.02875
   1     891.5        2.1360        0.0001        3.2376        3.2377       1.101605       0.01939
   0    1013.0        2.2142        0.0001        3.0833        3.0834       0.869202       0.01614

  Modules and versions used in this calculation:

       rrtmg_sw.1col.f90:  $Revision$                    rrtmg_sw_init.f90:  $Revision$        
     rrtmgsw_cldprop.f90:  $Revision$                  rrtmgsw_cldprmc.f90:  NOT USED          
     rrtmg_sw_reftra.f90:  $Revision$                  rrtmg_sw_spcvrt.f90:  NOT USED          
     rrtmg_sw_spcvmc.f90:  NOT USED                    rrtmgsw_setcoef.f90:  NOT USED          
     rrtmg_sw_taumol.f90:  $Revision$                  rrtmg_sw_vrtqdr.f90:  NOT USED          
                rrtatm.f:  NOT USED                             util_xxx.f:  NOT USED          
                 extra.f:  NOT USED                       rrtmg_sw_k_g.f90:  $Revision$        

