

 Wavenumbers:   820. - 50000. cm-1, ATM      1
 LEVEL PRESSURE   UPWARD FLUX   DIFDOWN FLUX  DIRDOWN FLUX  DOWNWARD FLUX   NET FLUX    HEATING RATE
          mb          W/m2          W/m2          W/m2        W/m2          W/m2       degree/day
  51    .06700      385.0644        0.0000      617.8126      617.8126     232.748162       0.00000
  50    .07753      385.0640        0.0013      617.7946      617.7960     232.731918      13.01981
  49    .09103      385.0636        0.0030      617.7775      617.7806     232.716988       9.33162
  48    0.1069      385.0631        0.0050      617.7577      617.7627     232.699591       9.26065
  47    0.1255      385.0625        0.0072      617.7334      617.7406     232.678094       9.74558
  46    0.1487      385.0619        0.0100      617.7002      617.7102     232.648229      10.88611
  45    0.1794      385.0612        0.0138      617.6511      617.6649     232.603760      12.20806
  44    0.2165      385.0604        0.0184      617.5882      617.6066     232.546162      13.10254
  43    0.2613      385.0596        0.0237      617.5072      617.5309     232.471322      14.10699
  42    0.3336      385.0586        0.0325      617.3618      617.3943     232.335691      15.81317
  41    0.4307      385.0578        0.0441      617.1560      617.2001     232.142352      16.81041
  40    0.5894      385.0573        0.0628      616.7960      616.8588     231.801502      18.12600
  39     1.339      385.0727        0.1472      614.9341      615.0813     230.008639      20.18438
  38     1.782      385.0940        0.1947      613.9539      614.1487     229.054675      18.16194
  37     2.292      385.1297        0.2488      612.9896      613.2385     228.108709      15.66766
  36     2.964      385.1934        0.3191      611.9376      612.2567     227.063283      13.12325
  35     3.853      385.3007        0.4112      610.7776      611.1889     225.888170      11.15204
  34     5.035      385.4661        0.5328      609.5023      610.0351     224.568984       9.42372
  33     6.613      385.6993        0.6942      608.1092      608.8034     223.104068       7.83144
  32     8.786      386.0030        0.9107      606.5799      607.4907     221.487639       6.27763
  31     11.80      386.3958        1.2190      604.7945      606.0135     219.617650       5.23538
  30     15.07      386.7691        1.5479      603.1819      604.7299     217.960753       4.27778
  29     18.79      387.1475        1.9180      601.5813      603.4994     216.351860       3.64786
  28     23.16      387.5396        2.3480      599.9148      602.2628     214.723228       3.14925
  27     28.12      387.9295        2.8375      598.2016      601.0391     213.109621       2.74302
  26     33.73      388.2803        3.3831      596.5004      599.8834     211.603101       2.26509
  25     40.54      388.6046        4.0399      594.6694      598.7094     210.104775       1.85884
  24     48.69      388.8990        4.8281      592.6745      597.5026     208.603656       1.55342
  23     57.69      389.1286        5.6897      590.6752      596.3648     207.236185       1.28180
  22     68.43      389.3005        6.7103      588.4891      595.1994     205.898880       1.05130
  21     81.20      389.3639        7.9203      586.1292      594.0495     204.685583       0.80173
  20     96.49      389.3083        9.3528      583.5455      592.8983     203.589959       0.60471
  19     114.6      389.1920       11.0382      580.6037      591.6419     202.449946       0.53231
  18     136.5      389.0104       13.0114      577.2498      590.2612     201.250807       0.46110
  17     162.9      388.7569       15.3269      573.3452      588.6721     199.915189       0.42692
  16     196.4      388.3422       18.2794      568.2958      586.5752     198.232983       0.42343
  15     218.7      388.0412       20.1881      564.6546      584.8427     196.801484       0.54349
  14     243.0      387.7047       22.2351      560.1198      582.3549     194.650237       0.74612
  13     269.0      387.3318       24.4218      554.4170      578.8387     191.506907       1.01968
  12     297.5      386.9248       26.7486      547.6476      574.3963     187.471514       1.19685
  11     328.5      386.4912       29.2222      540.3696      569.5919     183.100734       1.18840
  10     361.9      386.0345       31.8386      532.4577      564.2963     178.261758       1.22431
   9     398.1      385.5591       34.6020      523.7801      558.3821     172.822978       1.26711
   8     437.6      385.0752       37.5112      514.3087      551.8199     166.744688       1.29958
   7     480.5      384.5919       40.5642      504.2208      544.7850     160.193121       1.28670
   6     533.0      384.0625       44.2337      491.9163      536.1499     152.087397       1.30395
   5     589.8      383.6075       48.0832      478.6070      526.6903     143.082734       1.33659
   4     651.6      383.3365       52.1001      463.7318      515.8319     132.495368       1.44785
   3     718.7      383.3843       56.2746      447.7456      504.0202     120.635841       1.49041
   2     792.3      384.0560       60.5872      430.3031      490.8903     106.834325       1.58288
   1     891.5      386.5633       66.1536      406.7891      472.9427      86.379372       1.74062
   0    1013.0      393.6116       72.4824      380.4702      452.9526      59.340989       1.87741



 Wavenumbers:  2600. -  3250. cm-1, ATM      1
 LEVEL PRESSURE   UPWARD FLUX   DIFDOWN FLUX  DIRDOWN FLUX  DOWNWARD FLUX   NET FLUX    HEATING RATE
          mb          W/m2          W/m2          W/m2        W/m2          W/m2       degree/day
  51    .06700        0.9613        0.0000        5.4450        5.4450       4.483767       0.00000
  50    .07753        0.9613        0.0000        5.4450        5.4450       4.483759       0.00640
  49    .09103        0.9613        0.0000        5.4450        5.4450       4.483749       0.00627
  48    0.1069        0.9613        0.0000        5.4450        5.4450       4.483737       0.00613
  47    0.1255        0.9613        0.0000        5.4450        5.4450       4.483724       0.00599
  46    0.1487        0.9613        0.0000        5.4450        5.4450       4.483707       0.00608
  45    0.1794        0.9613        0.0000        5.4450        5.4450       4.483684       0.00625
  44    0.2165        0.9613        0.0000        5.4449        5.4449       4.483657       0.00612
  43    0.2613        0.9613        0.0000        5.4449        5.4449       4.483626       0.00600
  42    0.3336        0.9613        0.0000        5.4448        5.4448       4.483573       0.00617
  41    0.4307        0.9613        0.0000        5.4448        5.4448       4.483501       0.00620
  40    0.5894        0.9613        0.0000        5.4446        5.4446       4.483382       0.00637
  39     1.339        0.9613        0.0000        5.4439        5.4439       4.482674       0.00797
  38     1.782        0.9613        0.0000        5.4434        5.4434       4.482131       0.01034
  37     2.292        0.9613        0.0000        5.4427        5.4427       4.481415       0.01186
  36     2.964        0.9613        0.0000        5.4416        5.4416       4.480377       0.01304
  35     3.853        0.9613        0.0000        5.4402        5.4402       4.478899       0.01402
  34     5.035        0.9613        0.0000        5.4381        5.4381       4.476844       0.01468
  33     6.613        0.9613        0.0000        5.4353        5.4353       4.474063       0.01487
  32     8.786        0.9613        0.0000        5.4317        5.4317       4.470430       0.01411
  31     11.80        0.9613        0.0000        5.4269        5.4269       4.465650       0.01338
  30     15.07        0.9613        0.0000        5.4224        5.4224       4.461123       0.01169
  29     18.79        0.9613        0.0000        5.4180        5.4180       4.456711       0.01000
  28     23.16        0.9613        0.0000        5.4135        5.4135       4.452224       0.00868
  27     28.12        0.9613        0.0000        5.4088        5.4088       4.447575       0.00790
  26     33.73        0.9613        0.0000        5.4036        5.4036       4.442333       0.00788
  25     40.54        0.9613        0.0000        5.3966        5.3967       4.435389       0.00862
  24     48.69        0.9613        0.0000        5.3872        5.3872       4.425908       0.00981
  23     57.69        0.9613        0.0000        5.3754        5.3754       4.414118       0.01105
  22     68.43        0.9613        0.0000        5.3599        5.3599       4.398622       0.01218
  21     81.20        0.9613        0.0000        5.3401        5.3401       4.378776       0.01311
  20     96.49        0.9613        0.0000        5.3155        5.3155       4.354191       0.01357
  19     114.6        0.9614        0.0000        5.2851        5.2851       4.323755       0.01421
  18     136.5        0.9614        0.0001        5.2499        5.2500       4.288549       0.01354
  17     162.9        0.9615        0.0001        5.2102        5.2103       4.248776       0.01271
  16     196.4        0.9617        0.0001        5.1624        5.1625       4.200771       0.01208
  15     218.7        0.9619        0.0001        5.1299        5.1300       4.168118       0.01240
  14     243.0        0.9622        0.0001        5.0905        5.0906       4.128432       0.01376
  13     269.0        0.9627        0.0001        5.0415        5.0416       4.078942       0.01605
  12     297.5        0.9635        0.0001        4.9802        4.9803       4.016849       0.01842
  11     328.5        0.9645        0.0001        4.9068        4.9069       3.942365       0.02025
  10     361.9        0.9660        0.0001        4.8158        4.8159       3.849949       0.02338
   9     398.1        0.9680        0.0001        4.7002        4.7003       3.732366       0.02739
   8     437.6        0.9707        0.0002        4.5517        4.5518       3.581131       0.03234
   7     480.5        0.9743        0.0002        4.3724        4.3726       3.398227       0.03592
   6     533.0        0.9802        0.0002        4.1337        4.1339       3.153682       0.03934
   5     589.8        0.9890        0.0002        3.8659        3.8661       2.877139       0.04105
   4     651.6        1.0027        0.0002        3.5691        3.5693       2.566612       0.04247
   3     718.7        1.0244        0.0002        3.2430        3.2432       2.218740       0.04372
   2     792.3        1.0607        0.0002        2.8706        2.8708       1.810143       0.04686
   1     891.5        1.1446        0.0002        2.3766        2.3768       1.232152       0.04918
   0    1013.0        1.3463        0.0002        1.8746        1.8747       0.528477       0.04886



 Wavenumbers:  3250. -  4000. cm-1, ATM      1
 LEVEL PRESSURE   UPWARD FLUX   DIFDOWN FLUX  DIRDOWN FLUX  DOWNWARD FLUX   NET FLUX    HEATING RATE
          mb          W/m2          W/m2          W/m2        W/m2          W/m2       degree/day
  51    .06700        0.0004        0.0000        9.1795        9.1795       9.179084       0.00000
  50    .07753        0.0004        0.0000        9.1746        9.1746       9.174182       3.92888
  49    .09103        0.0004        0.0000        9.1712        9.1712       9.170732       2.15645
  48    0.1069        0.0004        0.0000        9.1686        9.1686       9.168139       1.37990
  47    0.1255        0.0004        0.0000        9.1663        9.1663       9.165809       1.05654
  46    0.1487        0.0004        0.0000        9.1637        9.1637       9.163293       0.91718
  45    0.1794        0.0004        0.0000        9.1608        9.1608       9.160321       0.81563
  44    0.2165        0.0004        0.0000        9.1577        9.1577       9.157301       0.68714
  43    0.2613        0.0004        0.0000        9.1547        9.1547       9.154213       0.58198
  42    0.3336        0.0004        0.0000        9.1503        9.1503       9.149845       0.50929
  41    0.4307        0.0004        0.0000        9.1453        9.1453       9.144834       0.43569
  40    0.5894        0.0004        0.0000        9.1379        9.1379       9.137436       0.39344
  39     1.339        0.0004        0.0000        9.1101        9.1101       9.109679       0.31250
  38     1.782        0.0004        0.0000        9.0982        9.0982       9.097741       0.22727
  37     2.292        0.0004        0.0000        9.0868        9.0868       9.086376       0.18823
  36     2.964        0.0004        0.0000        9.0740        9.0740       9.073594       0.16046
  35     3.853        0.0004        0.0000        9.0588        9.0588       9.058326       0.14490
  34     5.035        0.0004        0.0000        9.0393        9.0393       9.038904       0.13874
  33     6.613        0.0004        0.0000        9.0134        9.0134       9.012949       0.13876
  32     8.786        0.0004        0.0000        8.9773        8.9773       8.976851       0.14019
  31     11.80        0.0004        0.0000        8.9240        8.9240       8.923578       0.14915
  30     15.07        0.0004        0.0000        8.8656        8.8656       8.865190       0.15075
  29     18.79        0.0004        0.0000        8.7993        8.7993       8.798871       0.15037
  28     23.16        0.0004        0.0000        8.7236        8.7236       8.723219       0.14629
  27     28.12        0.0004        0.0000        8.6416        8.6417       8.641255       0.13933
  26     33.73        0.0004        0.0000        8.5577        8.5577       8.557328       0.12619
  25     40.54        0.0004        0.0001        8.4666        8.4667       8.466303       0.11293
  24     48.69        0.0004        0.0001        8.3687        8.3688       8.368393       0.10132
  23     57.69        0.0004        0.0001        8.2697        8.2697       8.269375       0.09281
  22     68.43        0.0004        0.0001        8.1567        8.1568       8.156414       0.08880
  21     81.20        0.0003        0.0001        8.0247        8.0248       8.024478       0.08718
  20     96.49        0.0003        0.0001        7.8709        7.8710       7.870693       0.08488
  19     114.6        0.0003        0.0001        7.6865        7.6866       7.686313       0.08609
  18     136.5        0.0003        0.0002        7.4832        7.4834       7.483133       0.07813
  17     162.9        0.0002        0.0002        7.2444        7.2446       7.244384       0.07631
  16     196.4        0.0002        0.0002        6.8905        6.8907       6.890509       0.08907
  15     218.7        0.0002        0.0002        6.5681        6.5683       6.568149       0.12239
  14     243.0        0.0002        0.0002        6.1338        6.1340       6.133828       0.15064
  13     269.0        0.0001        0.0002        5.5897        5.5899       5.589777       0.17649
  12     297.5        0.0001        0.0002        4.9566        4.9568       4.956689       0.18777
  11     328.5        0.0001        0.0002        4.3277        4.3280       4.327877       0.17097
  10     361.9        0.0001        0.0002        3.7396        3.7398       3.739753       0.14880
   9     398.1        0.0001        0.0002        3.2087        3.2090       3.208888       0.12368
   8     437.6        0.0001        0.0002        2.7303        2.7305       2.730437       0.10230
   7     480.5        0.0000        0.0002        2.2941        2.2943       2.294251       0.08567
   6     533.0        0.0000        0.0002        1.8327        1.8329       1.832835       0.07423
   5     589.8        0.0000        0.0001        1.3924        1.3925       1.392513       0.06536
   4     651.6        0.0000        0.0001        0.9456        0.9457       0.945664       0.06111
   3     718.7        0.0000        0.0001        0.5626        0.5626       0.562627       0.04814
   2     792.3        0.0000        0.0000        0.2633        0.2633       0.263329       0.03433
   1     891.5        0.0001        0.0000        0.0506        0.0506       0.050537       0.01811
   0    1013.0        0.0013        0.0000        0.0018        0.0018       0.000508       0.00347



 Wavenumbers:  4000. -  4650. cm-1, ATM      1
 LEVEL PRESSURE   UPWARD FLUX   DIFDOWN FLUX  DIRDOWN FLUX  DOWNWARD FLUX   NET FLUX    HEATING RATE
          mb          W/m2          W/m2          W/m2        W/m2          W/m2       degree/day
  51    .06700        4.1848        0.0000       10.7795       10.7795       6.594709       0.00000
  50    .07753        4.1848        0.0000       10.7795       10.7795       6.594708       0.00080
  49    .09103        4.1848        0.0000       10.7795       10.7795       6.594707       0.00078
  48    0.1069        4.1848        0.0000       10.7795       10.7795       6.594706       0.00076
  47    0.1255        4.1848        0.0000       10.7795       10.7795       6.594704       0.00075
  46    0.1487        4.1848        0.0000       10.7795       10.7795       6.594702       0.00076
  45    0.1794        4.1848        0.0000       10.7795       10.7795       6.594699       0.00078
  44    0.2165        4.1848        0.0000       10.7795       10.7795       6.594696       0.00076
  43    0.2613        4.1848        0.0000       10.7795       10.7795       6.594692       0.00075
  42    0.3336        4.1848        0.0000       10.7795       10.7795       6.594685       0.00077
  41    0.4307        4.1848        0.0000       10.7795       10.7795       6.594676       0.00077
  40    0.5894        4.1848        0.0000       10.7795       10.7795       6.594661       0.00079
  39     1.339        4.1848        0.0000       10.7794       10.7794       6.594572       0.00100
  38     1.782        4.1848        0.0000       10.7793       10.7793       6.594503       0.00133
  37     2.292        4.1848        0.0000       10.7792       10.7792       6.594409       0.00155
  36     2.964        4.1848        0.0000       10.7791       10.7791       6.594269       0.00176
  35     3.853        4.1848        0.0000       10.7789       10.7789       6.594062       0.00197
  34     5.035        4.1848        0.0000       10.7786       10.7786       6.593756       0.00219
  33     6.613        4.1848        0.0000       10.7781       10.7781       6.593305       0.00241
  32     8.786        4.1848        0.0000       10.7774       10.7775       6.592641       0.00258
  31     11.80        4.1848        0.0001       10.7763       10.7764       6.591597       0.00292
  30     15.07        4.1848        0.0001       10.7751       10.7752       6.590372       0.00316
  29     18.79        4.1848        0.0001       10.7736       10.7737       6.588892       0.00336
  28     23.16        4.1848        0.0001       10.7717       10.7718       6.587054       0.00355
  27     28.12        4.1848        0.0001       10.7695       10.7696       6.584830       0.00378
  26     33.73        4.1848        0.0002       10.7667       10.7669       6.582089       0.00412
  25     40.54        4.1848        0.0002       10.7630       10.7631       6.578373       0.00461
  24     48.69        4.1848        0.0002       10.7580       10.7582       6.573423       0.00512
  23     57.69        4.1848        0.0003       10.7521       10.7523       6.567559       0.00550
  22     68.43        4.1848        0.0003       10.7447       10.7450       6.560214       0.00577
  21     81.20        4.1848        0.0004       10.7356       10.7360       6.551177       0.00597
  20     96.49        4.1849        0.0004       10.7246       10.7251       6.540189       0.00606
  19     114.6        4.1850        0.0005       10.7108       10.7113       6.526304       0.00648
  18     136.5        4.1852        0.0006       10.6941       10.6947       6.509583       0.00643
  17     162.9        4.1854        0.0007       10.6737       10.6744       6.489024       0.00657
  16     196.4        4.1859        0.0009       10.6455       10.6464       6.460478       0.00719
  15     218.7        4.1864        0.0010       10.6236       10.6246       6.438176       0.00847
  14     243.0        4.1872        0.0011       10.5942       10.5953       6.408079       0.01044
  13     269.0        4.1885        0.0012       10.5539       10.5551       6.366602       0.01345
  12     297.5        4.1905        0.0013       10.4995       10.5008       6.310298       0.01670
  11     328.5        4.1932        0.0014       10.4289       10.4303       6.237130       0.01989
  10     361.9        4.1966        0.0016       10.3371       10.3386       6.142056       0.02405
   9     398.1        4.2009        0.0017       10.2200       10.2217       6.020790       0.02825
   8     437.6        4.2062        0.0018       10.0759       10.0778       5.871511       0.03192
   7     480.5        4.2129        0.0020        9.9122        9.9142       5.701252       0.03344
   6     533.0        4.2230        0.0022        9.7074        9.7096       5.486622       0.03453
   5     589.8        4.2371        0.0024        9.4708        9.4732       5.236046       0.03719
   4     651.6        4.2592        0.0026        9.1510        9.1535       4.894363       0.04673
   3     718.7        4.2942        0.0027        8.7274        8.7301       4.435931       0.05761
   2     792.3        4.3535        0.0029        8.2075        8.2103       3.856863       0.06641
   1     891.5        4.4942        0.0030        7.5109        7.5139       3.019715       0.07124
   0    1013.0        4.8358        0.0032        6.7307        6.7339       1.898039       0.07788



 Wavenumbers:  4650. -  5150. cm-1, ATM      1
 LEVEL PRESSURE   UPWARD FLUX   DIFDOWN FLUX  DIRDOWN FLUX  DOWNWARD FLUX   NET FLUX    HEATING RATE
          mb          W/m2          W/m2          W/m2        W/m2          W/m2       degree/day
  51    .06700        2.9915        0.0000       10.2033       10.2033       7.211819       0.00000
  50    .07753        2.9915        0.0000       10.2031       10.2031       7.211583       0.18911
  49    .09103        2.9915        0.0000       10.2028       10.2028       7.211288       0.18438
  48    0.1069        2.9915        0.0000       10.2025       10.2025       7.210951       0.17941
  47    0.1255        2.9915        0.0000       10.2021       10.2021       7.210566       0.17435
  46    0.1487        2.9915        0.0000       10.2016       10.2016       7.210085       0.17545
  45    0.1794        2.9915        0.0000       10.2010       10.2010       7.209434       0.17860
  44    0.2165        2.9915        0.0000       10.2002       10.2002       7.208674       0.17287
  43    0.2613        2.9915        0.0000       10.1993       10.1993       7.207788       0.16699
  42    0.3336        2.9915        0.0000       10.1979       10.1979       7.206355       0.16711
  41    0.4307        2.9915        0.0000       10.1960       10.1960       7.204514       0.16011
  40    0.5894        2.9915        0.0000       10.1932       10.1932       7.201638       0.15292
  39     1.339        2.9915        0.0000       10.1816       10.1816       7.190040       0.13058
  38     1.782        2.9915        0.0000       10.1760       10.1760       7.184508       0.10532
  37     2.292        2.9915        0.0000       10.1705       10.1706       7.179048       0.09043
  36     2.964        2.9915        0.0000       10.1646       10.1646       7.173122       0.07440
  35     3.853        2.9915        0.0000       10.1584       10.1584       7.166903       0.05901
  34     5.035        2.9915        0.0000       10.1520       10.1521       7.160564       0.04529
  33     6.613        2.9915        0.0000       10.1456       10.1456       7.154103       0.03454
  32     8.786        2.9915        0.0001       10.1385       10.1386       7.147087       0.02725
  31     11.80        2.9915        0.0001       10.1295       10.1295       7.138041       0.02533
  30     15.07        2.9915        0.0001       10.1195       10.1196       7.128155       0.02552
  29     18.79        2.9915        0.0001       10.1075       10.1076       7.116139       0.02724
  28     23.16        2.9915        0.0002       10.0922       10.0923       7.100823       0.02962
  27     28.12        2.9915        0.0002       10.0730       10.0732       7.081715       0.03248
  26     33.73        2.9915        0.0002       10.0499       10.0501       7.058603       0.03475
  25     40.54        2.9916        0.0003       10.0200       10.0202       7.028676       0.03713
  24     48.69        2.9916        0.0003        9.9818        9.9821       6.990474       0.03953
  23     57.69        2.9917        0.0004        9.9382        9.9386       6.946899       0.04085
  22     68.43        2.9918        0.0004        9.8855        9.8859       6.894121       0.04149
  21     81.20        2.9920        0.0005        9.8231        9.8236       6.831674       0.04126
  20     96.49        2.9922        0.0006        9.7514        9.7520       6.759788       0.03968
  19     114.6        2.9925        0.0007        9.6714        9.6722       6.679628       0.03743
  18     136.5        2.9930        0.0009        9.5851        9.5860       6.592996       0.03331
  17     162.9        2.9937        0.0010        9.4933        9.4943       6.500600       0.02953
  16     196.4        2.9947        0.0012        9.3872        9.3884       6.393688       0.02691
  15     218.7        2.9956        0.0013        9.3214        9.3227       6.327127       0.02527
  14     243.0        2.9968        0.0015        9.2493        9.2508       6.253957       0.02538
  13     269.0        2.9985        0.0016        9.1663        9.1679       6.169355       0.02744
  12     297.5        3.0011        0.0018        9.0667        9.0685       6.067421       0.03023
  11     328.5        3.0044        0.0019        8.9501        8.9520       5.947652       0.03256
  10     361.9        3.0087        0.0021        8.8120        8.8141       5.805453       0.03598
   9     398.1        3.0143        0.0023        8.6496        8.6519       5.637533       0.03912
   8     437.6        3.0217        0.0025        8.4571        8.4596       5.437886       0.04269
   7     480.5        3.0313        0.0027        8.2339        8.2365       5.205193       0.04570
   6     533.0        3.0460        0.0029        7.9393        7.9422       4.896233       0.04970
   5     589.8        3.0665        0.0031        7.6016        7.6046       4.538175       0.05315
   4     651.6        3.0967        0.0033        7.2132        7.2165       4.119788       0.05722
   3     718.7        3.1417        0.0034        6.7887        6.7921       3.650390       0.05899
   2     792.3        3.2115        0.0036        6.3339        6.3375       3.126035       0.06014
   1     891.5        3.3588        0.0037        5.7343        5.7380       2.379190       0.06355
   0    1013.0        3.6555        0.0039        5.0863        5.0901       1.434614       0.06559



 Wavenumbers:  5150. -  6150. cm-1, ATM      1
 LEVEL PRESSURE   UPWARD FLUX   DIFDOWN FLUX  DIRDOWN FLUX  DOWNWARD FLUX   NET FLUX    HEATING RATE
          mb          W/m2          W/m2          W/m2        W/m2          W/m2       degree/day
  51    .06700        7.7579        0.0000       25.5798       25.5798      17.821910       0.00000
  50    .07753        7.7579        0.0000       25.5798       25.5798      17.821858       0.04147
  49    .09103        7.7579        0.0000       25.5797       25.5797      17.821791       0.04211
  48    0.1069        7.7579        0.0000       25.5796       25.5796      17.821710       0.04277
  47    0.1255        7.7579        0.0000       25.5795       25.5795      17.821615       0.04343
  46    0.1487        7.7579        0.0000       25.5794       25.5794      17.821489       0.04576
  45    0.1794        7.7579        0.0000       25.5792       25.5792      17.821312       0.04870
  44    0.2165        7.7579        0.0000       25.5790       25.5790      17.821094       0.04943
  43    0.2613        7.7579        0.0000       25.5787       25.5787      17.820828       0.05018
  42    0.3336        7.7579        0.0000       25.5783       25.5783      17.820374       0.05300
  41    0.4307        7.7579        0.0000       25.5777       25.5777      17.819756       0.05369
  40    0.5894        7.7579        0.0000       25.5766       25.5766      17.818722       0.05497
  39     1.339        7.7579        0.0000       25.5716       25.5716      17.813758       0.05589
  38     1.782        7.7579        0.0001       25.5687       25.5688      17.810880       0.05480
  37     2.292        7.7579        0.0001       25.5654       25.5655      17.807632       0.05379
  36     2.964        7.7579        0.0001       25.5613       25.5614      17.803522       0.05159
  35     3.853        7.7579        0.0001       25.5561       25.5562      17.798324       0.04934
  34     5.035        7.7579        0.0001       25.5494       25.5495      17.791669       0.04754
  33     6.613        7.7578        0.0002       25.5407       25.5409      17.783103       0.04579
  32     8.786        7.7578        0.0003       25.5297       25.5299      17.772114       0.04268
  31     11.80        7.7578        0.0004       25.5149       25.5152      17.757417       0.04115
  30     15.07        7.7578        0.0005       25.5003       25.5008      17.742947       0.03736
  29     18.79        7.7578        0.0006       25.4852       25.4858      17.728016       0.03386
  28     23.16        7.7578        0.0007       25.4693       25.4700      17.712210       0.03056
  27     28.12        7.7578        0.0008       25.4528       25.4537      17.695870       0.02778
  26     33.73        7.7578        0.0010       25.4364       25.4374      17.679582       0.02449
  25     40.54        7.7578        0.0012       25.4188       25.4200      17.662173       0.02160
  24     48.69        7.7579        0.0014       25.4003       25.4018      17.643859       0.01895
  23     57.69        7.7580        0.0017       25.3823       25.3840      17.625990       0.01675
  22     68.43        7.7581        0.0020       25.3629       25.3650      17.606845       0.01505
  21     81.20        7.7583        0.0024       25.3419       25.3443      17.586020       0.01376
  20     96.49        7.7585        0.0029       25.3184       25.3213      17.562776       0.01283
  19     114.6        7.7588        0.0034       25.2916       25.2950      17.536222       0.01240
  18     136.5        7.7592        0.0040       25.2603       25.2644      17.505167       0.01194
  17     162.9        7.7597        0.0048       25.2135       25.2183      17.458664       0.01486
  16     196.4        7.7603        0.0058       25.1106       25.1164      17.356069       0.02582
  15     218.7        7.7608        0.0064       24.9397       24.9461      17.185260       0.06485
  14     243.0        7.7614        0.0070       24.5672       24.5742      16.812813       0.12918
  13     269.0        7.7623        0.0076       23.9433       23.9509      16.188661       0.20247
  12     297.5        7.7634        0.0082       23.1843       23.1926      15.429170       0.22526
  11     328.5        7.7649        0.0088       22.3882       22.3970      14.632165       0.21670
  10     361.9        7.7668        0.0094       21.4763       21.4857      13.718940       0.23106
   9     398.1        7.7693        0.0100       20.4746       20.4846      12.715315       0.23382
   8     437.6        7.7725        0.0105       19.4145       19.4250      11.652470       0.22724
   7     480.5        7.7768        0.0110       18.3532       18.3643      10.587440       0.20917
   6     533.0        7.7836        0.0117       17.1980       17.2097       9.426033       0.18683
   5     589.8        7.7939        0.0123       16.1468       16.1591       8.365159       0.15747
   4     651.6        7.8114        0.0130       15.1946       15.2075       7.396156       0.13251
   3     718.7        7.8408        0.0137       14.4069       14.4206       6.579871       0.10258
   2     792.3        7.8929        0.0145       13.6656       13.6801       5.787244       0.09091
   1     891.5        8.0208        0.0155       12.6530       12.6685       4.647708       0.09697
   0    1013.0        8.3643        0.0165       11.6295       11.6460       3.281763       0.09484



 Wavenumbers:  6150. -  7700. cm-1, ATM      1
 LEVEL PRESSURE   UPWARD FLUX   DIFDOWN FLUX  DIRDOWN FLUX  DOWNWARD FLUX   NET FLUX    HEATING RATE
          mb          W/m2          W/m2          W/m2        W/m2          W/m2       degree/day
  51    .06700       11.1180        0.0000       47.3109       47.3109      36.192811       0.00000
  50    .07753       11.1180        0.0000       47.3108       47.3108      36.192741       0.05577
  49    .09103       11.1180        0.0000       47.3107       47.3107      36.192651       0.05624
  48    0.1069       11.1180        0.0000       47.3106       47.3106      36.192544       0.05673
  47    0.1255       11.1180        0.0000       47.3105       47.3105      36.192418       0.05722
  46    0.1487       11.1180        0.0000       47.3103       47.3103      36.192254       0.05989
  45    0.1794       11.1180        0.0000       47.3100       47.3101      36.192023       0.06338
  44    0.2165       11.1180        0.0000       47.3098       47.3098      36.191742       0.06399
  43    0.2613       11.1180        0.0000       47.3094       47.3094      36.191399       0.06462
  42    0.3336       11.1180        0.0000       47.3088       47.3088      36.190816       0.06795
  41    0.4307       11.1180        0.0000       47.3080       47.3080      36.190027       0.06864
  40    0.5894       11.1180        0.0001       47.3066       47.3067      36.188708       0.07011
  39     1.339       11.1179        0.0002       47.3002       47.3003      36.182372       0.07133
  38     1.782       11.1179        0.0002       47.2964       47.2966      36.178683       0.07023
  37     2.292       11.1179        0.0003       47.2921       47.2924      36.174499       0.06930
  36     2.964       11.1178        0.0004       47.2866       47.2870      36.169162       0.06700
  35     3.853       11.1177        0.0005       47.2796       47.2801      36.162345       0.06469
  34     5.035       11.1176        0.0006       47.2705       47.2711      36.153533       0.06295
  33     6.613       11.1175        0.0008       47.2587       47.2595      36.142058       0.06134
  32     8.786       11.1173        0.0011       47.2433       47.2444      36.127105       0.05807
  31     11.80       11.1170        0.0014       47.2223       47.2237      36.106704       0.05712
  30     15.07       11.1167        0.0018       47.2009       47.2028      36.086018       0.05341
  29     18.79       11.1164        0.0023       47.1782       47.1805      36.064106       0.04968
  28     23.16       11.1160        0.0028       47.1534       47.1562      36.040159       0.04631
  27     28.12       11.1156        0.0034       47.1268       47.1302      36.014583       0.04348
  26     33.73       11.1151        0.0041       47.0992       47.1033      35.988168       0.03971
  25     40.54       11.1145        0.0049       47.0686       47.0735      35.958924       0.03628
  24     48.69       11.1138        0.0059       47.0351       47.0410      35.927200       0.03283
  23     57.69       11.1131        0.0070       47.0014       47.0083      35.895270       0.02993
  22     68.43       11.1121        0.0083       46.9641       46.9724      35.860268       0.02752
  21     81.20       11.1110        0.0098       46.9227       46.9325      35.821484       0.02563
  20     96.49       11.1097        0.0116       46.8756       46.8872      35.777503       0.02427
  19     114.6       11.1082        0.0138       46.8212       46.8350      35.726866       0.02364
  18     136.5       11.1063        0.0164       46.7576       46.7740      35.667671       0.02276
  17     162.9       11.1041        0.0195       46.6664       46.6859      35.581769       0.02746
  16     196.4       11.1013        0.0234       46.4837       46.5071      35.405767       0.04430
  15     218.7       11.0996        0.0260       46.2326       46.2585      35.158966       0.09370
  14     243.0       11.0978        0.0286       45.7387       45.7673      34.669500       0.16976
  13     269.0       11.0961        0.0312       44.8300       44.8612      33.765041       0.29340
  12     297.5       11.0948        0.0337       43.5177       43.5514      32.456562       0.38808
  11     328.5       11.0940        0.0362       42.1209       42.1571      31.063110       0.37888
  10     361.9       11.0939        0.0387       40.6082       40.6469      29.553021       0.38207
   9     398.1       11.0949        0.0411       38.8744       38.9155      27.820630       0.40361
   8     437.6       11.0977        0.0433       36.9299       36.9732      25.875513       0.41588
   7     480.5       11.1030        0.0454       34.9019       34.9473      23.844290       0.39892
   6     533.0       11.1142        0.0476       32.5415       32.5891      21.474894       0.38116
   5     589.8       11.1349        0.0496       30.1468       30.1963      19.061457       0.35823
   4     651.6       11.1752        0.0511       27.6329       27.6840      16.508803       0.34908
   3     718.7       11.2491        0.0525       25.1892       25.2417      13.992589       0.31622
   2     792.3       11.3868        0.0535       22.8217       22.8752      11.488383       0.28720
   1     891.5       11.7354        0.0547       20.1101       20.1648       8.429326       0.26031
   0    1013.0       12.6566        0.0560       17.5632       17.6192       4.962597       0.24071



 Wavenumbers:  7700. -  8050. cm-1, ATM      1
 LEVEL PRESSURE   UPWARD FLUX   DIFDOWN FLUX  DIRDOWN FLUX  DOWNWARD FLUX   NET FLUX    HEATING RATE
          mb          W/m2          W/m2          W/m2        W/m2          W/m2       degree/day
  51    .06700        6.2294        0.0000       11.1810       11.1810       4.951521       0.00000
  50    .07753        6.2294        0.0000       11.1809       11.1809       4.951499       0.01745
  49    .09103        6.2295        0.0000       11.1809       11.1809       4.951472       0.01710
  48    0.1069        6.2295        0.0000       11.1809       11.1809       4.951440       0.01674
  47    0.1255        6.2295        0.0000       11.1809       11.1809       4.951404       0.01638
  46    0.1487        6.2295        0.0000       11.1808       11.1808       4.951358       0.01663
  45    0.1794        6.2295        0.0000       11.1808       11.1808       4.951296       0.01711
  44    0.2165        6.2295        0.0000       11.1807       11.1807       4.951222       0.01678
  43    0.2613        6.2295        0.0000       11.1806       11.1806       4.951135       0.01647
  42    0.3336        6.2295        0.0000       11.1805       11.1805       4.950990       0.01685
  41    0.4307        6.2296        0.0000       11.1803       11.1804       4.950799       0.01667
  40    0.5894        6.2296        0.0000       11.1801       11.1801       4.950486       0.01665
  39     1.339        6.2299        0.0001       11.1788       11.1789       4.949005       0.01667
  38     1.782        6.2300        0.0001       11.1781       11.1782       4.948135       0.01656
  37     2.292        6.2302        0.0001       11.1772       11.1773       4.947128       0.01668
  36     2.964        6.2304        0.0002       11.1761       11.1762       4.945806       0.01660
  35     3.853        6.2307        0.0002       11.1746       11.1748       4.944059       0.01657
  34     5.035        6.2311        0.0003       11.1726       11.1729       4.941739       0.01657
  33     6.613        6.2317        0.0004       11.1700       11.1703       4.938640       0.01657
  32     8.786        6.2324        0.0005       11.1664       11.1669       4.934466       0.01621
  31     11.80        6.2335        0.0007       11.1613       11.1620       4.928498       0.01671
  30     15.07        6.2346        0.0008       11.1558       11.1567       4.922097       0.01653
  29     18.79        6.2359        0.0010       11.1497       11.1507       4.914872       0.01638
  28     23.16        6.2374        0.0013       11.1425       11.1438       4.906445       0.01630
  27     28.12        6.2391        0.0016       11.1343       11.1359       4.896824       0.01636
  26     33.73        6.2410        0.0019       11.1252       11.1271       4.886078       0.01616
  25     40.54        6.2433        0.0023       11.1142       11.1165       4.873125       0.01607
  24     48.69        6.2462        0.0027       11.1010       11.1037       4.857556       0.01611
  23     57.69        6.2493        0.0032       11.0866       11.0898       4.840514       0.01597
  22     68.43        6.2530        0.0038       11.0695       11.0733       4.820298       0.01589
  21     81.20        6.2575        0.0045       11.0494       11.0539       4.796332       0.01584
  20     96.49        6.2629        0.0053       11.0255       11.0309       4.767942       0.01567
  19     114.6        6.2694        0.0063       10.9975       11.0039       4.734464       0.01563
  18     136.5        6.2772        0.0075       10.9648       10.9723       4.695101       0.01514
  17     162.9        6.2866        0.0089       10.9263       10.9352       4.648654       0.01485
  16     196.4        6.2989        0.0107       10.8773       10.8880       4.589068       0.01500
  15     218.7        6.3072        0.0119       10.8455       10.8575       4.550275       0.01473
  14     243.0        6.3163        0.0132       10.8114       10.8246       4.508335       0.01455
  13     269.0        6.3264        0.0146       10.7748       10.7894       4.463051       0.01469
  12     297.5        6.3375        0.0161       10.7355       10.7517       4.414141       0.01451
  11     328.5        6.3499        0.0178       10.6934       10.7111       4.361255       0.01438
  10     361.9        6.3636        0.0195       10.6482       10.6677       4.304092       0.01446
   9     398.1        6.3790        0.0214       10.5996       10.6210       4.242042       0.01446
   8     437.6        6.3962        0.0234       10.5472       10.5707       4.174414       0.01446
   7     480.5        6.4157        0.0256       10.4906       10.5162       4.100514       0.01451
   6     533.0        6.4413        0.0283       10.4197       10.4480       4.006725       0.01509
   5     589.8        6.4713        0.0311       10.3407       10.3718       3.900498       0.01577
   4     651.6        6.5080        0.0342       10.2498       10.2840       3.776018       0.01702
   3     718.7        6.5536        0.0374       10.1435       10.1809       3.627307       0.01869
   2     792.3        6.6125        0.0408       10.0153       10.0561       3.443586       0.02107
   1     891.5        6.7145        0.0453        9.8136        9.8589       3.144359       0.02546
   0    1013.0        6.8812        0.0504        9.5268        9.5772       2.695999       0.03113



 Wavenumbers:  8050. - 12850. cm-1, ATM      1
 LEVEL PRESSURE   UPWARD FLUX   DIFDOWN FLUX  DIRDOWN FLUX  DOWNWARD FLUX   NET FLUX    HEATING RATE
          mb          W/m2          W/m2          W/m2        W/m2          W/m2       degree/day
  51    .06700       73.9125        0.0000      156.5418      156.5418      82.629206       0.00000
  50    .07753       73.9125        0.0000      156.5417      156.5417      82.629206       0.00000
  49    .09103       73.9125        0.0001      156.5417      156.5417      82.629206      -0.00000
  48    0.1069       73.9125        0.0001      156.5416      156.5417      82.629206       0.00000
  47    0.1255       73.9125        0.0002      156.5415      156.5417      82.629206      -0.00000
  46    0.1487       73.9124        0.0002      156.5414      156.5416      82.629206       0.00000
  45    0.1794       73.9124        0.0003      156.5413      156.5416      82.629206       0.00000
  44    0.2165       73.9124        0.0004      156.5412      156.5416      82.629206      -0.00000
  43    0.2613       73.9123        0.0005      156.5410      156.5415      82.629206      -0.00000
  42    0.3336       73.9122        0.0007      156.5407      156.5414      82.629206       0.00000
  41    0.4307       73.9121        0.0010      156.5403      156.5413      82.629206      -0.00000
  40    0.5894       73.9119        0.0014      156.5397      156.5411      82.629206       0.00000
  39     1.339       73.9109        0.0034      156.5367      156.5401      82.629206      -0.00000
  38     1.782       73.9103        0.0046      156.5350      156.5395      82.629206      -0.00000
  37     2.292       73.9097        0.0059      156.5330      156.5389      82.629206       0.00000
  36     2.964       73.9088        0.0077      156.5303      156.5380      82.629206       0.00000
  35     3.853       73.9077        0.0100      156.5268      156.5369      82.629206       0.00000
  34     5.035       73.9062        0.0132      156.5222      156.5354      82.629206       0.00000
  33     6.613       73.9042        0.0174      156.5160      156.5334      82.629206      -0.00000
  32     8.786       73.9014        0.0230      156.5076      156.5306      82.629206      -0.00000
  31     11.80       73.8975        0.0311      156.4957      156.5267      82.629206       0.00000
  30     15.07       73.8933        0.0398      156.4828      156.5225      82.629206       0.00000
  29     18.79       73.8886        0.0496      156.4682      156.5178      82.629206       0.00000
  28     23.16       73.8830        0.0610      156.4512      156.5122      82.629206       0.00000
  27     28.12       73.8767        0.0742      156.4317      156.5059      82.629206      -0.00000
  26     33.73       73.8696        0.0889      156.4099      156.4988      82.629206       0.00000
  25     40.54       73.8609        0.1067      156.3834      156.4902      82.629206       0.00000
  24     48.69       73.8505        0.1282      156.3515      156.4797      82.629206      -0.00000
  23     57.69       73.8391        0.1519      156.3164      156.4683      82.629206       0.00000
  22     68.43       73.8254        0.1801      156.2746      156.4547      82.629206      -0.00000
  21     81.20       73.8091        0.2138      156.2246      156.4384      82.629206       0.00000
  20     96.49       73.7897        0.2540      156.1649      156.4189      82.629206       0.00000
  19     114.6       73.7667        0.3018      156.0861      156.3878      82.621106       0.00378
  18     136.5       73.7394        0.3585      155.9919      156.3505      82.611067       0.00386
  17     162.9       73.7069        0.4263      155.8750      156.3013      82.594421       0.00532
  16     196.4       73.6646        0.5144      155.7021      156.2165      82.551860       0.01071
  15     218.7       73.6370        0.5723      155.5377      156.1100      82.473028       0.02993
  14     243.0       73.6073        0.6352      155.2629      155.8981      82.290773       0.06321
  13     269.0       73.5760        0.7031      154.8138      155.5169      81.940878       0.11350
  12     297.5       73.5442        0.7761      154.1727      154.9487      81.404558       0.15907
  11     328.5       73.5122        0.8547      153.4085      154.2632      80.751056       0.17769
  10     361.9       73.4812        0.9389      152.4756      153.4145      79.933276       0.20691
   9     398.1       73.4534        1.0286      151.2918      152.3205      78.867096       0.24840
   8     437.6       73.4321        1.1237      149.7819      150.9056      77.473403       0.29798
   7     480.5       73.4217        1.2239      147.9306      149.1545      75.732773       0.34185
   6     533.0       73.4322        1.3443      145.3346      146.6790      73.246807       0.39991
   5     589.8       73.4860        1.4698      142.0950      143.5648      70.078858       0.47023
   4     651.6       73.6325        1.5974      137.9093      139.5067      65.874119       0.57501
   3     718.7       73.9358        1.7256      132.9249      134.6505      60.714716       0.64839
   2     792.3       74.5368        1.8511      126.9723      128.8233      54.286524       0.73724
   1     891.5       76.0871        1.9992      118.4655      120.4647      44.377555       0.84321
   0    1013.0       79.9302        2.1558      108.9242      111.0800      31.149836       0.91847



 Wavenumbers: 12850. - 16000. cm-1, ATM      1
 LEVEL PRESSURE   UPWARD FLUX   DIFDOWN FLUX  DIRDOWN FLUX  DOWNWARD FLUX   NET FLUX    HEATING RATE
          mb          W/m2          W/m2          W/m2        W/m2          W/m2       degree/day
  51    .06700       70.4329        0.0000       98.0872       98.0872      27.654305       0.00000
  50    .07753       70.4329        0.0001       98.0864       98.0864      27.653516       0.63261
  49    .09103       70.4329        0.0002       98.0853       98.0854      27.652525       0.61928
  48    0.1069       70.4329        0.0003       98.0841       98.0843      27.651387       0.60565
  47    0.1255       70.4329        0.0004       98.0826       98.0830      27.650081       0.59228
  46    0.1487       70.4329        0.0005       98.0809       98.0814      27.648433       0.60056
  45    0.1794       70.4329        0.0007       98.0784       98.0791      27.646194       0.61481
  44    0.2165       70.4330        0.0009       98.0756       98.0766      27.643562       0.59874
  43    0.2613       70.4331        0.0012       98.0723       98.0735      27.640470       0.58282
  42    0.3336       70.4332        0.0016       98.0670       98.0687      27.635430       0.58760
  41    0.4307       70.4335        0.0022       98.0602       98.0624      27.628923       0.56579
  40    0.5894       70.4341        0.0032       98.0496       98.0528      27.618692       0.54403
  39     1.339       70.4394        0.0078       98.0043       98.0122      27.572732       0.51743
  38     1.782       70.4444        0.0105       97.9793       97.9898      27.545396       0.52042
  37     2.292       70.4519        0.0137       97.9498       97.9634      27.511527       0.56097
  36     2.964       70.4644        0.0178       97.9088       97.9266      27.462186       0.61938
  35     3.853       70.4846        0.0232       97.8503       97.8735      27.388910       0.69540
  34     5.035       70.5152        0.0304       97.7680       97.7984      27.283232       0.75492
  33     6.613       70.5578        0.0400       97.6562       97.6962      27.138392       0.77432
  32     8.786       70.6134        0.0530       97.5107       97.5637      26.950317       0.73041
  31     11.80       70.6855        0.0715       97.3179       97.3894      26.703865       0.68999
  30     15.07       70.7545        0.0914       97.1283       97.2197      26.465194       0.61620
  29     18.79       70.8248        0.1138       96.9300       97.0438      26.218973       0.55826
  28     23.16       70.8982        0.1399       96.7166       96.8565      25.958320       0.50402
  27     28.12       70.9718        0.1698       96.4935       96.6633      25.691504       0.45357
  26     33.73       71.0395        0.2032       96.2731       96.4763      25.436839       0.38290
  25     40.54       71.1043        0.2436       96.0408       96.2844      25.180116       0.31849
  24     48.69       71.1659        0.2923       95.7946       96.0869      24.921013       0.26813
  23     57.69       71.2175        0.3458       95.5573       95.9031      24.685581       0.22068
  22     68.43       71.2616        0.4096       95.3106       95.7202      24.458541       0.17848
  21     81.20       71.2904        0.4856       95.0643       95.5499      24.259540       0.13150
  20     96.49       71.3026        0.5763       94.8153       95.3915      24.088916       0.09417
  19     114.6       71.3198        0.6851       94.5410       95.2261      23.906309       0.08526
  18     136.5       71.3298        0.8141       94.2320       95.0461      23.716278       0.07307
  17     162.9       71.3321        0.9677       93.8752       94.8429      23.510810       0.06568
  16     196.4       71.3148        1.1668       93.4344       94.6013      23.286493       0.05646
  15     218.7       71.2961        1.2976       93.1508       94.4484      23.152308       0.05095
  14     243.0       71.2726        1.4397       92.8426       94.2823      23.009784       0.04943
  13     269.0       71.2441        1.5937       92.5079       94.1016      22.857453       0.04942
  12     297.5       71.2113        1.7601       92.1425       93.9027      22.691401       0.04925
  11     328.5       71.1756        1.9399       91.7426       93.6826      22.506951       0.05015
  10     361.9       71.1380        2.1335       91.3049       93.4384      22.300465       0.05224
   9     398.1       71.0995        2.3418       90.8239       93.1657      22.066118       0.05460
   8     437.6       71.0629        2.5653       90.2902       92.8554      21.792508       0.05850
   7     480.5       71.0306        2.8046       89.6960       92.5006      21.469932       0.06335
   6     533.0       71.0048        3.0988       88.9246       92.0234      21.018655       0.07260
   5     589.8       71.0032        3.4148       88.0258       91.4407      20.437482       0.08627
   4     651.6       71.0486        3.7512       86.9484       90.6996      19.650980       0.10756
   3     718.7       71.1659        4.1060       85.6662       89.7722      18.606241       0.13129
   2     792.3       71.4169        4.4754       84.1124       88.5878      17.170889       0.16462
   1     891.5       72.0583        4.9532       81.7282       86.6815      14.623177       0.21680
   0    1013.0       73.4325        5.4953       78.6329       84.1281      10.695664       0.27271



 Wavenumbers: 16000. - 22650. cm-1, ATM      1
 LEVEL PRESSURE   UPWARD FLUX   DIFDOWN FLUX  DIRDOWN FLUX  DOWNWARD FLUX   NET FLUX    HEATING RATE
          mb          W/m2          W/m2          W/m2        W/m2          W/m2       degree/day
  51    .06700      139.8020        0.0000      156.3892      156.3892      16.587252       0.00000
  50    .07753      139.8020        0.0004      156.3887      156.3891      16.587106       0.11757
  49    .09103      139.8019        0.0009      156.3879      156.3888      16.586892       0.13335
  48    0.1069      139.8019        0.0015      156.3871      156.3885      16.586607       0.15206
  47    0.1255      139.8019        0.0021      156.3861      156.3882      16.586224       0.17333
  46    0.1487      139.8020        0.0029      156.3847      156.3877      16.585661       0.20539
  45    0.1794      139.8021        0.0041      156.3828      156.3869      16.584780       0.24184
  44    0.2165      139.8023        0.0054      156.3805      156.3859      16.583585       0.27180
  43    0.2613      139.8027        0.0070      156.3776      156.3846      16.581964       0.30557
  42    0.3336      139.8034        0.0096      156.3726      156.3823      16.578882       0.35934
  41    0.4307      139.8046        0.0131      156.3657      156.3788      16.574236       0.40394
  40    0.5894      139.8071        0.0188      156.3537      156.3725      16.565376       0.47117
  39     1.339      139.8292        0.0457      156.2834      156.3291      16.499916       0.73696
  38     1.782      139.8497        0.0615      156.2324      156.2939      16.444152       1.06165
  37     2.292      139.8805        0.0798      156.1641      156.2439      16.363434       1.33691
  36     2.964      139.9316        0.1038      156.0605      156.1643      16.232670       1.64148
  35     3.853      140.0144        0.1355      155.9041      156.0396      16.025181       1.96911
  34     5.035      140.1393        0.1776      155.6774      155.8549      15.715628       2.21132
  33     6.613      140.3139        0.2337      155.3656      155.5993      15.285448       2.29974
  32     8.786      140.5412        0.3093      154.9577      155.2669      14.725701       2.17385
  31     11.80      140.8370        0.4172      154.4153      154.8324      13.995401       2.04461
  30     15.07      141.1203        0.5328      153.8804      154.4132      13.292903       1.81371
  29     18.79      141.4095        0.6633      153.3191      153.9824      12.572936       1.63239
  28     23.16      141.7116        0.8155      152.7126      153.5280      11.816468       1.46277
  27     28.12      142.0154        0.9892      152.0755      153.0647      11.049316       1.30411
  26     33.73      142.2957        1.1835      151.4409      152.6244      10.328762       1.08337
  25     40.54      142.5650        1.4180      150.7637      152.1817       9.616627       0.88348
  24     48.69      142.8226        1.7004      150.0338      151.7342       8.911634       0.72956
  23     57.69      143.0405        2.0102      149.3151      151.3253       8.284852       0.58751
  22     68.43      143.2299        2.3787      148.5476      150.9264       7.696494       0.46253
  21     81.20      143.3594        2.8176      147.7517      150.5692       7.209806       0.32160
  20     96.49      143.4247        3.3399      146.9126      150.2526       6.827894       0.21079
  19     114.6      143.4567        3.9584      145.9763      149.9346       6.477934       0.16341
  18     136.5      143.4637        4.6886      144.9088      149.5973       6.133674       0.13238
  17     162.9      143.4437        5.5541      143.6785      149.2326       5.788832       0.11023
  16     196.4      143.3570        6.6707      142.1650      148.8357       5.478668       0.07807
  15     218.7      143.2778        7.4004      141.2032      148.6036       5.325821       0.05803
  14     243.0      143.1815        8.1902      140.1751      148.3653       5.183765       0.04927
  13     269.0      143.0665        9.0422      139.0791      148.1213       5.054817       0.04183
  12     297.5      142.9322        9.9585      137.9129      147.8714       4.939208       0.03429
  11     328.5      142.7826       10.9434      136.6655      147.6089       4.826308       0.03070
  10     361.9      142.6173       11.9978      135.3357      147.3335       4.716113       0.02788
   9     398.1      142.4361       13.1257      133.9179      147.0436       4.607510       0.02530
   8     437.6      142.2398       14.3292      132.4076      146.7368       4.497011       0.02363
   7     480.5      142.0282       15.6103      130.8019      146.4121       4.383967       0.02220
   6     533.0      141.7683       17.1751      128.8402      146.0153       4.246970       0.02204
   5     589.8      141.4930       18.8470      126.7381      145.5851       4.092046       0.02300
   4     651.6      141.2097       20.6278      124.4815      145.1093       3.899647       0.02631
   3     718.7      140.9254       22.5192      122.0584      144.5777       3.652240       0.03109
   2     792.3      140.6606       24.5191      119.4478      143.9669       3.306284       0.03968
   1     891.5      140.4002       27.1732      115.8789      143.0521       2.651891       0.05569
   0    1013.0      140.2483       30.2914      111.5576      141.8490       1.600679       0.07299



 Wavenumbers: 22650. - 29000. cm-1, ATM      1
 LEVEL PRESSURE   UPWARD FLUX   DIFDOWN FLUX  DIRDOWN FLUX  DOWNWARD FLUX   NET FLUX    HEATING RATE
          mb          W/m2          W/m2          W/m2        W/m2          W/m2       degree/day
  51    .06700       58.3821        0.0000       59.0156       59.0156       0.633471       0.00000
  50    .07753       58.3820        0.0005       59.0151       59.0155       0.633471      -0.00000
  49    .09103       58.3819        0.0010       59.0144       59.0154       0.633471       0.00000
  48    0.1069       58.3818        0.0017       59.0136       59.0153       0.633471       0.00000
  47    0.1255       58.3817        0.0025       59.0127       59.0151       0.633471       0.00000
  46    0.1487       58.3815        0.0034       59.0115       59.0149       0.633471       0.00000
  45    0.1794       58.3812        0.0048       59.0099       59.0147       0.633471       0.00000
  44    0.2165       58.3809        0.0063       59.0080       59.0144       0.633471       0.00000
  43    0.2613       58.3805        0.0082       59.0058       59.0140       0.633471       0.00000
  42    0.3336       58.3799        0.0113       59.0022       59.0134       0.633471      -0.00000
  41    0.4307       58.3792        0.0153       58.9973       59.0126       0.633471      -0.00000
  40    0.5894       58.3779        0.0220       58.9894       59.0113       0.633471       0.00000
  39     1.339       58.3717        0.0534       58.9518       59.0052       0.633471       0.00000
  38     1.782       58.3681        0.0719       58.9297       59.0016       0.633471       0.00000
  37     2.292       58.3640        0.0933       58.9042       58.9974       0.633471      -0.00000
  36     2.964       58.3585        0.1213       58.8706       58.9920       0.633471       0.00000
  35     3.853       58.3513        0.1584       58.8264       58.9847       0.633471       0.00000
  34     5.035       58.3417        0.2076       58.7676       58.9751       0.633471      -0.00000
  33     6.613       58.3289        0.2732       58.6891       58.9623       0.633471       0.00000
  32     8.786       58.3116        0.3617       58.5834       58.9451       0.633471       0.00000
  31     11.80       58.2870        0.4880       58.4324       58.9204       0.633471       0.00000
  30     15.07       58.2606        0.6234       58.2706       58.8940       0.633471      -0.00000
  29     18.79       58.2308        0.7760       58.0882       58.8643       0.633471       0.00000
  28     23.16       58.1961        0.9539       57.8757       58.8296       0.633471      -0.00000
  27     28.12       58.1565        1.1567       57.6333       58.7900       0.633471      -0.00000
  26     33.73       58.1124        1.3828       57.3631       58.7459       0.633471       0.00000
  25     40.54       58.0593        1.6549       57.0379       58.6928       0.633471      -0.00000
  24     48.69       57.9956        1.9812       56.6479       58.6291       0.633471       0.00000
  23     57.69       57.9261        2.3375       56.2221       58.5595       0.633471       0.00000
  22     68.43       57.8438        2.7587       55.7186       58.4773       0.633471      -0.00000
  21     81.20       57.7466        3.2562       55.1239       58.3801       0.633471       0.00000
  20     96.49       57.6320        3.8427       54.4228       58.2655       0.633471       0.00000
  19     114.6       57.4976        4.5301       53.6010       58.1311       0.633471      -0.00000
  18     136.5       57.3407        5.3324       52.6418       57.9742       0.633471       0.00000
  17     162.9       57.1571        6.2703       51.5203       57.7906       0.633471      -0.00000
  16     196.4       56.9244        7.4584       50.0994       57.5579       0.633471       0.00000
  15     218.7       56.7747        8.2219       49.1863       57.4082       0.633471       0.00000
  14     243.0       56.6148        9.0370       48.2112       57.2483       0.633471      -0.00000
  13     269.0       56.4447        9.9033       47.1748       57.0782       0.633471       0.00000
  12     297.5       56.2646       10.8200       46.0781       56.8981       0.633471       0.00000
  11     328.5       56.0741       11.7884       44.9192       56.7076       0.633471       0.00000
  10     361.9       55.8738       12.8059       43.7014       56.5073       0.633471      -0.00000
   9     398.1       55.6635       13.8727       42.4243       56.2970       0.633471       0.00000
   8     437.6       55.4437       14.9866       41.0905       56.0772       0.633471       0.00000
   7     480.5       55.2147       16.1453       39.7029       55.8482       0.633471       0.00000
   6     533.0       54.9419       17.5234       38.0520       55.5754       0.633471       0.00000
   5     589.8       54.6585       18.9519       36.3401       55.2920       0.633471      -0.00000
   4     651.6       54.3658       20.4239       34.5754       54.9993       0.633471       0.00000
   3     718.7       54.0647       21.9339       32.7643       54.6982       0.633471       0.00000
   2     792.3       53.7567       23.4744       30.9157       54.3902       0.633471      -0.00000
   1     891.5       53.3632       25.4345       28.5621       53.9966       0.633471       0.00000
   0    1013.0       52.9224       27.6179       25.9380       53.5559       0.633471       0.00000



 Wavenumbers: 29000. - 38000. cm-1, ATM      1
 LEVEL PRESSURE   UPWARD FLUX   DIFDOWN FLUX  DIRDOWN FLUX  DOWNWARD FLUX   NET FLUX    HEATING RATE
          mb          W/m2          W/m2          W/m2        W/m2          W/m2       degree/day
  51    .06700        8.7365        0.0000       20.8114       20.8114      12.074825       0.00000
  50    .07753        8.7363        0.0003       20.8070       20.8074      12.071018       3.05152
  49    .09103        8.7361        0.0007       20.8009       20.8016      12.065481       3.46081
  48    0.1069        8.7359        0.0012       20.7928       20.7939      12.058071       3.94425
  47    0.1255        8.7356        0.0017       20.7820       20.7837      12.048166       4.49029
  46    0.1487        8.7352        0.0024       20.7665       20.7688      12.033603       5.30838
  45    0.1794        8.7348        0.0033       20.7424       20.7457      12.010939       6.22197
  44    0.2165        8.7343        0.0044       20.7103       20.7147      11.980416       6.94332
  43    0.2613        8.7337        0.0056       20.6675       20.6731      11.939422       7.72723
  42    0.3336        8.7328        0.0077       20.5880       20.5956      11.862862       8.92614
  41    0.4307        8.7317        0.0104       20.4722       20.4826      11.750911       9.73389
  40    0.5894        8.7301        0.0147       20.2637       20.2784      11.548230      10.77831
  39     1.339        8.7267        0.0331       19.0984       19.1315      10.404776      12.87322
  38     1.782        8.7272        0.0427       18.4394       18.4820       9.754870      12.37315
  37     2.292        8.7298        0.0530       17.7714       17.8244       9.094552      10.93659
  36     2.964        8.7363        0.0656       17.0421       17.1078       8.371471       9.07686
  35     3.853        8.7490        0.0816       16.2678       16.3494       7.600358       7.31800
  34     5.035        8.7701        0.1017       15.4803       15.5820       6.811963       5.63197
  33     6.613        8.8006        0.1275       14.7157       14.8432       6.042517       4.11346
  32     8.786        8.8410        0.1612       13.9936       14.1548       5.313747       2.83028
  31     11.80        8.8937        0.2082       13.2835       13.4918       4.598021       2.00381
  30     15.07        8.9446        0.2570       12.7394       12.9963       4.051778       1.41029
  29     18.79        8.9971        0.3110       12.2666       12.5776       3.580572       1.06837
  28     23.16        9.0528        0.3725       11.8300       12.2025       3.149692       0.83318
  27     28.12        9.1099        0.4413       11.4279       11.8692       2.759268       0.66369
  26     33.73        9.1626        0.5172       11.0695       11.5866       2.424021       0.50405
  25     40.54        9.2126        0.6078       10.7209       11.3287       2.116118       0.38199
  24     48.69        9.2597        0.7153       10.3742       11.0895       1.829831       0.29626
  23     57.69        9.2983        0.8317       10.0549       10.8866       1.588318       0.22638
  22     68.43        9.3294        0.9682        9.7327       10.7009       1.371520       0.17043
  21     81.20        9.3442        1.1294        9.4134       10.5428       1.198658       0.11422
  20     96.49        9.3405        1.3189        9.0887       10.4076       1.067079       0.07262
  19     114.6        9.3266        1.5378        8.7388       10.2766       0.949966       0.05468
  18     136.5        9.3054        1.7881        8.3549       10.1430       0.837602       0.04321
  17     162.9        9.2769        2.0734        7.9311       10.0045       0.727595       0.03516
  16     196.4        9.2292        2.4267        7.4333        9.8600       0.630777       0.02437
  15     218.7        9.1949        2.6489        7.1295        9.7785       0.583562       0.01793
  14     243.0        9.1573        2.8812        6.8161        9.6973       0.539966       0.01512
  13     269.0        9.1162        3.1228        6.4943        9.6171       0.500824       0.01270
  12     297.5        9.0718        3.3724        6.1657        9.5381       0.466321       0.01023
  11     328.5        9.0253        3.6292        5.8294        9.4586       0.433291       0.00898
  10     361.9        8.9774        3.8907        5.4885        9.3793       0.401882       0.00795
   9     398.1        8.9280        4.1563        5.1438        9.3001       0.372119       0.00693
   8     437.6        8.8778        4.4244        4.7968        9.2213       0.343430       0.00613
   7     480.5        8.8271        4.6930        4.4503        9.1433       0.316202       0.00535
   6     533.0        8.7688        4.9992        4.0562        9.0553       0.286525       0.00477
   5     589.8        8.7113        5.3010        3.6681        8.9691       0.257796       0.00426
   4     651.6        8.6553        5.5955        3.2895        8.8850       0.229691       0.00384
   3     718.7        8.6016        5.8798        2.9240        8.8038       0.202170       0.00346
   2     792.3        8.5507        6.1515        2.5744        8.7259       0.175236       0.00309
   1     891.5        8.4920        6.4709        2.1631        8.6340       0.141992       0.00283
   0    1013.0        8.4353        6.7918        1.7488        8.5406       0.105318       0.00255



 Wavenumbers: 38000. - 50000. cm-1, ATM      1
 LEVEL PRESSURE   UPWARD FLUX   DIFDOWN FLUX  DIRDOWN FLUX  DOWNWARD FLUX   NET FLUX    HEATING RATE
          mb          W/m2          W/m2          W/m2        W/m2          W/m2       degree/day
  51    .06700        0.0061        0.0000        1.2836        1.2836       1.277518       0.00000
  50    .07753        0.0061        0.0001        1.2812        1.2812       1.275183       1.87150
  49    .09103        0.0060        0.0002        1.2777        1.2778       1.271851       2.08247
  48    0.1069        0.0059        0.0002        1.2731        1.2734       1.267473       2.33059
  47    0.1255        0.0058        0.0004        1.2672        1.2675       1.261717       2.60908
  46    0.1487        0.0057        0.0005        1.2586        1.2591       1.253391       3.03499
  45    0.1794        0.0055        0.0007        1.2455        1.2462       1.240623       3.50520
  44    0.2165        0.0054        0.0009        1.2282        1.2291       1.223697       3.85037
  43    0.2613        0.0052        0.0011        1.2054        1.2065       1.201348       4.21261
  42    0.3336        0.0049        0.0015        1.1639        1.1654       1.160524       4.75970
  41    0.4307        0.0045        0.0020        1.1051        1.1070       1.102565       5.03943
  40    0.5894        0.0039        0.0026        1.0039        1.0064       1.002524       5.32007
  39     1.339        0.0022        0.0035        0.5438        0.5473       0.545104       5.14971
  38     1.782        0.0016        0.0032        0.3635        0.3666       0.365006       3.42879
  37     2.292        0.0012        0.0027        0.2356        0.2383       0.237058       2.11916
  36     2.964        0.0009        0.0022        0.1455        0.1477       0.146786       1.13318
  35     3.853        0.0006        0.0017        0.0858        0.0875       0.086906       0.56828
  34     5.035        0.0004        0.0013        0.0488        0.0501       0.049701       0.26578
  33     6.613        0.0003        0.0010        0.0273        0.0282       0.027974       0.11615
  32     8.786        0.0002        0.0007        0.0144        0.0151       0.014928       0.05067
  31     11.80        0.0001        0.0004        0.0065        0.0070       0.006903       0.02247
  30     15.07        0.0000        0.0003        0.0031        0.0034       0.003329       0.00923
  29     18.79        0.0000        0.0002        0.0014        0.0016       0.001583       0.00396
  28     23.16        0.0000        0.0001        0.0006        0.0007       0.000720       0.00167
  27     28.12        0.0000        0.0001        0.0003        0.0003       0.000317       0.00069
  26     33.73        0.0000        0.0000        0.0001        0.0001       0.000140       0.00027
  25     40.54        0.0000        0.0000        0.0000        0.0001       0.000057       0.00010
  24     48.69        0.0000        0.0000        0.0000        0.0000       0.000021       0.00004
  23     57.69        0.0000        0.0000        0.0000        0.0000       0.000008       0.00001
  22     68.43        0.0000        0.0000        0.0000        0.0000       0.000003       0.00000
  21     81.20        0.0000        0.0000        0.0000        0.0000       0.000001       0.00000
  20     96.49        0.0000        0.0000        0.0000        0.0000       0.000000       0.00000
  19     114.6        0.0000        0.0000        0.0000        0.0000       0.000000       0.00000
  18     136.5        0.0000        0.0000        0.0000        0.0000       0.000000       0.00000
  17     162.9        0.0000        0.0000        0.0000        0.0000       0.000000       0.00000
  16     196.4        0.0000        0.0000        0.0000        0.0000       0.000000       0.00000
  15     218.7        0.0000        0.0000        0.0000        0.0000       0.000000       0.00000
  14     243.0        0.0000        0.0000        0.0000        0.0000       0.000000       0.00000
  13     269.0        0.0000        0.0000        0.0000        0.0000       0.000000       0.00000
  12     297.5        0.0000        0.0000        0.0000        0.0000       0.000000       0.00000
  11     328.5        0.0000        0.0000        0.0000        0.0000       0.000000       0.00000
  10     361.9        0.0000        0.0000        0.0000        0.0000       0.000000       0.00000
   9     398.1        0.0000        0.0000        0.0000        0.0000       0.000000       0.00000
   8     437.6        0.0000        0.0000        0.0000        0.0000       0.000000       0.00000
   7     480.5        0.0000        0.0000        0.0000        0.0000       0.000000       0.00000
   6     533.0        0.0000        0.0000        0.0000        0.0000       0.000000       0.00000
   5     589.8        0.0000        0.0000        0.0000        0.0000       0.000000       0.00000
   4     651.6        0.0000        0.0000        0.0000        0.0000       0.000000       0.00000
   3     718.7        0.0000        0.0000        0.0000        0.0000       0.000000       0.00000
   2     792.3        0.0000        0.0000        0.0000        0.0000       0.000000       0.00000
   1     891.5        0.0000        0.0000        0.0000        0.0000       0.000000       0.00000
   0    1013.0        0.0000        0.0000        0.0000        0.0000       0.000000       0.00000



 Wavenumbers:   820. -  2600. cm-1, ATM      1
 LEVEL PRESSURE   UPWARD FLUX   DIFDOWN FLUX  DIRDOWN FLUX  DOWNWARD FLUX   NET FLUX    HEATING RATE
          mb          W/m2          W/m2          W/m2        W/m2          W/m2       degree/day
  51    .06700        0.5487        0.0000        6.0047        6.0047       5.455966       0.00000
  50    .07753        0.5487        0.0000        6.0008        6.0008       5.452090       3.10673
  49    .09103        0.5487        0.0000        5.9999        5.9999       5.451174       0.57239
  48    0.1069        0.5487        0.0000        5.9988        5.9988       5.450149       0.54565
  47    0.1255        0.5487        0.0000        5.9977        5.9977       5.448989       0.52593
  46    0.1487        0.5487        0.0000        5.9963        5.9963       5.447576       0.51505
  45    0.1794        0.5487        0.0000        5.9945        5.9945       5.445777       0.49380
  44    0.2165        0.5487        0.0000        5.9925        5.9925       5.443838       0.44124
  43    0.2613        0.5487        0.0000        5.9904        5.9904       5.441759       0.39179
  42    0.3336        0.5487        0.0000        5.9874        5.9874       5.438678       0.35926
  41    0.4307        0.5487        0.0000        5.9836        5.9836       5.434933       0.32560
  40    0.5894        0.5487        0.0000        5.9777        5.9777       5.428968       0.31718
  39     1.339        0.5487        0.0000        5.9500        5.9500       5.401334       0.31112
  38     1.782        0.5487        0.0000        5.9347        5.9347       5.385993       0.29207
  37     2.292        0.5487        0.0000        5.9176        5.9176       5.368954       0.28220
  36     2.964        0.5487        0.0000        5.8963        5.8963       5.347643       0.26752
  35     3.853        0.5487        0.0000        5.8699        5.8699       5.321219       0.25076
  34     5.035        0.5487        0.0000        5.8375        5.8375       5.288775       0.23177
  33     6.613        0.5487        0.0000        5.7975        5.7975       5.248839       0.21350
  32     8.786        0.5487        0.0000        5.7483        5.7483       5.199575       0.19132
  31     11.80        0.5487        0.0000        5.6880        5.6880       5.139299       0.16876
  30     15.07        0.5487        0.0000        5.6377        5.6377       5.088970       0.12994
  29     18.79        0.5487        0.0000        5.5962        5.5962       5.047511       0.09400
  28     23.16        0.5487        0.0000        5.5619        5.5619       5.013216       0.06631
  27     28.12        0.5487        0.0000        5.5326        5.5326       4.983886       0.04986
  26     33.73        0.5487        0.0000        5.5052        5.5052       4.956480       0.04121
  25     40.54        0.5487        0.0000        5.4750        5.4750       4.926216       0.03755
  24     48.69        0.5488        0.0000        5.4404        5.4404       4.891667       0.03575
  23     57.69        0.5488        0.0000        5.4038        5.4038       4.855025       0.03435
  22     68.43        0.5488        0.0000        5.3616        5.3616       4.812862       0.03315
  21     81.20        0.5488        0.0000        5.3137        5.3138       4.764959       0.03165
  20     96.49        0.5488        0.0000        5.2591        5.2591       4.710309       0.03016
  19     114.6        0.5488        0.0000        5.1964        5.1965       4.647608       0.02928
  18     136.5        0.5489        0.0000        5.1254        5.1254       4.576515       0.02734
  17     162.9        0.5489        0.0000        5.0371        5.0371       4.488190       0.02823
  16     196.4        0.5490        0.0000        4.9043        4.9044       4.355362       0.03343
  15     218.7        0.5491        0.0000        4.7863        4.7863       4.237223       0.04485
  14     243.0        0.5492        0.0000        4.6267        4.6268       4.077533       0.05539
  13     269.0        0.5495        0.0000        4.4475        4.4475       3.898036       0.05823
  12     297.5        0.5498        0.0000        4.2352        4.2353       3.685425       0.06306
  11     328.5        0.5504        0.0000        3.9885        3.9885       3.438102       0.06725
  10     361.9        0.5511        0.0000        3.7144        3.7144       3.163287       0.06953
   9     398.1        0.5522        0.0000        3.4513        3.4513       2.899100       0.06155
   8     437.6        0.5536        0.0000        3.2351        3.2351       2.681502       0.04652
   7     480.5        0.5554        0.0000        3.0810        3.0810       2.525608       0.03062
   6     533.0        0.5583        0.0000        2.9362        2.9363       2.377945       0.02375
   5     589.8        0.5629        0.0000        2.7749        2.7750       2.212093       0.02462
   4     651.6        0.5715        0.0000        2.5715        2.5715       2.000057       0.02900
   3     718.7        0.5870        0.0000        2.3465        2.3466       1.759548       0.03023
   2     792.3        0.6164        0.0000        2.1027        2.1027       1.486338       0.03133
   1     891.5        0.6941        0.0000        1.7423        1.7424       1.048297       0.03728
   0    1013.0        0.9018        0.0000        1.2558        1.2559       0.354024       0.04821

  Modules and versions used in this calculation:

       rrtmg_sw.1col.f90:  $Revision$                    rrtmg_sw_init.f90:  $Revision$        
     rrtmgsw_cldprop.f90:  $Revision$                  rrtmgsw_cldprmc.f90:  NOT USED          
     rrtmg_sw_reftra.f90:  $Revision$                  rrtmg_sw_spcvrt.f90:  NOT USED          
     rrtmg_sw_spcvmc.f90:  NOT USED                    rrtmgsw_setcoef.f90:  NOT USED          
     rrtmg_sw_taumol.f90:  $Revision$                  rrtmg_sw_vrtqdr.f90:  NOT USED          
                rrtatm.f:  NOT USED                             util_xxx.f:  NOT USED          
                 extra.f:  NOT USED                       rrtmg_sw_k_g.f90:  $Revision$        

