

 Wavenumbers:   820. - 50000. cm-1, ATM      1
 LEVEL PRESSURE   UPWARD FLUX   DIFDOWN FLUX  DIRDOWN FLUX  DOWNWARD FLUX   NET FLUX    HEATING RATE
          mb          W/m2          W/m2          W/m2        W/m2          W/m2       degree/day
  51    .06700      209.8322        0.0000      397.8738      397.8738     188.041589       0.00000
  50    .07753      209.8316        0.0012      397.8577      397.8588     188.027263      11.48289
  49    .09103      209.8308        0.0026      397.8417      397.8443     188.013536       8.57983
  48    0.1069      209.8299        0.0043      397.8228      397.8271     187.997147       8.72358
  47    0.1255      209.8290        0.0062      397.7995      397.8056     187.976664       9.28604
  46    0.1487      209.8278        0.0086      397.7674      397.7759     187.948159      10.39035
  45    0.1794      209.8262        0.0119      397.7202      397.7320     187.905811      11.62564
  44    0.2165      209.8244        0.0157      397.6598      397.6755     187.851104      12.44489
  43    0.2613      209.8224        0.0203      397.5823      397.6026     187.780240      13.35763
  42    0.3336      209.8192        0.0278      397.4441      397.4719     187.652699      14.86995
  41    0.4307      209.8152        0.0376      397.2513      397.2890     187.473735      15.56051
  40    0.5894      209.8093        0.0534      396.9238      396.9773     187.167919      16.26291
  39     1.339      209.7923        0.1241      395.4223      395.5464     185.754059      15.91750
  38     1.782      209.7895        0.1637      394.7250      394.8887     185.099172      12.46800
  37     2.292      209.7925        0.2088      394.0527      394.2615     184.468971      10.43777
  36     2.964      209.8058        0.2672      393.2958      393.5631     183.757270       8.93400
  35     3.853      209.8362        0.3436      392.4268      392.7705     182.934287       7.81026
  34     5.035      209.8894        0.4442      391.4394      391.8836     181.994164       6.71584
  33     6.613      209.9675        0.5773      390.3226      390.8999     180.932400       5.67620
  32     8.786      210.0679        0.7554      389.0591      389.8145     179.746662       4.60498
  31     11.80      210.1900        1.0081      387.5485      388.5566     178.366610       3.86371
  30     15.07      210.2959        1.2771      386.1563      387.4334     177.137479       3.17338
  29     18.79      210.3933        1.5786      384.7539      386.3325     175.939280       2.71668
  28     23.16      210.4812        1.9278      383.2764      385.2042     174.723055       2.35179
  27     28.12      210.5516        2.3239      381.7455      384.0694     173.517834       2.04880
  26     33.73      210.5862        2.7638      380.2168      382.9806     172.394407       1.68910
  25     40.54      210.5768        3.2913      378.5644      381.8557     171.278934       1.38387
  24     48.69      210.5164        3.9215      376.7572      380.6787     170.162265       1.15558
  23     57.69      210.4033        4.6070      374.9411      379.5482     169.144839       0.95368
  22     68.43      210.2185        5.4151      372.9538      378.3689     168.150390       0.78177
  21     81.20      209.9289        6.3672      370.8117      377.1790     167.250050       0.59493
  20     96.49      209.5216        7.4871      368.4756      375.9627     166.441127       0.44647
  19     114.6      209.0179        8.7946      365.8339      374.6285     165.610586       0.38780
  18     136.5      208.4089       10.3125      362.8400      373.1525     164.743621       0.33337
  17     162.9      207.6785       12.0762      359.3892      371.4654     163.786951       0.30579
  16     196.4      206.7091       14.2986      355.0144      369.3130     162.603904       0.29779
  15     218.7      206.0708       15.7192      351.9594      367.6786     161.607813       0.37818
  14     243.0      205.3834       17.2295      348.2675      365.4970     160.113661       0.51822
  13     269.0      204.6475       18.8277      343.7550      362.5827     157.935133       0.70670
  12     297.5      203.8662       20.5114      338.5068      359.0182     155.151996       0.82545
  11     328.5      203.0428       22.2822      332.8831      355.1653     152.122492       0.82371
  10     361.9      202.1823       24.1348      326.8113      350.9461     148.763850       0.84977
   9     398.1      201.2890       26.0686      320.2372      346.3058     145.016767       0.87299
   8     437.6      200.3743       28.0778      313.1616      341.2394     140.865145       0.88764
   7     480.5      199.4494       30.1591      305.6964      335.8555     136.406107       0.87574
   6     533.0      198.4050       32.6218      296.6807      329.3025     130.897581       0.88615
   5     589.8      197.4334       35.1608      287.0555      322.2162     124.782791       0.90764
   4     651.6      196.6852       37.7636      276.4494      314.2130     117.527718       0.99215
   3     718.7      164.2920      220.3025       51.4748      271.7773     107.485312       1.26205
   2     792.3      142.7289      232.7288        9.5553      242.2841      99.555138       0.90950
   1     891.5      107.9197      198.5307        0.0664      198.5971      90.677408       0.75545
   0    1013.0      108.3502      192.3392        0.0616      192.4007      84.050533       0.46014



 Wavenumbers:  2600. -  3250. cm-1, ATM      1
 LEVEL PRESSURE   UPWARD FLUX   DIFDOWN FLUX  DIRDOWN FLUX  DOWNWARD FLUX   NET FLUX    HEATING RATE
          mb          W/m2          W/m2          W/m2        W/m2          W/m2       degree/day
  51    .06700        0.2046        0.0000        3.5066        3.5066       3.302014       0.00000
  50    .07753        0.2046        0.0000        3.5066        3.5066       3.302006       0.00640
  49    .09103        0.2046        0.0000        3.5066        3.5066       3.301996       0.00627
  48    0.1069        0.2046        0.0000        3.5066        3.5066       3.301984       0.00613
  47    0.1255        0.2046        0.0000        3.5066        3.5066       3.301971       0.00599
  46    0.1487        0.2046        0.0000        3.5066        3.5066       3.301954       0.00607
  45    0.1794        0.2046        0.0000        3.5065        3.5065       3.301932       0.00624
  44    0.2165        0.2046        0.0000        3.5065        3.5065       3.301905       0.00611
  43    0.2613        0.2046        0.0000        3.5065        3.5065       3.301873       0.00598
  42    0.3336        0.2046        0.0000        3.5064        3.5064       3.301820       0.00615
  41    0.4307        0.2046        0.0000        3.5064        3.5064       3.301749       0.00618
  40    0.5894        0.2046        0.0000        3.5062        3.5062       3.301630       0.00633
  39     1.339        0.2046        0.0000        3.5055        3.5055       3.300931       0.00787
  38     1.782        0.2046        0.0000        3.5050        3.5050       3.300401       0.01011
  37     2.292        0.2046        0.0000        3.5043        3.5043       3.299708       0.01147
  36     2.964        0.2046        0.0000        3.5033        3.5033       3.298717       0.01245
  35     3.853        0.2046        0.0000        3.5019        3.5019       3.297340       0.01307
  34     5.035        0.2046        0.0000        3.5001        3.5001       3.295479       0.01329
  33     6.613        0.2046        0.0000        3.4977        3.4977       3.293069       0.01288
  32     8.786        0.2046        0.0000        3.4947        3.4947       3.290098       0.01154
  31     11.80        0.2046        0.0000        3.4911        3.4911       3.286462       0.01018
  30     15.07        0.2046        0.0000        3.4878        3.4878       3.283241       0.00832
  29     18.79        0.2046        0.0000        3.4848        3.4848       3.280178       0.00695
  28     23.16        0.2046        0.0000        3.4816        3.4816       3.276957       0.00623
  27     28.12        0.2046        0.0000        3.4779        3.4779       3.273339       0.00615
  26     33.73        0.2046        0.0000        3.4735        3.4735       3.268871       0.00672
  25     40.54        0.2046        0.0000        3.4671        3.4671       3.262544       0.00785
  24     48.69        0.2046        0.0000        3.4582        3.4583       3.253647       0.00921
  23     57.69        0.2046        0.0000        3.4472        3.4472       3.242596       0.01036
  22     68.43        0.2046        0.0000        3.4329        3.4329       3.228332       0.01121
  21     81.20        0.2046        0.0000        3.4152        3.4152       3.210597       0.01172
  20     96.49        0.2046        0.0000        3.3940        3.3941       3.189444       0.01167
  19     114.6        0.2047        0.0000        3.3693        3.3694       3.164713       0.01155
  18     136.5        0.2047        0.0001        3.3424        3.3425       3.137802       0.01035
  17     162.9        0.2047        0.0001        3.3141        3.3142       3.109446       0.00906
  16     196.4        0.2048        0.0001        3.2825        3.2826       3.077783       0.00797
  15     218.7        0.2049        0.0001        3.2621        3.2622       3.057344       0.00776
  14     243.0        0.2050        0.0001        3.2371        3.2372       3.032217       0.00871
  13     269.0        0.2052        0.0001        3.2052        3.2053       3.000150       0.01040
  12     297.5        0.2055        0.0001        3.1631        3.1632       2.957675       0.01260
  11     328.5        0.2059        0.0001        3.1094        3.1095       2.903624       0.01470
  10     361.9        0.2065        0.0001        3.0408        3.0409       2.834437       0.01751
   9     398.1        0.2073        0.0001        2.9535        2.9536       2.746285       0.02054
   8     437.6        0.2085        0.0001        2.8452        2.8453       2.636776       0.02341
   7     480.5        0.2102        0.0002        2.7179        2.7180       2.507844       0.02532
   6     533.0        0.2130        0.0002        2.5566        2.5568       2.343766       0.02640
   5     589.8        0.2174        0.0002        2.3805        2.3807       2.163343       0.02678
   4     651.6        0.2249        0.0002        2.1827        2.1829       1.957944       0.02809
   3     718.7        0.0962        0.7100        0.3305        1.0405       0.944318       0.12738
   2     792.3        0.0473        0.4749        0.0487        0.5237       0.476356       0.05367
   1     891.5        0.0205        0.1131        0.0002        0.1133       0.092716       0.03265
   0    1013.0        0.0235        0.0936        0.0001        0.0937       0.070244       0.00156



 Wavenumbers:  3250. -  4000. cm-1, ATM      1
 LEVEL PRESSURE   UPWARD FLUX   DIFDOWN FLUX  DIRDOWN FLUX  DOWNWARD FLUX   NET FLUX    HEATING RATE
          mb          W/m2          W/m2          W/m2        W/m2          W/m2       degree/day
  51    .06700        0.0133        0.0000        5.9117        5.9117       5.898395       0.00000
  50    .07753        0.0133        0.0000        5.9074        5.9074       5.894184       3.37561
  49    .09103        0.0133        0.0000        5.9050        5.9050       5.891718       1.54074
  48    0.1069        0.0133        0.0000        5.9031        5.9031       5.889830       1.00535
  47    0.1255        0.0133        0.0000        5.9013        5.9013       5.888051       0.80634
  46    0.1487        0.0133        0.0000        5.8994        5.8994       5.886139       0.69708
  45    0.1794        0.0133        0.0000        5.8972        5.8972       5.883963       0.59741
  44    0.2165        0.0133        0.0000        5.8951        5.8951       5.881816       0.48841
  43    0.2613        0.0133        0.0000        5.8929        5.8929       5.879619       0.41398
  42    0.3336        0.0133        0.0000        5.8897        5.8897       5.876400       0.37536
  41    0.4307        0.0133        0.0000        5.8857        5.8857       5.872488       0.34011
  40    0.5894        0.0133        0.0000        5.8798        5.8798       5.866582       0.31410
  39     1.339        0.0133        0.0000        5.8590        5.8590       5.845780       0.23419
  38     1.782        0.0133        0.0000        5.8506        5.8506       5.837311       0.16123
  37     2.292        0.0133        0.0000        5.8424        5.8424       5.829106       0.13590
  36     2.964        0.0133        0.0000        5.8327        5.8327       5.819458       0.12112
  35     3.853        0.0133        0.0000        5.8206        5.8206       5.807310       0.11528
  34     5.035        0.0133        0.0000        5.8045        5.8045       5.791279       0.11452
  33     6.613        0.0133        0.0000        5.7828        5.7828       5.769542       0.11620
  32     8.786        0.0132        0.0000        5.7527        5.7527       5.739439       0.11691
  31     11.80        0.0132        0.0000        5.7088        5.7089       5.695617       0.12269
  30     15.07        0.0132        0.0000        5.6617        5.6618       5.648526       0.12158
  29     18.79        0.0132        0.0000        5.6101        5.6102       5.596941       0.11696
  28     23.16        0.0132        0.0000        5.5539        5.5539       5.540679       0.10879
  27     28.12        0.0132        0.0000        5.4957        5.4958       5.482531       0.09885
  26     33.73        0.0132        0.0000        5.4379        5.4379       5.424721       0.08692
  25     40.54        0.0132        0.0001        5.3749        5.3750       5.361761       0.07811
  24     48.69        0.0132        0.0001        5.3044        5.3045       5.291299       0.07292
  23     57.69        0.0132        0.0001        5.2294        5.2295       5.216296       0.07030
  22     68.43        0.0132        0.0001        5.1416        5.1417       5.128534       0.06899
  21     81.20        0.0132        0.0001        5.0402        5.0403       5.027120       0.06701
  20     96.49        0.0131        0.0001        4.9260        4.9261       4.912938       0.06302
  19     114.6        0.0131        0.0001        4.7954        4.7956       4.782463       0.06092
  18     136.5        0.0131        0.0002        4.6558        4.6560       4.642870       0.05368
  17     162.9        0.0131        0.0002        4.4963        4.4964       4.483378       0.05098
  16     196.4        0.0130        0.0002        4.2728        4.2731       4.260023       0.05622
  15     218.7        0.0130        0.0002        4.0724        4.0727       4.059652       0.07607
  14     243.0        0.0130        0.0002        3.8102        3.8105       3.797499       0.09092
  13     269.0        0.0130        0.0002        3.4720        3.4722       3.459236       0.10973
  12     297.5        0.0130        0.0002        3.0589        3.0591       3.046119       0.12253
  11     328.5        0.0130        0.0002        2.6499        2.6502       2.637146       0.11120
  10     361.9        0.0131        0.0002        2.2815        2.2817       2.268602       0.09325
   9     398.1        0.0132        0.0002        1.9524        1.9526       1.939358       0.07671
   8     437.6        0.0134        0.0002        1.6512        1.6515       1.638015       0.06443
   7     480.5        0.0138        0.0002        1.3776        1.3778       1.363986       0.05382
   6     533.0        0.0146        0.0002        1.0886        1.0888       1.074260       0.04661
   5     589.8        0.0159        0.0002        0.8105        0.8106       0.794666       0.04150
   4     651.6        0.0190        0.0001        0.5333        0.5334       0.514378       0.03833
   3     718.7        0.0044        0.1050        0.0536        0.1586       0.154274       0.04526
   2     792.3        0.0011        0.0354        0.0040        0.0394       0.038291       0.01330
   1     891.5        0.0000        0.0021        0.0000        0.0021       0.002135       0.00308
   0    1013.0        0.0000        0.0002        0.0000        0.0002       0.000144       0.00014



 Wavenumbers:  4000. -  4650. cm-1, ATM      1
 LEVEL PRESSURE   UPWARD FLUX   DIFDOWN FLUX  DIRDOWN FLUX  DOWNWARD FLUX   NET FLUX    HEATING RATE
          mb          W/m2          W/m2          W/m2        W/m2          W/m2       degree/day
  51    .06700        2.0772        0.0000        6.9421        6.9421       4.864848       0.00000
  50    .07753        2.0772        0.0000        6.9421        6.9421       4.864847       0.00080
  49    .09103        2.0772        0.0000        6.9421        6.9421       4.864846       0.00078
  48    0.1069        2.0772        0.0000        6.9421        6.9421       4.864844       0.00076
  47    0.1255        2.0772        0.0000        6.9421        6.9421       4.864843       0.00075
  46    0.1487        2.0772        0.0000        6.9421        6.9421       4.864841       0.00076
  45    0.1794        2.0772        0.0000        6.9421        6.9421       4.864838       0.00078
  44    0.2165        2.0772        0.0000        6.9421        6.9421       4.864834       0.00076
  43    0.2613        2.0772        0.0000        6.9420        6.9421       4.864830       0.00075
  42    0.3336        2.0772        0.0000        6.9420        6.9420       4.864824       0.00077
  41    0.4307        2.0772        0.0000        6.9420        6.9420       4.864815       0.00077
  40    0.5894        2.0772        0.0000        6.9420        6.9420       4.864800       0.00080
  39     1.339        2.0772        0.0000        6.9419        6.9419       4.864711       0.00101
  38     1.782        2.0772        0.0000        6.9418        6.9419       4.864641       0.00133
  37     2.292        2.0772        0.0000        6.9418        6.9418       4.864547       0.00156
  36     2.964        2.0772        0.0000        6.9416        6.9416       4.864406       0.00176
  35     3.853        2.0772        0.0000        6.9414        6.9414       4.864198       0.00197
  34     5.035        2.0772        0.0000        6.9411        6.9411       4.863892       0.00219
  33     6.613        2.0772        0.0000        6.9406        6.9406       4.863441       0.00241
  32     8.786        2.0772        0.0000        6.9399        6.9400       4.862776       0.00258
  31     11.80        2.0772        0.0000        6.9389        6.9389       4.861734       0.00292
  30     15.07        2.0772        0.0001        6.9376        6.9377       4.860515       0.00315
  29     18.79        2.0772        0.0001        6.9361        6.9362       4.859045       0.00333
  28     23.16        2.0772        0.0001        6.9343        6.9344       4.857226       0.00352
  27     28.12        2.0772        0.0001        6.9321        6.9322       4.855033       0.00373
  26     33.73        2.0772        0.0001        6.9294        6.9295       4.852340       0.00405
  25     40.54        2.0772        0.0002        6.9257        6.9259       4.848708       0.00451
  24     48.69        2.0772        0.0002        6.9209        6.9211       4.843895       0.00498
  23     57.69        2.0772        0.0002        6.9152        6.9154       4.838229       0.00531
  22     68.43        2.0772        0.0003        6.9081        6.9084       4.831178       0.00554
  21     81.20        2.0773        0.0003        6.8995        6.8998       4.822547       0.00570
  20     96.49        2.0774        0.0004        6.8891        6.8895       4.812109       0.00576
  19     114.6        2.0775        0.0005        6.8762        6.8767       4.799155       0.00605
  18     136.5        2.0778        0.0005        6.8608        6.8614       4.783630       0.00597
  17     162.9        2.0781        0.0006        6.8421        6.8428       4.764700       0.00605
  16     196.4        2.0786        0.0008        6.8166        6.8174       4.738754       0.00653
  15     218.7        2.0791        0.0009        6.7976        6.7984       4.719293       0.00739
  14     243.0        2.0798        0.0009        6.7731        6.7741       4.694236       0.00869
  13     269.0        2.0809        0.0010        6.7409        6.7420       4.661067       0.01076
  12     297.5        2.0825        0.0012        6.6982        6.6993       4.616807       0.01313
  11     328.5        2.0847        0.0013        6.6434        6.6447       4.559953       0.01546
  10     361.9        2.0877        0.0014        6.5741        6.5755       4.487838       0.01825
   9     398.1        2.0914        0.0015        6.4889        6.4904       4.399047       0.02069
   8     437.6        2.0962        0.0016        6.3876        6.3893       4.293052       0.02266
   7     480.5        2.1026        0.0018        6.2749        6.2766       4.174072       0.02337
   6     533.0        2.1126        0.0019        6.1332        6.1351       4.022537       0.02438
   5     589.8        2.1275        0.0021        5.9653        5.9674       3.839876       0.02711
   4     651.6        2.1528        0.0023        5.7389        5.7411       3.588396       0.03439
   3     718.7        1.4745        3.4620        0.9605        4.4225       2.948065       0.08047
   2     792.3        1.0734        3.3666        0.1588        3.5254       2.452000       0.05689
   1     891.5        0.4930        2.2653        0.0008        2.2661       1.773066       0.05777
   0    1013.0        0.5229        2.0849        0.0007        2.0856       1.562757       0.01460



 Wavenumbers:  4650. -  5150. cm-1, ATM      1
 LEVEL PRESSURE   UPWARD FLUX   DIFDOWN FLUX  DIRDOWN FLUX  DOWNWARD FLUX   NET FLUX    HEATING RATE
          mb          W/m2          W/m2          W/m2        W/m2          W/m2       degree/day
  51    .06700        1.4002        0.0000        6.5710        6.5710       5.170819       0.00000
  50    .07753        1.4002        0.0000        6.5708        6.5708       5.170584       0.18877
  49    .09103        1.4002        0.0000        6.5705        6.5705       5.170290       0.18352
  48    0.1069        1.4002        0.0000        6.5701        6.5701       5.169956       0.17796
  47    0.1255        1.4002        0.0000        6.5697        6.5697       5.169576       0.17229
  46    0.1487        1.4002        0.0000        6.5693        6.5693       5.169102       0.17259
  45    0.1794        1.4002        0.0000        6.5686        6.5686       5.168466       0.17464
  44    0.2165        1.4002        0.0000        6.5679        6.5679       5.167729       0.16778
  43    0.2613        1.4002        0.0000        6.5670        6.5670       5.166876       0.16069
  42    0.3336        1.4002        0.0000        6.5657        6.5657       5.165514       0.15885
  41    0.4307        1.4002        0.0000        6.5640        6.5640       5.163793       0.14963
  40    0.5894        1.4002        0.0000        6.5613        6.5613       5.161178       0.13905
  39     1.339        1.4002        0.0000        6.5516        6.5516       5.151406       0.11002
  38     1.782        1.4002        0.0000        6.5473        6.5474       5.147193       0.08022
  37     2.292        1.4002        0.0000        6.5435        6.5435       5.143308       0.06434
  36     2.964        1.4002        0.0000        6.5395        6.5395       5.139356       0.04961
  35     3.853        1.4002        0.0000        6.5356        6.5356       5.135415       0.03740
  34     5.035        1.4002        0.0000        6.5315        6.5316       5.131415       0.02858
  33     6.613        1.4001        0.0000        6.5271        6.5272       5.127023       0.02348
  32     8.786        1.4001        0.0001        6.5216        6.5217       5.121529       0.02134
  31     11.80        1.4001        0.0001        6.5135        6.5136       5.113451       0.02262
  30     15.07        1.4001        0.0001        6.5041        6.5042       5.104082       0.02419
  29     18.79        1.4001        0.0001        6.4926        6.4927       5.092564       0.02611
  28     23.16        1.4001        0.0001        6.4780        6.4781       5.077967       0.02823
  27     28.12        1.4002        0.0002        6.4600        6.4601       5.059984       0.03057
  26     33.73        1.4002        0.0002        6.4385        6.4387       5.038540       0.03224
  25     40.54        1.4002        0.0002        6.4114        6.4116       5.011393       0.03368
  24     48.69        1.4003        0.0003        6.3777        6.3780       4.977721       0.03485
  23     57.69        1.4003        0.0003        6.3406        6.3409       4.940580       0.03481
  22     68.43        1.4005        0.0004        6.2974        6.2978       4.897314       0.03401
  21     81.20        1.4006        0.0005        6.2485        6.2490       4.848384       0.03233
  20     96.49        1.4009        0.0006        6.1952        6.1957       4.794842       0.02955
  19     114.6        1.4012        0.0007        6.1386        6.1392       4.737978       0.02655
  18     136.5        1.4017        0.0008        6.0795        6.0803       4.678581       0.02284
  17     162.9        1.4024        0.0009        6.0168        6.0177       4.615284       0.02023
  16     196.4        1.4036        0.0011        5.9412        5.9423       4.538775       0.01926
  15     218.7        1.4044        0.0012        5.8915        5.8927       4.488222       0.01919
  14     243.0        1.4056        0.0013        5.8346        5.8360       4.430358       0.02007
  13     269.0        1.4072        0.0015        5.7676        5.7690       4.361866       0.02222
  12     297.5        1.4094        0.0016        5.6858        5.6874       4.277967       0.02488
  11     328.5        1.4123        0.0017        5.5899        5.5917       4.179339       0.02682
  10     361.9        1.4161        0.0019        5.4787        5.4806       4.064533       0.02905
   9     398.1        1.4210        0.0020        5.3502        5.3523       3.931239       0.03105
   8     437.6        1.4275        0.0022        5.2035        5.2057       3.778131       0.03274
   7     480.5        1.4360        0.0024        5.0390        5.0413       3.605325       0.03394
   6     533.0        1.4491        0.0025        4.8308        4.8333       3.384250       0.03556
   5     589.8        1.4675        0.0027        4.6030        4.6057       3.138238       0.03652
   4     651.6        1.4952        0.0029        4.3500        4.3529       2.857652       0.03837
   3     718.7        1.0133        2.5502        0.7292        3.2794       2.266119       0.07434
   2     792.3        0.7341        2.4452        0.1211        2.5663       1.832270       0.04976
   1     891.5        0.3380        1.5869        0.0006        1.5875       1.249581       0.04958
   0    1013.0        0.3625        1.4453        0.0005        1.4458       1.083339       0.01154



 Wavenumbers:  5150. -  6150. cm-1, ATM      1
 LEVEL PRESSURE   UPWARD FLUX   DIFDOWN FLUX  DIRDOWN FLUX  DOWNWARD FLUX   NET FLUX    HEATING RATE
          mb          W/m2          W/m2          W/m2        W/m2          W/m2       degree/day
  51    .06700        4.0664        0.0000       16.4735       16.4735      12.407094       0.00000
  50    .07753        4.0664        0.0000       16.4735       16.4735      12.407055       0.03158
  49    .09103        4.0664        0.0000       16.4734       16.4734      12.407003       0.03206
  48    0.1069        4.0664        0.0000       16.4734       16.4734      12.406942       0.03257
  47    0.1255        4.0664        0.0000       16.4733       16.4733      12.406869       0.03306
  46    0.1487        4.0664        0.0000       16.4732       16.4732      12.406774       0.03483
  45    0.1794        4.0664        0.0000       16.4730       16.4730      12.406639       0.03706
  44    0.2165        4.0664        0.0000       16.4729       16.4729      12.406473       0.03761
  43    0.2613        4.0664        0.0000       16.4727       16.4727      12.406271       0.03817
  42    0.3336        4.0664        0.0000       16.4723       16.4723      12.405925       0.04031
  41    0.4307        4.0664        0.0000       16.4719       16.4719      12.405456       0.04082
  40    0.5894        4.0664        0.0000       16.4711       16.4711      12.404670       0.04177
  39     1.339        4.0664        0.0000       16.4673       16.4673      12.400905       0.04239
  38     1.782        4.0664        0.0000       16.4651       16.4651      12.398726       0.04148
  37     2.292        4.0664        0.0001       16.4626       16.4626      12.396273       0.04064
  36     2.964        4.0664        0.0001       16.4595       16.4595      12.393174       0.03890
  35     3.853        4.0664        0.0001       16.4555       16.4556      12.389266       0.03709
  34     5.035        4.0663        0.0001       16.4505       16.4506      12.384282       0.03561
  33     6.613        4.0663        0.0002       16.4440       16.4442      12.377897       0.03413
  32     8.786        4.0663        0.0002       16.4358       16.4361      12.369758       0.03161
  31     11.80        4.0663        0.0003       16.4249       16.4252      12.358983       0.03017
  30     15.07        4.0662        0.0004       16.4143       16.4147      12.348441       0.02722
  29     18.79        4.0662        0.0005       16.4034       16.4039      12.337709       0.02433
  28     23.16        4.0662        0.0006       16.3920       16.3926      12.326433       0.02180
  27     28.12        4.0661        0.0008       16.3803       16.3811      12.314926       0.01956
  26     33.73        4.0661        0.0009       16.3687       16.3696      12.303537       0.01712
  25     40.54        4.0661        0.0011       16.3564       16.3575      12.291412       0.01504
  24     48.69        4.0661        0.0013       16.3435       16.3448      12.278729       0.01312
  23     57.69        4.0661        0.0016       16.3309       16.3325      12.266369       0.01159
  22     68.43        4.0662        0.0019       16.3174       16.3193      12.253136       0.01040
  21     81.20        4.0662        0.0022       16.3027       16.3049      12.238688       0.00955
  20     96.49        4.0663        0.0026       16.2861       16.2888      12.222471       0.00895
  19     114.6        4.0664        0.0031       16.2671       16.2702      12.203780       0.00873
  18     136.5        4.0666        0.0037       16.2445       16.2482      12.181668       0.00850
  17     162.9        4.0668        0.0044       16.2108       16.2152      12.148410       0.01063
  16     196.4        4.0671        0.0053       16.1360       16.1413      12.074151       0.01869
  15     218.7        4.0674        0.0059       16.0099       16.0158      11.948373       0.04775
  14     243.0        4.0678        0.0064       15.7396       15.7461      11.678298       0.09367
  13     269.0        4.0684        0.0070       15.3077       15.3147      11.246305       0.14014
  12     297.5        4.0694        0.0075       14.7951       14.8026      10.733283       0.15216
  11     328.5        4.0707        0.0081       14.2426       14.2507      10.179992       0.15044
  10     361.9        4.0727        0.0086       13.6155       13.6241       9.551428       0.15903
   9     398.1        4.0755        0.0092       12.9439       12.9530       8.877507       0.15701
   8     437.6        4.0797        0.0096       12.2429       12.2525       8.172854       0.15066
   7     480.5        4.0857        0.0101       11.5524       11.5625       7.476828       0.13670
   6     533.0        4.0963        0.0106       10.8188       10.8294       6.733105       0.11964
   5     589.8        4.1144        0.0111       10.1668       10.1779       6.063456       0.09940
   4     651.6        4.1502        0.0116        9.5867        9.5982       5.448063       0.08416
   3     718.7        2.9389        6.0077        1.6529        7.6606       4.721735       0.09128
   2     792.3        2.1874        6.0732        0.2842        6.3574       4.170015       0.06328
   1     891.5        1.0069        4.4612        0.0016        4.4628       3.455881       0.06077
   0    1013.0        1.0459        4.1705        0.0014        4.1720       3.126059       0.02290



 Wavenumbers:  6150. -  7700. cm-1, ATM      1
 LEVEL PRESSURE   UPWARD FLUX   DIFDOWN FLUX  DIRDOWN FLUX  DOWNWARD FLUX   NET FLUX    HEATING RATE
          mb          W/m2          W/m2          W/m2        W/m2          W/m2       degree/day
  51    .06700        6.7150        0.0000       30.4684       30.4684      23.753404       0.00000
  50    .07753        6.7150        0.0000       30.4683       30.4683      23.753347       0.04553
  49    .09103        6.7150        0.0000       30.4682       30.4683      23.753274       0.04582
  48    0.1069        6.7150        0.0000       30.4682       30.4682      23.753187       0.04613
  47    0.1255        6.7150        0.0000       30.4681       30.4681      23.753085       0.04643
  46    0.1487        6.7150        0.0000       30.4679       30.4679      23.752952       0.04850
  45    0.1794        6.7150        0.0000       30.4677       30.4677      23.752765       0.05124
  44    0.2165        6.7150        0.0000       30.4675       30.4675      23.752538       0.05163
  43    0.2613        6.7150        0.0000       30.4672       30.4672      23.752262       0.05205
  42    0.3336        6.7150        0.0000       30.4667       30.4667      23.751793       0.05464
  41    0.4307        6.7149        0.0000       30.4661       30.4661      23.751160       0.05511
  40    0.5894        6.7149        0.0001       30.4650       30.4650      23.750103       0.05619
  39     1.339        6.7149        0.0001       30.4598       30.4599      23.745039       0.05701
  38     1.782        6.7148        0.0002       30.4567       30.4569      23.742096       0.05603
  37     2.292        6.7148        0.0003       30.4533       30.4535      23.738761       0.05523
  36     2.964        6.7147        0.0003       30.4489       30.4492      23.734511       0.05335
  35     3.853        6.7146        0.0004       30.4433       30.4437      23.729088       0.05146
  34     5.035        6.7145        0.0006       30.4360       30.4366      23.722096       0.04995
  33     6.613        6.7144        0.0008       30.4266       30.4274      23.713026       0.04849
  32     8.786        6.7142        0.0010       30.4144       30.4154      23.701265       0.04568
  31     11.80        6.7139        0.0014       30.3978       30.3992      23.685325       0.04463
  30     15.07        6.7136        0.0017       30.3811       30.3828      23.669283       0.04142
  29     18.79        6.7132        0.0022       30.3635       30.3656      23.652419       0.03824
  28     23.16        6.7128        0.0027       30.3443       30.3470      23.634162       0.03530
  27     28.12        6.7123        0.0032       30.3239       30.3272      23.614807       0.03290
  26     33.73        6.7118        0.0039       30.3029       30.3068      23.594983       0.02981
  25     40.54        6.7112        0.0046       30.2799       30.2845      23.573297       0.02690
  24     48.69        6.7104        0.0056       30.2548       30.2603      23.549905       0.02421
  23     57.69        6.7096        0.0066       30.2296       30.2362      23.526564       0.02188
  22     68.43        6.7086        0.0078       30.2020       30.2098      23.501187       0.01995
  21     81.20        6.7074        0.0093       30.1714       30.1807      23.473247       0.01846
  20     96.49        6.7060        0.0110       30.1369       30.1478      23.441828       0.01734
  19     114.6        6.7043        0.0130       30.0970       30.1101      23.405714       0.01686
  18     136.5        6.7024        0.0155       30.0504       30.0659      23.363534       0.01622
  17     162.9        6.7000        0.0184       29.9842       30.0026      23.302547       0.01949
  16     196.4        6.6971        0.0221       29.8533       29.8754      23.178354       0.03126
  15     218.7        6.6952        0.0246       29.6742       29.6988      23.003570       0.06636
  14     243.0        6.6934        0.0271       29.3154       29.3425      22.649044       0.12296
  13     269.0        6.6919        0.0296       28.6682       28.6978      22.005832       0.20866
  12     297.5        6.6911        0.0319       27.7720       27.8040      21.112858       0.26485
  11     328.5        6.6913        0.0343       26.8285       26.8628      20.171551       0.25594
  10     361.9        6.6929        0.0367       25.7886       25.8254      19.132457       0.26290
   9     398.1        6.6970        0.0390       24.6047       24.6437      17.946764       0.27624
   8     437.6        6.7050        0.0411       23.3058       23.3469      16.641978       0.27897
   7     480.5        6.7189        0.0430       21.9700       22.0130      15.294125       0.26471
   6     533.0        6.7466        0.0450       20.4313       20.4763      13.729692       0.25167
   5     589.8        6.7976        0.0467       18.8913       18.9380      12.140367       0.23591
   4     651.6        6.9025        0.0479       17.2864       17.3344      10.431862       0.23364
   3     718.7        4.8317       10.5683        2.9334       13.5017       8.670061       0.22141
   2     792.3        3.5775       10.4035        0.4948       10.8983       7.320785       0.15475
   1     891.5        1.5873        7.5346        0.0028        7.5375       5.950180       0.11663
   0    1013.0        1.6952        6.7592        0.0025        6.7617       5.066530       0.06136



 Wavenumbers:  7700. -  8050. cm-1, ATM      1
 LEVEL PRESSURE   UPWARD FLUX   DIFDOWN FLUX  DIRDOWN FLUX  DOWNWARD FLUX   NET FLUX    HEATING RATE
          mb          W/m2          W/m2          W/m2        W/m2          W/m2       degree/day
  51    .06700        3.0265        0.0000        7.2006        7.2006       4.174086       0.00000
  50    .07753        3.0265        0.0000        7.2006        7.2006       4.174066       0.01585
  49    .09103        3.0265        0.0000        7.2005        7.2005       4.174041       0.01554
  48    0.1069        3.0265        0.0000        7.2005        7.2005       4.174013       0.01521
  47    0.1255        3.0265        0.0000        7.2005        7.2005       4.173980       0.01488
  46    0.1487        3.0265        0.0000        7.2004        7.2005       4.173938       0.01510
  45    0.1794        3.0265        0.0000        7.2004        7.2004       4.173882       0.01554
  44    0.2165        3.0265        0.0000        7.2003        7.2003       4.173815       0.01524
  43    0.2613        3.0265        0.0000        7.2003        7.2003       4.173736       0.01496
  42    0.3336        3.0265        0.0000        7.2001        7.2001       4.173604       0.01531
  41    0.4307        3.0266        0.0000        7.2000        7.2000       4.173430       0.01514
  40    0.5894        3.0266        0.0000        7.1997        7.1997       4.173146       0.01512
  39     1.339        3.0267        0.0001        7.1984        7.1985       4.171801       0.01514
  38     1.782        3.0268        0.0001        7.1977        7.1978       4.171011       0.01503
  37     2.292        3.0268        0.0001        7.1968        7.1969       4.170098       0.01513
  36     2.964        3.0269        0.0001        7.1957        7.1958       4.168898       0.01506
  35     3.853        3.0271        0.0002        7.1942        7.1944       4.167314       0.01503
  34     5.035        3.0273        0.0002        7.1922        7.1925       4.165212       0.01502
  33     6.613        3.0275        0.0003        7.1896        7.1899       4.162406       0.01500
  32     8.786        3.0278        0.0004        7.1860        7.1865       4.158629       0.01467
  31     11.80        3.0283        0.0006        7.1810        7.1815       4.153238       0.01509
  30     15.07        3.0288        0.0007        7.1755        7.1763       4.147465       0.01491
  29     18.79        3.0294        0.0009        7.1694        7.1703       4.140962       0.01474
  28     23.16        3.0301        0.0011        7.1623        7.1634       4.133393       0.01464
  27     28.12        3.0308        0.0013        7.1543        7.1556       4.124773       0.01465
  26     33.73        3.0317        0.0016        7.1453        7.1469       4.115172       0.01444
  25     40.54        3.0327        0.0019        7.1344        7.1364       4.103636       0.01431
  24     48.69        3.0340        0.0023        7.1215        7.1238       4.089823       0.01429
  23     57.69        3.0354        0.0027        7.1075        7.1102       4.074768       0.01411
  22     68.43        3.0371        0.0032        7.0909        7.0941       4.056998       0.01397
  21     81.20        3.0392        0.0038        7.0714        7.0752       4.036050       0.01384
  20     96.49        3.0416        0.0046        7.0484        7.0530       4.011399       0.01361
  19     114.6        3.0445        0.0054        7.0217        7.0271       3.982554       0.01347
  18     136.5        3.0481        0.0064        6.9906        6.9970       3.948934       0.01293
  17     162.9        3.0524        0.0076        6.9544        6.9620       3.909657       0.01255
  16     196.4        3.0580        0.0091        6.9088        6.9179       3.859883       0.01253
  15     218.7        3.0618        0.0101        6.8795        6.8896       3.827797       0.01218
  14     243.0        3.0660        0.0112        6.8482        6.8594       3.793402       0.01193
  13     269.0        3.0706        0.0124        6.8148        6.8272       3.756602       0.01194
  12     297.5        3.0758        0.0137        6.7794        6.7930       3.717261       0.01167
  11     328.5        3.0815        0.0150        6.7415        6.7566       3.675107       0.01146
  10     361.9        3.0878        0.0165        6.7014        6.7179       3.630094       0.01139
   9     398.1        3.0949        0.0181        6.6586        6.6767       3.581792       0.01125
   8     437.6        3.1029        0.0198        6.6128        6.6326       3.529721       0.01113
   7     480.5        3.1119        0.0216        6.5638        6.5853       3.473460       0.01105
   6     533.0        3.1237        0.0238        6.5031        6.5268       3.403147       0.01131
   5     589.8        3.1375        0.0261        6.4362        6.4624       3.324846       0.01162
   4     651.6        3.1543        0.0286        6.3609        6.3895       3.235258       0.01225
   3     718.7        2.3540        4.2570        1.1824        5.4394       3.085382       0.01884
   2     792.3        1.8107        4.5474        0.2193        4.7667       2.956029       0.01484
   1     891.5        0.8769        3.6489        0.0014        3.6503       2.773486       0.01553
   0    1013.0        0.8939        3.5642        0.0014        3.5656       2.671718       0.00707



 Wavenumbers:  8050. - 12850. cm-1, ATM      1
 LEVEL PRESSURE   UPWARD FLUX   DIFDOWN FLUX  DIRDOWN FLUX  DOWNWARD FLUX   NET FLUX    HEATING RATE
          mb          W/m2          W/m2          W/m2        W/m2          W/m2       degree/day
  51    .06700       41.3793        0.0000      100.8135      100.8135      59.434179       0.00000
  50    .07753       41.3793        0.0000      100.8135      100.8135      59.434179       0.00000
  49    .09103       41.3793        0.0001      100.8134      100.8135      59.434179      -0.00000
  48    0.1069       41.3793        0.0001      100.8134      100.8135      59.434179       0.00000
  47    0.1255       41.3792        0.0001      100.8133      100.8134      59.434179      -0.00000
  46    0.1487       41.3792        0.0002      100.8132      100.8134      59.434179       0.00000
  45    0.1794       41.3792        0.0003      100.8131      100.8133      59.434179       0.00000
  44    0.2165       41.3791        0.0004      100.8129      100.8133      59.434179       0.00000
  43    0.2613       41.3790        0.0005      100.8127      100.8132      59.434179       0.00000
  42    0.3336       41.3789        0.0006      100.8125      100.8131      59.434179      -0.00000
  41    0.4307       41.3788        0.0009      100.8121      100.8129      59.434179       0.00000
  40    0.5894       41.3785        0.0012      100.8115      100.8127      59.434179      -0.00000
  39     1.339       41.3773        0.0030      100.8085      100.8115      59.434179       0.00000
  38     1.782       41.3766        0.0040      100.8068      100.8108      59.434179       0.00000
  37     2.292       41.3758        0.0052      100.8047      100.8100      59.434179      -0.00000
  36     2.964       41.3747        0.0068      100.8021      100.8089      59.434179       0.00000
  35     3.853       41.3733        0.0089      100.7986      100.8075      59.434179       0.00000
  34     5.035       41.3714        0.0116      100.7940      100.8056      59.434179      -0.00000
  33     6.613       41.3689        0.0153      100.7878      100.8031      59.434179       0.00000
  32     8.786       41.3655        0.0203      100.7794      100.7997      59.434179      -0.00000
  31     11.80       41.3607        0.0274      100.7674      100.7949      59.434179      -0.00000
  30     15.07       41.3555        0.0351      100.7546      100.7896      59.434179       0.00000
  29     18.79       41.3496        0.0438      100.7400      100.7838      59.434179      -0.00000
  28     23.16       41.3427        0.0539      100.7230      100.7769      59.434179       0.00000
  27     28.12       41.3348        0.0655      100.7035      100.7690      59.434179      -0.00000
  26     33.73       41.3259        0.0785      100.6817      100.7601      59.434179      -0.00000
  25     40.54       41.3152        0.0942      100.6552      100.7494      59.434179       0.00000
  24     48.69       41.3023        0.1132      100.6234      100.7365      59.434179      -0.00000
  23     57.69       41.2881        0.1340      100.5883      100.7223      59.434179      -0.00000
  22     68.43       41.2712        0.1589      100.5464      100.7054      59.434179       0.00000
  21     81.20       41.2509        0.1886      100.4965      100.6851      59.434179      -0.00000
  20     96.49       41.2268        0.2240      100.4370      100.6610      59.434179       0.00000
  19     114.6       41.1982        0.2662      100.3601      100.6262      59.428066       0.00285
  18     136.5       41.1642        0.3162      100.2685      100.5847      59.420494       0.00291
  17     162.9       41.1236        0.3759      100.1557      100.5316      59.407944       0.00401
  16     196.4       41.0710        0.4534       99.9935      100.4469      59.375910       0.00806
  15     218.7       41.0365        0.5044       99.8490      100.3534      59.316822       0.02243
  14     243.0       40.9996        0.5597       99.6218      100.1815      59.181905       0.04679
  13     269.0       40.9608        0.6194       99.2701       99.8895      58.928705       0.08214
  12     297.5       40.9213        0.6836       98.7863       99.4699      58.548563       0.11275
  11     328.5       40.8816        0.7526       98.2127       98.9653      58.083681       0.12640
  10     361.9       40.8434        0.8265       97.5096       98.3361      57.492669       0.14953
   9     398.1       40.8092        0.9052       96.6249       97.5301      56.720923       0.17980
   8     437.6       40.7836        0.9885       95.5141       96.5026      55.718935       0.21423
   7     480.5       40.7724        1.0761       94.1664       95.2425      54.470130       0.24526
   6     533.0       40.7893        1.1812       92.2972       93.4785      52.689121       0.28651
   5     589.8       40.8656        1.2902       90.0044       91.2945      50.428963       0.33548
   4     651.6       41.0749        1.4002       87.0975       88.4977      47.422769       0.41111
   3     718.7       30.3531       58.3338       16.1100       74.4437      44.090657       0.41875
   2     792.3       23.1950       61.1111        2.9510       64.0621      40.867124       0.36970
   1     891.5       10.9063       48.2179        0.0195       48.2375      37.331194       0.30089
   0    1013.0       11.3320       45.1837        0.0179       45.2016      33.869560       0.24036



 Wavenumbers: 12850. - 16000. cm-1, ATM      1
 LEVEL PRESSURE   UPWARD FLUX   DIFDOWN FLUX  DIRDOWN FLUX  DOWNWARD FLUX   NET FLUX    HEATING RATE
          mb          W/m2          W/m2          W/m2        W/m2          W/m2       degree/day
  51    .06700       37.1930        0.0000       63.1686       63.1686      25.975579       0.00000
  50    .07753       37.1930        0.0001       63.1677       63.1678      25.974798       0.62543
  49    .09103       37.1929        0.0001       63.1666       63.1668      25.973826       0.60792
  48    0.1069       37.1929        0.0002       63.1654       63.1656      25.972718       0.58962
  47    0.1255       37.1929        0.0003       63.1640       63.1643      25.971458       0.57126
  46    0.1487       37.1928        0.0004       63.1623       63.1627      25.969886       0.57299
  45    0.1794       37.1928        0.0006       63.1600       63.1606      25.967778       0.57884
  44    0.2165       37.1927        0.0008       63.1573       63.1581      25.965338       0.55487
  43    0.2613       37.1927        0.0010       63.1542       63.1552      25.962524       0.53054
  42    0.3336       37.1927        0.0014       63.1493       63.1507      25.958037       0.52311
  41    0.4307       37.1926        0.0019       63.1431       63.1451      25.952422       0.48821
  40    0.5894       37.1927        0.0027       63.1338       63.1366      25.943908       0.45274
  39     1.339       37.1942        0.0067       63.0956       63.1022      25.908029       0.40393
  38     1.782       37.1962        0.0090       63.0740       63.0830      25.886842       0.40337
  37     2.292       37.1994        0.0116       63.0477       63.0593      25.859934       0.44568
  36     2.964       37.2051        0.0151       63.0095       63.0247      25.819602       0.50628
  35     3.853       37.2146        0.0197       62.9533       62.9730      25.758355       0.58125
  34     5.035       37.2294        0.0259       62.8725       62.8984      25.668938       0.63875
  33     6.613       37.2502        0.0340       62.7621       62.7961      25.545869       0.65793
  32     8.786       37.2772        0.0450       62.6182       62.6633      25.386108       0.62045
  31     11.80       37.3117        0.0607       62.4284       62.4891      25.177411       0.58429
  30     15.07       37.3440        0.0775       62.2426       62.3201      24.976128       0.51967
  29     18.79       37.3763        0.0965       62.0493       62.1457      24.769458       0.46858
  28     23.16       37.4091        0.1185       61.8425       61.9610      24.551828       0.42083
  27     28.12       37.4410        0.1437       61.6278       61.7715      24.330500       0.37624
  26     33.73       37.4685        0.1718       61.4177       61.5895      24.120952       0.31506
  25     40.54       37.4924        0.2057       61.1983       61.4041      23.911664       0.25964
  24     48.69       37.5120        0.2466       60.9680       61.2146      23.702583       0.21637
  23     57.69       37.5247        0.2914       60.7478       61.0392      23.514505       0.17629
  22     68.43       37.5302        0.3447       60.5202       60.8649      23.334638       0.14140
  21     81.20       37.5238        0.4081       60.2938       60.7020      23.178219       0.10336
  20     96.49       37.5040        0.4837       60.0643       60.5480      23.044062       0.07405
  19     114.6       37.4800        0.5740       59.8078       60.3818      22.901759       0.06645
  18     136.5       37.4465        0.6808       59.5158       60.1965      22.750059       0.05833
  17     162.9       37.4018        0.8076       59.1773       59.9849      22.583071       0.05338
  16     196.4       37.3338        0.9716       58.7611       59.7327      22.398940       0.04635
  15     218.7       37.2856        1.0790       58.4958       59.5749      22.289281       0.04163
  14     243.0       37.2318        1.1956       58.2104       59.4060      22.174214       0.03991
  13     269.0       37.1722        1.3216       57.9039       59.2255      22.053289       0.03923
  12     297.5       37.1070        1.4575       57.5736       59.0311      21.924072       0.03832
  11     328.5       37.0368        1.6039       57.2160       58.8199      21.783091       0.03833
  10     361.9       36.9621        1.7611       56.8288       58.5899      21.627761       0.03930
   9     398.1       36.8832        1.9297       56.4074       58.3371      21.453870       0.04051
   8     437.6       36.8015        2.1101       55.9445       58.0546      21.253140       0.04292
   7     480.5       36.7183        2.3026       55.4356       57.7382      21.019929       0.04580
   6     533.0       36.6241        2.5381       54.7850       57.3231      20.698968       0.05163
   5     589.8       36.5379        2.7897       54.0438       56.8336      20.295652       0.05987
   4     651.6       36.4761        3.0567       53.1687       56.2254      19.749305       0.07471
   3     718.7       30.4120       39.2632       10.2780       49.5412      19.129141       0.07794
   2     792.3       26.2452       42.7326        1.9797       44.7123      18.467118       0.07593
   1     891.5       19.3199       36.9232        0.0146       36.9378      17.617899       0.07226
   0    1013.0       19.5535       36.0760        0.0140       36.0899      16.536410       0.07509



 Wavenumbers: 16000. - 22650. cm-1, ATM      1
 LEVEL PRESSURE   UPWARD FLUX   DIFDOWN FLUX  DIRDOWN FLUX  DOWNWARD FLUX   NET FLUX    HEATING RATE
          mb          W/m2          W/m2          W/m2        W/m2          W/m2       degree/day
  51    .06700       76.1871        0.0000      100.7153      100.7153      24.528173       0.00000
  50    .07753       76.1870        0.0003      100.7147      100.7151      24.528055       0.09421
  49    .09103       76.1869        0.0007      100.7140      100.7147      24.527884       0.10685
  48    0.1069       76.1867        0.0012      100.7131      100.7143      24.527655       0.12184
  47    0.1255       76.1865        0.0017      100.7121      100.7139      24.527349       0.13889
  46    0.1487       76.1863        0.0024      100.7108      100.7132      24.526897       0.16458
  45    0.1794       76.1861        0.0034      100.7089      100.7122      24.526192       0.19378
  44    0.2165       76.1858        0.0045      100.7066      100.7110      24.525234       0.21778
  43    0.2613       76.1855        0.0058      100.7037      100.7095      24.523935       0.24483
  42    0.3336       76.1852        0.0080      100.6987      100.7067      24.521466       0.28792
  41    0.4307       76.1849        0.0108      100.6918      100.7026      24.517744       0.32364
  40    0.5894       76.1846        0.0155      100.6797      100.6953      24.510645       0.37749
  39     1.339       76.1891        0.0378      100.6095      100.6473      24.458210       0.59032
  38     1.782       76.1957        0.0508      100.5585      100.6093      24.413555       0.85015
  37     2.292       76.2072        0.0659      100.4903      100.5562      24.348938       1.07024
  36     2.964       76.2282        0.0857      100.3868      100.4725      24.244305       1.31346
  35     3.853       76.2641        0.1119      100.2306      100.3425      24.078399       1.57448
  34     5.035       76.3198        0.1465      100.0045      100.1510      23.831148       1.76626
  33     6.613       76.3985        0.1927       99.6939       99.8866      23.488068       1.83411
  32     8.786       76.5004        0.2549       99.2881       99.5429      23.042559       1.73020
  31     11.80       76.6302        0.3435       98.7496       99.0931      22.462850       1.62300
  30     15.07       76.7512        0.4382       98.2198       98.6581      21.906873       1.43542
  29     18.79       76.8713        0.5449       97.6651       98.2101      21.338780       1.28804
  28     23.16       76.9925        0.6691       97.0671       97.7362      20.743772       1.15055
  27     28.12       77.1087        0.8105       96.4406       97.2511      20.142365       1.02235
  26     33.73       77.2068        0.9683       95.8179       96.7862      19.579368       0.84648
  25     40.54       77.2883        1.1582       95.1548       96.3131      19.024809       0.68799
  24     48.69       77.3506        1.3864       94.4420       95.8283      18.477722       0.56615
  23     57.69       77.3845        1.6359       93.7416       95.3775      17.993014       0.45434
  22     68.43       77.3876        1.9319       92.9954       94.9272      17.539579       0.35646
  21     81.20       77.3404        2.2831       92.2231       94.5062      17.165782       0.24700
  20     96.49       77.2372        2.6997       91.4110       94.1107      16.873443       0.16135
  19     114.6       77.0915        3.1909       90.5070       93.6979      16.606452       0.12467
  18     136.5       76.9037        3.7682       89.4803       93.2485      16.344795       0.10061
  17     162.9       76.6673        4.4489       88.3023       92.7511      16.083811       0.08342
  16     196.4       76.3318        5.3213       86.8607       92.1821      15.850256       0.05879
  15     218.7       76.1017        5.8880       85.9494       91.8374      15.735700       0.04349
  14     243.0       75.8480        6.4984       84.9792       91.4776      15.629662       0.03678
  13     269.0       75.5694        7.1535       83.9498       91.1033      15.533873       0.03107
  12     297.5       75.2655        7.8539       82.8601       90.7140      15.448532       0.02531
  11     328.5       74.9373        8.6021       81.7009       90.3030      15.365759       0.02251
  10     361.9       74.5848        9.3979       80.4725       89.8704      15.285639       0.02027
   9     398.1       74.2070       10.2431       79.1714       89.4144      15.207490       0.01821
   8     437.6       73.8042       11.1379       77.7953       88.9332      15.128999       0.01678
   7     480.5       73.3760       12.0826       76.3434       88.4260      15.049947       0.01553
   6     533.0       72.8551       13.2253       74.5859       87.8111      14.956039       0.01511
   5     589.8       72.3028       14.4326       72.7227       87.1553      14.852495       0.01537
   4     651.6       71.7227       15.7028       70.7478       86.4506      14.727949       0.01703
   3     718.7       63.9541       64.8131       13.7277       78.5408      14.586672       0.01775
   2     792.3       58.6655       70.4342        2.6565       73.0908      14.425299       0.01851
   1     891.5       50.6442       64.8117        0.0203       64.8320      14.187779       0.02021
   0    1013.0       50.4979       64.3339        0.0192       64.3531      13.855223       0.02309



 Wavenumbers: 22650. - 29000. cm-1, ATM      1
 LEVEL PRESSURE   UPWARD FLUX   DIFDOWN FLUX  DIRDOWN FLUX  DOWNWARD FLUX   NET FLUX    HEATING RATE
          mb          W/m2          W/m2          W/m2        W/m2          W/m2       degree/day
  51    .06700       32.6355        0.0000       38.0063       38.0063       5.370839       0.00000
  50    .07753       32.6353        0.0004       38.0057       38.0061       5.370839       0.00000
  49    .09103       32.6351        0.0009       38.0050       38.0059       5.370839       0.00000
  48    0.1069       32.6348        0.0014       38.0042       38.0057       5.370839      -0.00000
  47    0.1255       32.6345        0.0020       38.0033       38.0054       5.370839       0.00000
  46    0.1487       32.6342        0.0028       38.0022       38.0050       5.370839      -0.00000
  45    0.1794       32.6337        0.0039       38.0006       38.0045       5.370839       0.00000
  44    0.2165       32.6331        0.0052       37.9987       38.0039       5.370839       0.00000
  43    0.2613       32.6324        0.0067       37.9965       38.0032       5.370839       0.00000
  42    0.3336       32.6313        0.0093       37.9928       38.0021       5.370839       0.00000
  41    0.4307       32.6297        0.0126       37.9880       38.0006       5.370839       0.00000
  40    0.5894       32.6273        0.0181       37.9800       37.9981       5.370839      -0.00000
  39     1.339       32.6156        0.0439       37.9425       37.9864       5.370839       0.00000
  38     1.782       32.6087        0.0591       37.9204       37.9795       5.370839      -0.00000
  37     2.292       32.6007        0.0767       37.8949       37.9716       5.370839       0.00000
  36     2.964       32.5903        0.0997       37.8614       37.9612       5.370839       0.00000
  35     3.853       32.5765        0.1301       37.8172       37.9474       5.370839      -0.00000
  34     5.035       32.5583        0.1705       37.7586       37.9291       5.370839       0.00000
  33     6.613       32.5339        0.2244       37.6803       37.9047       5.370839       0.00000
  32     8.786       32.5010        0.2968       37.5750       37.8719       5.370839       0.00000
  31     11.80       32.4542        0.4002       37.4249       37.8250       5.370839       0.00000
  30     15.07       32.4040        0.5107       37.2642       37.7749       5.370839      -0.00000
  29     18.79       32.3475        0.6351       37.0833       37.7184       5.370839       0.00000
  28     23.16       32.2818        0.7797       36.8730       37.6527       5.370839       0.00000
  27     28.12       32.2070        0.9441       36.6338       37.5779       5.370839       0.00000
  26     33.73       32.1238        1.1269       36.3677       37.4946       5.370839       0.00000
  25     40.54       32.0238        1.3461       36.0486       37.3947       5.370839       0.00000
  24     48.69       31.9043        1.6079       35.6672       37.2751       5.370839       0.00000
  23     57.69       31.7742        1.8923       35.2527       37.1450       5.370839      -0.00000
  22     68.43       31.6208        2.2267       34.7649       36.9916       5.370839      -0.00000
  21     81.20       31.4404        2.6190       34.1922       36.8113       5.370839       0.00000
  20     96.49       31.2288        3.0779       33.5217       36.5996       5.370839       0.00000
  19     114.6       30.9821        3.6106       32.7424       36.3530       5.370839      -0.00000
  18     136.5       30.6962        4.2254       31.8416       36.0670       5.370839       0.00000
  17     162.9       30.3644        4.9345       30.8008       35.7353       5.370839       0.00000
  16     196.4       29.9479        5.8181       29.5007       35.3188       5.370839      -0.00000
  15     218.7       29.6827        6.3768       28.6767       35.0535       5.370839      -0.00000
  14     243.0       29.4015        6.9655       27.8068       34.7723       5.370839       0.00000
  13     269.0       29.1049        7.5823       26.8934       34.4757       5.370839       0.00000
  12     297.5       28.7934        8.2248       25.9394       34.1643       5.370839      -0.00000
  11     328.5       28.4670        8.8925       24.9454       33.8379       5.370839       0.00000
  10     361.9       28.1270        9.5812       23.9166       33.4978       5.370839       0.00000
   9     398.1       27.7736       10.2894       22.8551       33.1445       5.370839      -0.00000
   8     437.6       27.4083       11.0125       21.7666       32.7791       5.370839       0.00000
   7     480.5       27.0317       11.7475       20.6551       32.4026       5.370839       0.00000
   6     533.0       26.5889       12.5972       19.3625       31.9597       5.370839      -0.00000
   5     589.8       26.1350       13.4502       18.0557       31.5059       5.370839       0.00000
   4     651.6       25.6716       14.3011       16.7414       31.0424       5.370839       0.00000
   3     718.7       23.5237       25.7721        3.1225       28.8945       5.370839      -0.00000
   2     792.3       22.0407       26.8329        0.5786       27.4115       5.370839       0.00000
   1     891.5       19.8254       25.1920        0.0043       25.1963       5.370839      -0.00000
   0    1013.0       19.5750       24.9422        0.0037       24.9458       5.370839       0.00000



 Wavenumbers: 29000. - 38000. cm-1, ATM      1
 LEVEL PRESSURE   UPWARD FLUX   DIFDOWN FLUX  DIRDOWN FLUX  DOWNWARD FLUX   NET FLUX    HEATING RATE
          mb          W/m2          W/m2          W/m2        W/m2          W/m2       degree/day
  51    .06700        4.7474        0.0000       13.4026       13.4026       8.655214       0.00000
  50    .07753        4.7472        0.0003       13.3983       13.3986       8.651416       3.04426
  49    .09103        4.7469        0.0007       13.3921       13.3928       8.645897       3.44952
  48    0.1069        4.7466        0.0011       13.3840       13.3851       8.638520       3.92659
  47    0.1255        4.7462        0.0016       13.3733       13.3749       8.628676       4.46297
  46    0.1487        4.7458        0.0022       13.3579       13.3600       8.614234       5.26413
  45    0.1794        4.7452        0.0030       13.3340       13.3371       8.591835       6.14897
  44    0.2165        4.7446        0.0040       13.3024       13.3064       8.561818       6.82843
  43    0.2613        4.7438        0.0051       13.2604       13.2655       8.521765       7.54972
  42    0.3336        4.7425        0.0070       13.1833       13.1903       8.447763       8.62796
  41    0.4307        4.7410        0.0095       13.0729       13.0824       8.341397       9.24826
  40    0.5894        4.7386        0.0133       12.8796       12.8929       8.154366       9.94607
  39     1.339        4.7299        0.0295       11.9165       11.9461       7.216121      10.56294
  38     1.782        4.7265        0.0378       11.4399       11.4777       6.751219       8.85098
  37     2.292        4.7239        0.0467       10.9796       11.0263       6.302398       7.43365
  36     2.964        4.7222        0.0575       10.4786       10.5361       5.813943       6.13160
  35     3.853        4.7225        0.0709        9.9429       10.0138       5.291355       4.95945
  34     5.035        4.7253        0.0876        9.4007        9.4883       4.763016       3.77424
  33     6.613        4.7309        0.1088        8.8752        8.9841       4.253161       2.72569
  32     8.786        4.7386        0.1362        8.3786        8.5148       3.776119       1.85266
  31     11.80        4.7480        0.1737        7.8897        8.0633       3.315364       1.28997
  30     15.07        4.7559        0.2124        7.5108        7.7232       2.967318       0.89859
  29     18.79        4.7630        0.2545        7.1776        7.4321       2.669137       0.67607
  28     23.16        4.7693        0.3020        6.8664        7.1684       2.399126       0.52211
  27     28.12        4.7739        0.3544        6.5780        6.9324       2.158485       0.40907
  26     33.73        4.7747        0.4115        6.3195        6.7310       1.956326       0.30395
  25     40.54        4.7701        0.4788        6.0663        6.5451       1.774990       0.22497
  24     48.69        4.7598        0.5577        5.8128        6.3706       1.610788       0.16992
  23     57.69        4.7437        0.6419        5.5777        6.2196       1.475843       0.12649
  22     68.43        4.7196        0.7392        5.3379        6.0771       1.357537       0.09300
  21     81.20        4.6831        0.8521        5.0965        5.9486       1.265498       0.06082
  20     96.49        4.6331        0.9824        4.8476        5.8301       1.196994       0.03781
  19     114.6        4.5725        1.1300        4.5799        5.7099       1.137396       0.02783
  18     136.5        4.5023        1.2948        4.2891        5.5838       1.081569       0.02147
  17     162.9        4.4220        1.4772        3.9732        5.4504       1.028388       0.01700
  16     196.4        4.3205        1.6954        3.6080        5.3034       0.982969       0.01143
  15     218.7        4.2564        1.8280        3.3898        5.2178       0.961364       0.00820
  14     243.0        4.1897        1.9629        3.1686        5.1315       0.941781       0.00679
  13     269.0        4.1207        2.0991        2.9461        5.0452       0.924521       0.00560
  12     297.5        4.0497        2.2354        2.7239        4.9593       0.909600       0.00443
  11     328.5        3.9775        2.3702        2.5029        4.8731       0.895599       0.00381
  10     361.9        3.9046        2.5026        2.2846        4.7871       0.882536       0.00330
   9     398.1        3.8313        2.6310        2.0708        4.7017       0.870406       0.00283
   8     437.6        3.7583        2.7541        1.8631        4.6172       0.858950       0.00245
   7     480.5        3.6856        2.8712        1.6626        4.5338       0.848289       0.00209
   6     533.0        3.6035        2.9959        1.4445        4.4404       0.836912       0.00183
   5     589.8        3.5231        3.1090        1.2402        4.3492       0.826142       0.00160
   4     651.6        3.4448        3.2092        1.0514        4.2607       0.815831       0.00141
   3     718.7        3.2495        3.8762        0.1795        4.0557       0.806138       0.00122
   2     792.3        3.1076        3.8746        0.0302        3.9048       0.797178       0.00103
   1     891.5        2.8841        3.6705        0.0002        3.6707       0.786684       0.00089
   0    1013.0        2.8272        3.6027        0.0001        3.6029       0.775698       0.00076



 Wavenumbers: 38000. - 50000. cm-1, ATM      1
 LEVEL PRESSURE   UPWARD FLUX   DIFDOWN FLUX  DIRDOWN FLUX  DOWNWARD FLUX   NET FLUX    HEATING RATE
          mb          W/m2          W/m2          W/m2        W/m2          W/m2       degree/day
  51    .06700        0.0051        0.0000        0.8267        0.8267       0.821528       0.00000
  50    .07753        0.0051        0.0001        0.8242        0.8243       0.819196       1.86936
  49    .09103        0.0050        0.0002        0.8207        0.8209       0.815872       2.07705
  48    0.1069        0.0049        0.0002        0.8162        0.8164       0.811514       2.31984
  47    0.1255        0.0048        0.0004        0.8103        0.8106       0.805801       2.59006
  46    0.1487        0.0047        0.0005        0.8018        0.8023       0.797567       3.00143
  45    0.1794        0.0045        0.0007        0.7889        0.7896       0.785013       3.44648
  44    0.2165        0.0044        0.0009        0.7720        0.7729       0.768507       3.75474
  43    0.2613        0.0042        0.0011        0.7500        0.7511       0.746955       4.06246
  42    0.3336        0.0039        0.0015        0.7106        0.7121       0.708267       4.51071
  41    0.4307        0.0035        0.0019        0.6566        0.6584       0.654972       4.63387
  40    0.5894        0.0029        0.0024        0.5680        0.5704       0.567464       4.65357
  39     1.339        0.0015        0.0030        0.2422        0.2452       0.243720       3.64476
  38     1.782        0.0010        0.0026        0.1493        0.1519       0.150889       1.76735
  37     2.292        0.0007        0.0022        0.0924        0.0946       0.093932       0.94336
  36     2.964        0.0005        0.0018        0.0539        0.0557       0.055224       0.48589
  35     3.853        0.0003        0.0013        0.0295        0.0308       0.030502       0.23462
  34     5.035        0.0002        0.0010        0.0154        0.0164       0.016181       0.10230
  33     6.613        0.0001        0.0007        0.0073        0.0080       0.007912       0.04420
  32     8.786        0.0000        0.0004        0.0030        0.0034       0.003390       0.01756
  31     11.80        0.0000        0.0003        0.0010        0.0012       0.001199       0.00613
  30     15.07        0.0000        0.0001        0.0003        0.0005       0.000463       0.00190
  29     18.79        0.0000        0.0001        0.0001        0.0002       0.000182       0.00064
  28     23.16        0.0000        0.0000        0.0000        0.0001       0.000071       0.00022
  27     28.12        0.0000        0.0000        0.0000        0.0000       0.000028       0.00007
  26     33.73        0.0000        0.0000        0.0000        0.0000       0.000011       0.00002
  25     40.54        0.0000        0.0000        0.0000        0.0000       0.000005       0.00001
  24     48.69        0.0000        0.0000        0.0000        0.0000       0.000002       0.00000
  23     57.69        0.0000        0.0000        0.0000        0.0000       0.000001       0.00000
  22     68.43        0.0000        0.0000        0.0000        0.0000       0.000000       0.00000
  21     81.20        0.0000        0.0000        0.0000        0.0000       0.000000       0.00000
  20     96.49        0.0000        0.0000        0.0000        0.0000       0.000000       0.00000
  19     114.6        0.0000        0.0000        0.0000        0.0000       0.000000       0.00000
  18     136.5        0.0000        0.0000        0.0000        0.0000       0.000000       0.00000
  17     162.9        0.0000        0.0000        0.0000        0.0000       0.000000       0.00000
  16     196.4        0.0000        0.0000        0.0000        0.0000       0.000000       0.00000
  15     218.7        0.0000        0.0000        0.0000        0.0000       0.000000       0.00000
  14     243.0        0.0000        0.0000        0.0000        0.0000       0.000000       0.00000
  13     269.0        0.0000        0.0000        0.0000        0.0000       0.000000       0.00000
  12     297.5        0.0000        0.0000        0.0000        0.0000       0.000000       0.00000
  11     328.5        0.0000        0.0000        0.0000        0.0000       0.000000       0.00000
  10     361.9        0.0000        0.0000        0.0000        0.0000       0.000000       0.00000
   9     398.1        0.0000        0.0000        0.0000        0.0000       0.000000       0.00000
   8     437.6        0.0000        0.0000        0.0000        0.0000       0.000000       0.00000
   7     480.5        0.0000        0.0000        0.0000        0.0000       0.000000       0.00000
   6     533.0        0.0000        0.0000        0.0000        0.0000       0.000000       0.00000
   5     589.8        0.0000        0.0000        0.0000        0.0000       0.000000       0.00000
   4     651.6        0.0000        0.0000        0.0000        0.0000       0.000000       0.00000
   3     718.7        0.0000        0.0000        0.0000        0.0000       0.000000       0.00000
   2     792.3        0.0000        0.0000        0.0000        0.0000       0.000000       0.00000
   1     891.5        0.0000        0.0000        0.0000        0.0000       0.000000       0.00000
   0    1013.0        0.0000        0.0000        0.0000        0.0000       0.000000       0.00000



 Wavenumbers:   820. -  2600. cm-1, ATM      1
 LEVEL PRESSURE   UPWARD FLUX   DIFDOWN FLUX  DIRDOWN FLUX  DOWNWARD FLUX   NET FLUX    HEATING RATE
          mb          W/m2          W/m2          W/m2        W/m2          W/m2       degree/day
  51    .06700        0.1816        0.0000        3.8670        3.8670       3.685417       0.00000
  50    .07753        0.1816        0.0000        3.8643        3.8643       3.682691       2.18510
  49    .09103        0.1816        0.0000        3.8635        3.8635       3.681869       0.51377
  48    0.1069        0.1816        0.0000        3.8626        3.8626       3.680965       0.48158
  47    0.1255        0.1816        0.0000        3.8616        3.8616       3.679987       0.44311
  46    0.1487        0.1816        0.0000        3.8605        3.8605       3.678856       0.41229
  45    0.1794        0.1816        0.0000        3.8591        3.8591       3.677491       0.37467
  44    0.2165        0.1816        0.0000        3.8577        3.8577       3.676078       0.32152
  43    0.2613        0.1816        0.0000        3.8562        3.8562       3.674574       0.28349
  42    0.3336        0.1816        0.0000        3.8539        3.8539       3.672268       0.26887
  41    0.4307        0.1816        0.0000        3.8509        3.8509       3.669291       0.25879
  40    0.5894        0.1816        0.0000        3.8460        3.8460       3.664408       0.25969
  39     1.339        0.1816        0.0000        3.8240        3.8240       3.642387       0.24791
  38     1.782        0.1816        0.0000        3.8119        3.8119       3.630268       0.23072
  37     2.292        0.1816        0.0000        3.7986        3.7986       3.616951       0.22058
  36     2.964        0.1816        0.0000        3.7823        3.7823       3.600658       0.20452
  35     3.853        0.1816        0.0000        3.7623        3.7623       3.580727       0.18915
  34     5.035        0.1816        0.0000        3.7378        3.7378       3.556210       0.17514
  33     6.613        0.1816        0.0000        3.7076        3.7076       3.525968       0.16167
  32     8.786        0.1816        0.0000        3.6716        3.6716       3.489972       0.13980
  31     11.80        0.1816        0.0000        3.6316        3.6316       3.449957       0.11203
  30     15.07        0.1816        0.0000        3.6017        3.6017       3.420125       0.07702
  29     18.79        0.1816        0.0000        3.5785        3.5785       3.396888       0.05269
  28     23.16        0.1816        0.0000        3.5580        3.5581       3.376422       0.03957
  27     28.12        0.1816        0.0000        3.5377        3.5377       3.356044       0.03464
  26     33.73        0.1816        0.0000        3.5162        3.5162       3.334567       0.03229
  25     40.54        0.1817        0.0000        3.4913        3.4914       3.309698       0.03085
  24     48.69        0.1817        0.0000        3.4628        3.4628       3.281132       0.02956
  23     57.69        0.1817        0.0000        3.4327        3.4327       3.251057       0.02819
  22     68.43        0.1817        0.0000        3.3986        3.3986       3.216940       0.02682
  21     81.20        0.1817        0.0000        3.3606        3.3606       3.178899       0.02514
  20     96.49        0.1817        0.0000        3.3183        3.3183       3.136579       0.02336
  19     114.6        0.1817        0.0000        3.2715        3.2715       3.089717       0.02188
  18     136.5        0.1818        0.0000        3.2206        3.2206       3.038845       0.01956
  17     162.9        0.1818        0.0000        3.1613        3.1613       2.979473       0.01898
  16     196.4        0.1819        0.0000        3.0792        3.0792       2.897266       0.02069
  15     218.7        0.1820        0.0000        3.0115        3.0115       2.829555       0.02571
  14     243.0        0.1821        0.0000        2.9223        2.9223       2.740206       0.03099
  13     269.0        0.1823        0.0000        2.8151        2.8152       2.632850       0.03483
  12     297.5        0.1826        0.0000        2.6710        2.6710       2.488421       0.04284
  11     328.5        0.1830        0.0000        2.4998        2.4998       2.316810       0.04666
  10     361.9        0.1836        0.0000        2.3186        2.3186       2.135016       0.04600
   9     398.1        0.1843        0.0000        2.1555        2.1556       1.971246       0.03815
   8     437.6        0.1853        0.0000        2.0290        2.0290       1.843755       0.02726
   7     480.5        0.1864        0.0000        1.9377        1.9378       1.751332       0.01815
   6     533.0        0.1883        0.0000        1.8432        1.8432       1.654945       0.01551
   5     589.8        0.1911        0.0000        1.7350        1.7350       1.543909       0.01648
   4     651.6        0.1963        0.0000        1.6037        1.6038       1.407473       0.01866
   3     718.7        0.0866        0.5840        0.2145        0.7985       0.711911       0.08741
   2     792.3        0.0436        0.3972        0.0282        0.4254       0.381834       0.03786
   1     891.5        0.0173        0.1031        0.0001        0.1032       0.085966       0.02518
   0    1013.0        0.0207        0.0827        0.0001        0.0828       0.062011       0.00166

  Modules and versions used in this calculation:

       rrtmg_sw.1col.f90:  $Revision$                    rrtmg_sw_init.f90:  $Revision$        
     rrtmgsw_cldprop.f90:  $Revision$                  rrtmgsw_cldprmc.f90:  NOT USED          
     rrtmg_sw_reftra.f90:  $Revision$                  rrtmg_sw_spcvrt.f90:  NOT USED          
     rrtmg_sw_spcvmc.f90:  NOT USED                    rrtmgsw_setcoef.f90:  NOT USED          
     rrtmg_sw_taumol.f90:  $Revision$                  rrtmg_sw_vrtqdr.f90:  NOT USED          
                rrtatm.f:  NOT USED                             util_xxx.f:  NOT USED          
                 extra.f:  NOT USED                       rrtmg_sw_k_g.f90:  $Revision$        

