

 Wavenumbers:   820. - 50000. cm-1, ATM      1
 LEVEL PRESSURE   UPWARD FLUX   DIFDOWN FLUX  DIRDOWN FLUX  DOWNWARD FLUX   NET FLUX    HEATING RATE
          mb          W/m2          W/m2          W/m2        W/m2          W/m2       degree/day
  51    .06700      209.2259        0.0000      397.8738      397.8738     188.647925       0.00000
  50    .07753      209.2252        0.0012      397.8577      397.8588     188.633598      11.48310
  49    .09103      209.2245        0.0026      397.8417      397.8444     188.619871       8.58011
  48    0.1069      209.2236        0.0043      397.8228      397.8271     188.603482       8.72394
  47    0.1255      209.2227        0.0062      397.7995      397.8057     188.582998       9.28648
  46    0.1487      209.2215        0.0086      397.7674      397.7760     188.554491      10.39092
  45    0.1794      209.2200        0.0119      397.7202      397.7321     188.512140      11.62634
  44    0.2165      209.2182        0.0158      397.6598      397.6756     188.457430      12.44572
  43    0.2613      209.2162        0.0204      397.5823      397.6028     188.386560      13.35861
  42    0.3336      209.2131        0.0280      397.4441      397.4721     188.259010      14.87114
  41    0.4307      209.2092        0.0379      397.2513      397.2892     188.080030      15.56190
  40    0.5894      209.2035        0.0538      396.9238      396.9776     187.774182      16.26458
  39     1.339      209.1873        0.1251      395.4223      395.5473     186.360076      15.92027
  38     1.782      209.1850        0.1650      394.7250      394.8899     185.704974      12.47208
  37     2.292      209.1887        0.2104      394.0527      394.2631     185.074463      10.44292
  36     2.964      209.2029        0.2693      393.2958      393.5652     184.362257       8.94033
  35     3.853      209.2348        0.3464      392.4268      392.7732     183.538474       7.81786
  34     5.035      209.2900        0.4478      391.4394      391.8872     182.597158       6.72437
  33     6.613      209.3710        0.5821      390.3226      390.9047     181.533736       5.68506
  32     8.786      209.4750        0.7617      389.0591      389.8209     180.345842       4.61335
  31     11.80      209.6021        1.0166      387.5485      388.5651     178.962974       3.87160
  30     15.07      209.7132        1.2880      386.1563      387.4443     177.731124       3.18040
  29     18.79      209.8160        1.5922      384.7539      386.3462     176.530126       2.72303
  28     23.16      209.9101        1.9446      383.2764      385.2210     175.310941       2.35751
  27     28.12      209.9872        2.3443      381.7455      384.0899     174.102698       2.05393
  26     33.73      210.0286        2.7883      380.2168      383.0051     172.976423       1.69338
  25     40.54      210.0270        3.3207      378.5644      381.8851     171.858133       1.38737
  24     48.69      209.9754        3.9568      376.7572      380.7141     170.738678       1.15846
  23     57.69      209.8713        4.6490      374.9411      379.5901     169.718790       0.95599
  22     68.43      209.6966        5.4648      372.9538      378.4186     168.722063       0.78356
  21     81.20      209.4182        6.4264      370.8117      377.2381     167.819928       0.59612
  20     96.49      209.0233        7.5574      368.4756      376.0331     167.009736       0.44717
  19     114.6      208.5341        8.8783      365.8339      374.7122     166.178163       0.38829
  18     136.5      207.9418       10.4121      362.8400      373.2521     165.310283       0.33372
  17     162.9      207.2312       12.1948      359.3892      371.5840     164.352813       0.30605
  16     196.4      206.2870       14.4419      355.0144      369.4564     163.169386       0.29788
  15     218.7      205.6650       15.8789      351.9594      367.8383     162.173311       0.37817
  14     243.0      204.9952       17.4070      348.2675      365.6745     160.679335       0.51816
  13     269.0      204.2784       19.0246      343.7550      362.7796     158.501200       0.70658
  12     297.5      203.5174       20.7293      338.5068      359.2361     155.718748       0.82524
  11     328.5      202.7159       22.5230      332.8831      355.4061     152.690202       0.82345
  10     361.9      201.8787       24.4003      326.8113      351.2116     149.332862       0.84944
   9     398.1      201.0104       26.3608      320.2372      346.5980     145.587523       0.87258
   8     437.6      200.1222       28.3989      313.1616      341.5605     141.438241       0.88714
   7     480.5      199.2253       30.5113      305.6964      336.2077     136.982329       0.87512
   6     533.0      198.2146       33.0126      296.6807      329.6933     131.478759       0.88535
   5     589.8      197.2778       35.5936      287.0555      322.6491     125.371263       0.90655
   4     651.6      196.5635       38.2421      276.4494      314.6914     118.127941       0.99054
   3     718.7      164.1044      220.7733       51.4748      272.2481     108.143659       1.25475
   2     792.3      142.4560      233.1962        9.5553      242.7515     100.295487       0.90010
   1     891.5      107.2564      198.8888        0.0664      198.9552      91.698807       0.73154
   0    1013.0      107.5337      192.8192        0.0616      192.8808      85.347164       0.44103



 Wavenumbers:  2600. -  3250. cm-1, ATM      1
 LEVEL PRESSURE   UPWARD FLUX   DIFDOWN FLUX  DIRDOWN FLUX  DOWNWARD FLUX   NET FLUX    HEATING RATE
          mb          W/m2          W/m2          W/m2        W/m2          W/m2       degree/day
  51    .06700        0.2026        0.0000        3.5066        3.5066       3.304069       0.00000
  50    .07753        0.2026        0.0000        3.5066        3.5066       3.304061       0.00640
  49    .09103        0.2026        0.0000        3.5066        3.5066       3.304051       0.00627
  48    0.1069        0.2026        0.0000        3.5066        3.5066       3.304040       0.00613
  47    0.1255        0.2026        0.0000        3.5066        3.5066       3.304027       0.00599
  46    0.1487        0.2026        0.0000        3.5066        3.5066       3.304010       0.00607
  45    0.1794        0.2026        0.0000        3.5065        3.5065       3.303987       0.00624
  44    0.2165        0.2026        0.0000        3.5065        3.5065       3.303960       0.00611
  43    0.2613        0.2026        0.0000        3.5065        3.5065       3.303929       0.00598
  42    0.3336        0.2026        0.0000        3.5064        3.5064       3.303876       0.00615
  41    0.4307        0.2026        0.0000        3.5064        3.5064       3.303805       0.00618
  40    0.5894        0.2026        0.0000        3.5062        3.5062       3.303686       0.00633
  39     1.339        0.2026        0.0000        3.5055        3.5055       3.302987       0.00787
  38     1.782        0.2026        0.0000        3.5050        3.5050       3.302456       0.01011
  37     2.292        0.2026        0.0000        3.5043        3.5043       3.301764       0.01147
  36     2.964        0.2026        0.0000        3.5033        3.5033       3.300772       0.01245
  35     3.853        0.2026        0.0000        3.5019        3.5019       3.299395       0.01307
  34     5.035        0.2026        0.0000        3.5001        3.5001       3.297534       0.01329
  33     6.613        0.2026        0.0000        3.4977        3.4977       3.295125       0.01288
  32     8.786        0.2026        0.0000        3.4947        3.4947       3.292154       0.01154
  31     11.80        0.2026        0.0000        3.4911        3.4911       3.288518       0.01018
  30     15.07        0.2026        0.0000        3.4878        3.4878       3.285297       0.00832
  29     18.79        0.2025        0.0000        3.4848        3.4848       3.282233       0.00695
  28     23.16        0.2025        0.0000        3.4816        3.4816       3.279013       0.00623
  27     28.12        0.2025        0.0000        3.4779        3.4779       3.275394       0.00615
  26     33.73        0.2025        0.0000        3.4735        3.4735       3.270927       0.00672
  25     40.54        0.2025        0.0000        3.4671        3.4671       3.264599       0.00785
  24     48.69        0.2026        0.0000        3.4582        3.4583       3.255702       0.00921
  23     57.69        0.2026        0.0000        3.4472        3.4472       3.244651       0.01036
  22     68.43        0.2026        0.0000        3.4329        3.4329       3.230387       0.01121
  21     81.20        0.2026        0.0000        3.4152        3.4152       3.212653       0.01172
  20     96.49        0.2026        0.0000        3.3940        3.3941       3.191500       0.01167
  19     114.6        0.2026        0.0000        3.3693        3.3694       3.166768       0.01155
  18     136.5        0.2026        0.0001        3.3424        3.3425       3.139858       0.01035
  17     162.9        0.2027        0.0001        3.3141        3.3142       3.111503       0.00906
  16     196.4        0.2027        0.0001        3.2825        3.2826       3.079840       0.00797
  15     218.7        0.2028        0.0001        3.2621        3.2622       3.059401       0.00776
  14     243.0        0.2029        0.0001        3.2371        3.2372       3.034275       0.00871
  13     269.0        0.2031        0.0001        3.2052        3.2053       3.002209       0.01040
  12     297.5        0.2034        0.0001        3.1631        3.1632       2.959735       0.01260
  11     328.5        0.2039        0.0001        3.1094        3.1095       2.905687       0.01470
  10     361.9        0.2044        0.0001        3.0408        3.0409       2.836502       0.01750
   9     398.1        0.2053        0.0001        2.9535        2.9536       2.748354       0.02054
   8     437.6        0.2065        0.0001        2.8452        2.8453       2.638850       0.02341
   7     480.5        0.2081        0.0002        2.7179        2.7180       2.509927       0.02532
   6     533.0        0.2109        0.0002        2.5566        2.5568       2.345859       0.02639
   5     589.8        0.2153        0.0002        2.3805        2.3807       2.165454       0.02678
   4     651.6        0.2228        0.0002        2.1827        2.1829       1.960081       0.02809
   3     718.7        0.0931        0.7099        0.3305        1.0404       0.947345       0.12727
   2     792.3        0.0427        0.4747        0.0487        0.5235       0.480757       0.05351
   1     891.5        0.0063        0.1123        0.0002        0.1125       0.106231       0.03187
   0    1013.0        0.0072        0.0929        0.0001        0.0931       0.085891       0.00141



 Wavenumbers:  3250. -  4000. cm-1, ATM      1
 LEVEL PRESSURE   UPWARD FLUX   DIFDOWN FLUX  DIRDOWN FLUX  DOWNWARD FLUX   NET FLUX    HEATING RATE
          mb          W/m2          W/m2          W/m2        W/m2          W/m2       degree/day
  51    .06700        0.0133        0.0000        5.9117        5.9117       5.898395       0.00000
  50    .07753        0.0133        0.0000        5.9074        5.9074       5.894184       3.37561
  49    .09103        0.0133        0.0000        5.9050        5.9050       5.891719       1.54074
  48    0.1069        0.0133        0.0000        5.9031        5.9031       5.889830       1.00535
  47    0.1255        0.0133        0.0000        5.9013        5.9013       5.888051       0.80634
  46    0.1487        0.0133        0.0000        5.8994        5.8994       5.886139       0.69708
  45    0.1794        0.0133        0.0000        5.8972        5.8972       5.883963       0.59741
  44    0.2165        0.0133        0.0000        5.8951        5.8951       5.881816       0.48841
  43    0.2613        0.0133        0.0000        5.8929        5.8929       5.879619       0.41398
  42    0.3336        0.0133        0.0000        5.8897        5.8897       5.876400       0.37536
  41    0.4307        0.0133        0.0000        5.8857        5.8857       5.872488       0.34011
  40    0.5894        0.0133        0.0000        5.8798        5.8798       5.866582       0.31410
  39     1.339        0.0133        0.0000        5.8590        5.8590       5.845780       0.23419
  38     1.782        0.0133        0.0000        5.8506        5.8506       5.837311       0.16123
  37     2.292        0.0133        0.0000        5.8424        5.8424       5.829106       0.13590
  36     2.964        0.0133        0.0000        5.8327        5.8327       5.819458       0.12112
  35     3.853        0.0133        0.0000        5.8206        5.8206       5.807310       0.11528
  34     5.035        0.0133        0.0000        5.8045        5.8045       5.791279       0.11452
  33     6.613        0.0133        0.0000        5.7828        5.7828       5.769543       0.11620
  32     8.786        0.0132        0.0000        5.7527        5.7527       5.739439       0.11691
  31     11.80        0.0132        0.0000        5.7088        5.7089       5.695617       0.12269
  30     15.07        0.0132        0.0000        5.6617        5.6618       5.648526       0.12158
  29     18.79        0.0132        0.0000        5.6101        5.6102       5.596941       0.11696
  28     23.16        0.0132        0.0000        5.5539        5.5539       5.540679       0.10879
  27     28.12        0.0132        0.0000        5.4957        5.4958       5.482531       0.09885
  26     33.73        0.0132        0.0000        5.4379        5.4379       5.424721       0.08692
  25     40.54        0.0132        0.0001        5.3749        5.3750       5.361761       0.07811
  24     48.69        0.0132        0.0001        5.3044        5.3045       5.291299       0.07292
  23     57.69        0.0132        0.0001        5.2294        5.2295       5.216296       0.07030
  22     68.43        0.0132        0.0001        5.1416        5.1417       5.128534       0.06899
  21     81.20        0.0132        0.0001        5.0402        5.0403       5.027120       0.06701
  20     96.49        0.0131        0.0001        4.9260        4.9261       4.912938       0.06302
  19     114.6        0.0131        0.0001        4.7954        4.7956       4.782463       0.06092
  18     136.5        0.0131        0.0002        4.6558        4.6560       4.642870       0.05368
  17     162.9        0.0131        0.0002        4.4963        4.4964       4.483378       0.05098
  16     196.4        0.0130        0.0002        4.2728        4.2731       4.260023       0.05622
  15     218.7        0.0130        0.0002        4.0724        4.0727       4.059652       0.07607
  14     243.0        0.0130        0.0002        3.8102        3.8105       3.797499       0.09092
  13     269.0        0.0130        0.0002        3.4720        3.4722       3.459236       0.10973
  12     297.5        0.0130        0.0002        3.0589        3.0591       3.046119       0.12253
  11     328.5        0.0130        0.0002        2.6499        2.6502       2.637146       0.11120
  10     361.9        0.0131        0.0002        2.2815        2.2817       2.268603       0.09325
   9     398.1        0.0132        0.0002        1.9524        1.9526       1.939358       0.07671
   8     437.6        0.0134        0.0002        1.6512        1.6515       1.638015       0.06443
   7     480.5        0.0138        0.0002        1.3776        1.3778       1.363986       0.05382
   6     533.0        0.0146        0.0002        1.0886        1.0888       1.074260       0.04661
   5     589.8        0.0159        0.0002        0.8105        0.8106       0.794666       0.04150
   4     651.6        0.0190        0.0001        0.5333        0.5334       0.514378       0.03833
   3     718.7        0.0044        0.1050        0.0536        0.1586       0.154275       0.04526
   2     792.3        0.0011        0.0354        0.0040        0.0394       0.038292       0.01330
   1     891.5        0.0000        0.0021        0.0000        0.0021       0.002139       0.00308
   0    1013.0        0.0000        0.0002        0.0000        0.0002       0.000182       0.00014



 Wavenumbers:  4000. -  4650. cm-1, ATM      1
 LEVEL PRESSURE   UPWARD FLUX   DIFDOWN FLUX  DIRDOWN FLUX  DOWNWARD FLUX   NET FLUX    HEATING RATE
          mb          W/m2          W/m2          W/m2        W/m2          W/m2       degree/day
  51    .06700        1.8428        0.0000        6.9421        6.9421       5.099230       0.00000
  50    .07753        1.8428        0.0000        6.9421        6.9421       5.099229       0.00080
  49    .09103        1.8428        0.0000        6.9421        6.9421       5.099228       0.00078
  48    0.1069        1.8428        0.0000        6.9421        6.9421       5.099226       0.00076
  47    0.1255        1.8428        0.0000        6.9421        6.9421       5.099225       0.00075
  46    0.1487        1.8428        0.0000        6.9421        6.9421       5.099223       0.00076
  45    0.1794        1.8428        0.0000        6.9421        6.9421       5.099220       0.00078
  44    0.2165        1.8428        0.0000        6.9421        6.9421       5.099216       0.00076
  43    0.2613        1.8428        0.0000        6.9420        6.9421       5.099212       0.00075
  42    0.3336        1.8428        0.0000        6.9420        6.9420       5.099206       0.00077
  41    0.4307        1.8428        0.0000        6.9420        6.9420       5.099197       0.00077
  40    0.5894        1.8428        0.0000        6.9420        6.9420       5.099182       0.00080
  39     1.339        1.8428        0.0000        6.9419        6.9419       5.099093       0.00101
  38     1.782        1.8428        0.0000        6.9418        6.9419       5.099023       0.00133
  37     2.292        1.8428        0.0000        6.9418        6.9418       5.098929       0.00156
  36     2.964        1.8428        0.0000        6.9416        6.9416       5.098788       0.00176
  35     3.853        1.8428        0.0000        6.9414        6.9414       5.098580       0.00197
  34     5.035        1.8428        0.0000        6.9411        6.9411       5.098274       0.00219
  33     6.613        1.8428        0.0000        6.9406        6.9406       5.097823       0.00241
  32     8.786        1.8428        0.0000        6.9399        6.9400       5.097158       0.00258
  31     11.80        1.8428        0.0000        6.9389        6.9389       5.096116       0.00292
  30     15.07        1.8428        0.0001        6.9376        6.9377       5.094897       0.00315
  29     18.79        1.8428        0.0001        6.9361        6.9362       5.093427       0.00333
  28     23.16        1.8428        0.0001        6.9343        6.9344       5.091609       0.00352
  27     28.12        1.8428        0.0001        6.9321        6.9322       5.089416       0.00373
  26     33.73        1.8428        0.0001        6.9294        6.9295       5.086724       0.00405
  25     40.54        1.8428        0.0002        6.9257        6.9259       5.083092       0.00451
  24     48.69        1.8428        0.0002        6.9209        6.9211       5.078281       0.00498
  23     57.69        1.8428        0.0002        6.9152        6.9154       5.072617       0.00531
  22     68.43        1.8428        0.0003        6.9081        6.9084       5.065569       0.00554
  21     81.20        1.8429        0.0003        6.8995        6.8998       5.056942       0.00570
  20     96.49        1.8430        0.0004        6.8891        6.8895       5.046510       0.00576
  19     114.6        1.8431        0.0004        6.8762        6.8767       5.033566       0.00604
  18     136.5        1.8433        0.0005        6.8608        6.8614       5.018054       0.00596
  17     162.9        1.8436        0.0006        6.8421        6.8428       4.999144       0.00604
  16     196.4        1.8441        0.0008        6.8166        6.8174       4.973233       0.00652
  15     218.7        1.8446        0.0008        6.7976        6.7984       4.953804       0.00738
  14     243.0        1.8453        0.0009        6.7731        6.7741       4.928796       0.00867
  13     269.0        1.8463        0.0010        6.7409        6.7420       4.895700       0.01074
  12     297.5        1.8478        0.0011        6.6982        6.6993       4.851550       0.01309
  11     328.5        1.8498        0.0013        6.6434        6.6447       4.794847       0.01542
  10     361.9        1.8526        0.0014        6.5741        6.5755       4.722928       0.01820
   9     398.1        1.8560        0.0015        6.4889        6.4904       4.634382       0.02063
   8     437.6        1.8606        0.0016        6.3876        6.3893       4.528689       0.02260
   7     480.5        1.8665        0.0018        6.2749        6.2766       4.410085       0.02329
   6     533.0        1.8760        0.0019        6.1332        6.1351       4.259103       0.02429
   5     589.8        1.8902        0.0021        5.9653        5.9674       4.077205       0.02700
   4     651.6        1.9142        0.0022        5.7389        5.7411       3.826874       0.03423
   3     718.7        1.2108        3.4482        0.9605        4.4087       3.197950       0.07904
   2     792.3        0.7813        3.3389        0.1588        3.4977       2.716446       0.05522
   1     891.5        0.1042        2.1941        0.0008        2.1948       2.090632       0.05325
   0    1013.0        0.1106        2.0167        0.0007        2.0174       1.906892       0.01276



 Wavenumbers:  4650. -  5150. cm-1, ATM      1
 LEVEL PRESSURE   UPWARD FLUX   DIFDOWN FLUX  DIRDOWN FLUX  DOWNWARD FLUX   NET FLUX    HEATING RATE
          mb          W/m2          W/m2          W/m2        W/m2          W/m2       degree/day
  51    .06700        1.2521        0.0000        6.5710        6.5710       5.318907       0.00000
  50    .07753        1.2521        0.0000        6.5708        6.5708       5.318671       0.18877
  49    .09103        1.2521        0.0000        6.5705        6.5705       5.318377       0.18352
  48    0.1069        1.2521        0.0000        6.5701        6.5701       5.318043       0.17796
  47    0.1255        1.2521        0.0000        6.5697        6.5697       5.317663       0.17229
  46    0.1487        1.2521        0.0000        6.5693        6.5693       5.317190       0.17259
  45    0.1794        1.2521        0.0000        6.5686        6.5686       5.316553       0.17464
  44    0.2165        1.2521        0.0000        6.5679        6.5679       5.315816       0.16778
  43    0.2613        1.2521        0.0000        6.5670        6.5670       5.314963       0.16069
  42    0.3336        1.2521        0.0000        6.5657        6.5657       5.313601       0.15885
  41    0.4307        1.2521        0.0000        6.5640        6.5640       5.311880       0.14963
  40    0.5894        1.2521        0.0000        6.5613        6.5613       5.309265       0.13905
  39     1.339        1.2521        0.0000        6.5516        6.5516       5.299493       0.11002
  38     1.782        1.2521        0.0000        6.5473        6.5474       5.295280       0.08022
  37     2.292        1.2521        0.0000        6.5435        6.5435       5.291395       0.06434
  36     2.964        1.2521        0.0000        6.5395        6.5395       5.287443       0.04961
  35     3.853        1.2521        0.0000        6.5356        6.5356       5.283503       0.03740
  34     5.035        1.2521        0.0000        6.5315        6.5316       5.279503       0.02857
  33     6.613        1.2521        0.0000        6.5271        6.5272       5.275110       0.02348
  32     8.786        1.2521        0.0001        6.5216        6.5217       5.269617       0.02133
  31     11.80        1.2521        0.0001        6.5135        6.5136       5.261539       0.02261
  30     15.07        1.2520        0.0001        6.5041        6.5042       5.252171       0.02419
  29     18.79        1.2520        0.0001        6.4926        6.4927       5.240654       0.02611
  28     23.16        1.2521        0.0001        6.4780        6.4781       5.226058       0.02822
  27     28.12        1.2521        0.0002        6.4600        6.4601       5.208076       0.03057
  26     33.73        1.2521        0.0002        6.4385        6.4387       5.186634       0.03224
  25     40.54        1.2521        0.0002        6.4114        6.4116       5.159490       0.03367
  24     48.69        1.2522        0.0003        6.3777        6.3780       5.125823       0.03484
  23     57.69        1.2522        0.0003        6.3406        6.3409       5.088687       0.03481
  22     68.43        1.2523        0.0004        6.2974        6.2978       5.045429       0.03401
  21     81.20        1.2525        0.0005        6.2485        6.2490       4.996510       0.03233
  20     96.49        1.2527        0.0005        6.1952        6.1957       4.942982       0.02954
  19     114.6        1.2531        0.0006        6.1386        6.1392       4.886139       0.02654
  18     136.5        1.2535        0.0008        6.0795        6.0803       4.826770       0.02283
  17     162.9        1.2542        0.0009        6.0168        6.0177       4.763512       0.02022
  16     196.4        1.2553        0.0011        5.9412        5.9423       4.687063       0.01924
  15     218.7        1.2561        0.0012        5.8915        5.8926       4.636557       0.01917
  14     243.0        1.2572        0.0013        5.8346        5.8359       4.578755       0.02005
  13     269.0        1.2587        0.0014        5.7676        5.7690       4.510349       0.02219
  12     297.5        1.2608        0.0016        5.6858        5.6874       4.426572       0.02485
  11     328.5        1.2635        0.0017        5.5899        5.5916       4.328103       0.02677
  10     361.9        1.2671        0.0019        5.4787        5.4806       4.213503       0.02900
   9     398.1        1.2718        0.0020        5.3502        5.3523       4.080476       0.03099
   8     437.6        1.2779        0.0022        5.2035        5.2056       3.927711       0.03266
   7     480.5        1.2860        0.0023        5.0390        5.0413       3.755350       0.03385
   6     533.0        1.2984        0.0025        4.8308        4.8333       3.534944       0.03546
   5     589.8        1.3158        0.0027        4.6030        4.6057       3.289849       0.03638
   4     651.6        1.3422        0.0028        4.3500        4.3528       3.010593       0.03819
   3     718.7        0.8422        2.5416        0.7292        3.2709       2.428673       0.07313
   2     792.3        0.5420        2.4281        0.1211        2.5492       2.007228       0.04834
   1     891.5        0.0741        1.5423        0.0006        1.5430       1.468893       0.04581
   0    1013.0        0.0794        1.4030        0.0005        1.4035       1.324068       0.01006



 Wavenumbers:  5150. -  6150. cm-1, ATM      1
 LEVEL PRESSURE   UPWARD FLUX   DIFDOWN FLUX  DIRDOWN FLUX  DOWNWARD FLUX   NET FLUX    HEATING RATE
          mb          W/m2          W/m2          W/m2        W/m2          W/m2       degree/day
  51    .06700        3.5296        0.0000       16.4735       16.4735      12.943926       0.00000
  50    .07753        3.5296        0.0000       16.4735       16.4735      12.943886       0.03158
  49    .09103        3.5296        0.0000       16.4734       16.4734      12.943835       0.03206
  48    0.1069        3.5296        0.0000       16.4734       16.4734      12.943774       0.03256
  47    0.1255        3.5296        0.0000       16.4733       16.4733      12.943701       0.03306
  46    0.1487        3.5296        0.0000       16.4732       16.4732      12.943605       0.03482
  45    0.1794        3.5296        0.0000       16.4730       16.4730      12.943470       0.03706
  44    0.2165        3.5296        0.0000       16.4729       16.4729      12.943305       0.03761
  43    0.2613        3.5296        0.0000       16.4727       16.4727      12.943102       0.03817
  42    0.3336        3.5296        0.0000       16.4723       16.4723      12.942757       0.04031
  41    0.4307        3.5296        0.0000       16.4719       16.4719      12.942287       0.04081
  40    0.5894        3.5296        0.0000       16.4711       16.4711      12.941502       0.04177
  39     1.339        3.5296        0.0000       16.4673       16.4673      12.937737       0.04239
  38     1.782        3.5295        0.0000       16.4651       16.4651      12.935558       0.04147
  37     2.292        3.5295        0.0001       16.4626       16.4626      12.933105       0.04063
  36     2.964        3.5295        0.0001       16.4595       16.4595      12.930007       0.03889
  35     3.853        3.5295        0.0001       16.4555       16.4556      12.926099       0.03708
  34     5.035        3.5295        0.0001       16.4505       16.4506      12.921116       0.03560
  33     6.613        3.5295        0.0002       16.4440       16.4442      12.914733       0.03413
  32     8.786        3.5295        0.0002       16.4358       16.4360      12.906596       0.03160
  31     11.80        3.5294        0.0003       16.4249       16.4252      12.895824       0.03016
  30     15.07        3.5294        0.0004       16.4143       16.4147      12.885286       0.02721
  29     18.79        3.5293        0.0005       16.4034       16.4039      12.874558       0.02432
  28     23.16        3.5293        0.0006       16.3920       16.3926      12.863288       0.02179
  27     28.12        3.5293        0.0008       16.3803       16.3811      12.851788       0.01955
  26     33.73        3.5292        0.0009       16.3687       16.3696      12.840407       0.01711
  25     40.54        3.5292        0.0011       16.3564       16.3575      12.828294       0.01503
  24     48.69        3.5292        0.0013       16.3435       16.3448      12.815628       0.01311
  23     57.69        3.5292        0.0016       16.3309       16.3325      12.803287       0.01157
  22     68.43        3.5292        0.0018       16.3174       16.3193      12.790078       0.01038
  21     81.20        3.5292        0.0022       16.3027       16.3049      12.775661       0.00953
  20     96.49        3.5293        0.0026       16.2861       16.2887      12.759481       0.00893
  19     114.6        3.5293        0.0031       16.2671       16.2702      12.740836       0.00871
  18     136.5        3.5294        0.0037       16.2445       16.2482      12.718780       0.00848
  17     162.9        3.5296        0.0043       16.2108       16.2151      12.685590       0.01061
  16     196.4        3.5298        0.0052       16.1360       16.1412      12.611425       0.01867
  15     218.7        3.5300        0.0058       16.0099       16.0157      12.485710       0.04773
  14     243.0        3.5303        0.0064       15.7396       15.7460      12.215710       0.09365
  13     269.0        3.5308        0.0069       15.3077       15.3146      11.783805       0.14011
  12     297.5        3.5316        0.0074       14.7951       14.8025      11.270892       0.15212
  11     328.5        3.5329        0.0080       14.2426       14.2506      10.717733       0.15040
  10     361.9        3.5347        0.0085       13.6155       13.6240      10.089329       0.15899
   9     398.1        3.5373        0.0090       12.9439       12.9529       9.415601       0.15696
   8     437.6        3.5412        0.0095       12.2429       12.2524       8.711193       0.15061
   7     480.5        3.5468        0.0099       11.5524       11.5623       8.015475       0.13664
   6     533.0        3.5570        0.0104       10.8188       10.8292       7.272224       0.11957
   5     589.8        3.5744        0.0108       10.1668       10.1777       6.603261       0.09930
   4     651.6        3.6090        0.0113        9.5867        9.5980       5.988995       0.08400
   3     718.7        2.3552        5.9755        1.6529        7.6284       5.273250       0.08995
   2     792.3        1.5580        6.0090        0.2842        6.2932       4.735191       0.06171
   1     891.5        0.2320        4.2994        0.0016        4.3010       4.069041       0.05669
   0    1013.0        0.2408        4.0124        0.0014        4.0139       3.773058       0.02055



 Wavenumbers:  6150. -  7700. cm-1, ATM      1
 LEVEL PRESSURE   UPWARD FLUX   DIFDOWN FLUX  DIRDOWN FLUX  DOWNWARD FLUX   NET FLUX    HEATING RATE
          mb          W/m2          W/m2          W/m2        W/m2          W/m2       degree/day
  51    .06700        5.8665        0.0000       30.4684       30.4684      24.601868       0.00000
  50    .07753        5.8665        0.0000       30.4683       30.4683      24.601812       0.04553
  49    .09103        5.8665        0.0000       30.4682       30.4683      24.601738       0.04582
  48    0.1069        5.8665        0.0000       30.4682       30.4682      24.601652       0.04613
  47    0.1255        5.8665        0.0000       30.4681       30.4681      24.601549       0.04643
  46    0.1487        5.8665        0.0000       30.4679       30.4679      24.601416       0.04850
  45    0.1794        5.8665        0.0000       30.4677       30.4677      24.601229       0.05124
  44    0.2165        5.8665        0.0000       30.4675       30.4675      24.601002       0.05163
  43    0.2613        5.8665        0.0000       30.4672       30.4672      24.600726       0.05205
  42    0.3336        5.8665        0.0000       30.4667       30.4667      24.600258       0.05464
  41    0.4307        5.8665        0.0000       30.4661       30.4661      24.599624       0.05511
  40    0.5894        5.8665        0.0001       30.4650       30.4650      24.598567       0.05619
  39     1.339        5.8664        0.0001       30.4598       30.4599      24.593503       0.05701
  38     1.782        5.8664        0.0002       30.4567       30.4569      24.590560       0.05603
  37     2.292        5.8663        0.0003       30.4533       30.4535      24.587225       0.05523
  36     2.964        5.8662        0.0003       30.4489       30.4492      24.582975       0.05335
  35     3.853        5.8662        0.0004       30.4433       30.4437      24.577553       0.05146
  34     5.035        5.8660        0.0006       30.4360       30.4366      24.570560       0.04995
  33     6.613        5.8659        0.0007       30.4266       30.4274      24.561490       0.04849
  32     8.786        5.8657        0.0010       30.4144       30.4154      24.549729       0.04568
  31     11.80        5.8654        0.0013       30.3978       30.3992      24.533789       0.04463
  30     15.07        5.8651        0.0017       30.3811       30.3828      24.517747       0.04142
  29     18.79        5.8647        0.0021       30.3635       30.3656      24.500883       0.03824
  28     23.16        5.8643        0.0026       30.3443       30.3469      24.482627       0.03530
  27     28.12        5.8638        0.0032       30.3239       30.3271      24.463272       0.03290
  26     33.73        5.8633        0.0038       30.3029       30.3068      24.443448       0.02981
  25     40.54        5.8627        0.0046       30.2799       30.2844      24.421762       0.02690
  24     48.69        5.8619        0.0055       30.2548       30.2603      24.398370       0.02421
  23     57.69        5.8611        0.0065       30.2296       30.2361      24.375030       0.02188
  22     68.43        5.8601        0.0077       30.2020       30.2097      24.349653       0.01995
  21     81.20        5.8589        0.0092       30.1714       30.1806      24.321713       0.01846
  20     96.49        5.8574        0.0109       30.1369       30.1477      24.290295       0.01734
  19     114.6        5.8557        0.0129       30.0970       30.1099      24.254182       0.01686
  18     136.5        5.8537        0.0153       30.0504       30.0657      24.212003       0.01622
  17     162.9        5.8513        0.0182       29.9842       30.0024      24.151019       0.01949
  16     196.4        5.8483        0.0219       29.8533       29.8752      24.026833       0.03126
  15     218.7        5.8465        0.0243       29.6742       29.6985      23.852057       0.06636
  14     243.0        5.8446        0.0267       29.3154       29.3422      23.497547       0.12296
  13     269.0        5.8430        0.0292       28.6682       28.6974      22.854365       0.20865
  12     297.5        5.8421        0.0316       27.7720       27.8036      21.961451       0.26483
  11     328.5        5.8422        0.0339       26.8285       26.8624      21.020240       0.25591
  10     361.9        5.8436        0.0363       25.7886       25.8249      19.981297       0.26286
   9     398.1        5.8474        0.0385       24.6047       24.6432      18.795834       0.27619
   8     437.6        5.8550        0.0406       23.3058       23.3464      17.491405       0.27890
   7     480.5        5.8683        0.0424       21.9700       22.0124      16.144086       0.26461
   6     533.0        5.8950        0.0443       20.4313       20.4757      14.580614       0.25151
   5     589.8        5.9444        0.0460       18.8913       18.9373      12.992900       0.23567
   4     651.6        6.0462        0.0471       17.2864       17.3335      11.287352       0.23324
   3     718.7        3.9141       10.5196        2.9334       13.4530       9.538886       0.21973
   2     792.3        2.5922       10.3070        0.4948       10.8018       8.209603       0.15245
   1     891.5        0.3901        7.2920        0.0028        7.2948       6.904734       0.11104
   0    1013.0        0.4159        6.5266        0.0025        6.5291       6.113190       0.05496



 Wavenumbers:  7700. -  8050. cm-1, ATM      1
 LEVEL PRESSURE   UPWARD FLUX   DIFDOWN FLUX  DIRDOWN FLUX  DOWNWARD FLUX   NET FLUX    HEATING RATE
          mb          W/m2          W/m2          W/m2        W/m2          W/m2       degree/day
  51    .06700        2.5767        0.0000        7.2006        7.2006       4.623852       0.00000
  50    .07753        2.5767        0.0000        7.2006        7.2006       4.623832       0.01562
  49    .09103        2.5767        0.0000        7.2005        7.2005       4.623808       0.01531
  48    0.1069        2.5767        0.0000        7.2005        7.2005       4.623780       0.01499
  47    0.1255        2.5767        0.0000        7.2005        7.2005       4.623747       0.01467
  46    0.1487        2.5767        0.0000        7.2004        7.2005       4.623706       0.01488
  45    0.1794        2.5767        0.0000        7.2004        7.2004       4.623651       0.01532
  44    0.2165        2.5768        0.0000        7.2003        7.2003       4.623585       0.01502
  43    0.2613        2.5768        0.0000        7.2003        7.2003       4.623506       0.01474
  42    0.3336        2.5768        0.0000        7.2001        7.2001       4.623377       0.01508
  41    0.4307        2.5768        0.0000        7.2000        7.2000       4.623205       0.01492
  40    0.5894        2.5768        0.0000        7.1997        7.1997       4.622925       0.01490
  39     1.339        2.5769        0.0001        7.1984        7.1985       4.621600       0.01492
  38     1.782        2.5770        0.0001        7.1977        7.1978       4.620822       0.01481
  37     2.292        2.5770        0.0001        7.1968        7.1969       4.619921       0.01491
  36     2.964        2.5771        0.0001        7.1957        7.1958       4.618739       0.01484
  35     3.853        2.5772        0.0002        7.1942        7.1944       4.617179       0.01481
  34     5.035        2.5774        0.0002        7.1922        7.1925       4.615107       0.01480
  33     6.613        2.5776        0.0003        7.1896        7.1899       4.612342       0.01478
  32     8.786        2.5778        0.0004        7.1860        7.1865       4.608621       0.01445
  31     11.80        2.5782        0.0006        7.1810        7.1815       4.603310       0.01487
  30     15.07        2.5786        0.0007        7.1755        7.1763       4.597623       0.01468
  29     18.79        2.5791        0.0009        7.1694        7.1703       4.591217       0.01452
  28     23.16        2.5797        0.0011        7.1623        7.1634       4.583762       0.01442
  27     28.12        2.5803        0.0013        7.1543        7.1556       4.575272       0.01443
  26     33.73        2.5810        0.0016        7.1453        7.1468       4.565817       0.01422
  25     40.54        2.5819        0.0019        7.1344        7.1363       4.554459       0.01409
  24     48.69        2.5829        0.0023        7.1215        7.1238       4.540861       0.01407
  23     57.69        2.5841        0.0027        7.1075        7.1101       4.526044       0.01389
  22     68.43        2.5855        0.0032        7.0909        7.0940       4.508558       0.01375
  21     81.20        2.5872        0.0038        7.0714        7.0751       4.487952       0.01362
  20     96.49        2.5892        0.0045        7.0484        7.0529       4.463712       0.01338
  19     114.6        2.5916        0.0053        7.0217        7.0270       4.435358       0.01324
  18     136.5        2.5945        0.0063        6.9906        6.9969       4.402327       0.01270
  17     162.9        2.5981        0.0074        6.9544        6.9618       4.363760       0.01233
  16     196.4        2.6028        0.0089        6.9088        6.9177       4.314921       0.01229
  15     218.7        2.6059        0.0099        6.8795        6.8894       4.283458       0.01195
  14     243.0        2.6094        0.0110        6.8482        6.8591       4.249750       0.01169
  13     269.0        2.6132        0.0121        6.8148        6.8269       4.213706       0.01169
  12     297.5        2.6175        0.0133        6.7794        6.7927       4.175200       0.01142
  11     328.5        2.6222        0.0147        6.7415        6.7562       4.133968       0.01121
  10     361.9        2.6275        0.0161        6.7014        6.7175       4.089976       0.01113
   9     398.1        2.6334        0.0176        6.6586        6.6763       4.042807       0.01099
   8     437.6        2.6401        0.0193        6.6128        6.6321       3.992005       0.01086
   7     480.5        2.6476        0.0210        6.5638        6.5848       3.937163       0.01077
   6     533.0        2.6575        0.0232        6.5031        6.5262       3.868695       0.01101
   5     589.8        2.6692        0.0255        6.4362        6.4617       3.792535       0.01130
   4     651.6        2.6833        0.0279        6.3609        6.3888       3.705501       0.01190
   3     718.7        1.8513        4.2302        1.1824        5.4126       3.561337       0.01812
   2     792.3        1.2747        4.4947        0.2193        4.7140       3.439260       0.01400
   1     891.5        0.2429        3.5171        0.0014        3.5185       3.275644       0.01392
   0    1013.0        0.2467        3.4349        0.0014        3.4362       3.189522       0.00598



 Wavenumbers:  8050. - 12850. cm-1, ATM      1
 LEVEL PRESSURE   UPWARD FLUX   DIFDOWN FLUX  DIRDOWN FLUX  DOWNWARD FLUX   NET FLUX    HEATING RATE
          mb          W/m2          W/m2          W/m2        W/m2          W/m2       degree/day
  51    .06700       40.1065        0.0000      100.8135      100.8135      60.707065       0.00000
  50    .07753       40.1064        0.0000      100.8135      100.8135      60.707065       0.00000
  49    .09103       40.1064        0.0001      100.8134      100.8135      60.707065       0.00000
  48    0.1069       40.1064        0.0001      100.8134      100.8135      60.707065       0.00000
  47    0.1255       40.1064        0.0001      100.8133      100.8134      60.707065      -0.00000
  46    0.1487       40.1063        0.0002      100.8132      100.8134      60.707065      -0.00000
  45    0.1794       40.1063        0.0003      100.8131      100.8133      60.707065       0.00000
  44    0.2165       40.1062        0.0004      100.8129      100.8133      60.707065      -0.00000
  43    0.2613       40.1061        0.0005      100.8127      100.8132      60.707065       0.00000
  42    0.3336       40.1060        0.0006      100.8125      100.8131      60.707065       0.00000
  41    0.4307       40.1059        0.0009      100.8121      100.8129      60.707065      -0.00000
  40    0.5894       40.1056        0.0012      100.8115      100.8127      60.707065       0.00000
  39     1.339       40.1044        0.0030      100.8085      100.8115      60.707065      -0.00000
  38     1.782       40.1037        0.0040      100.8068      100.8108      60.707065       0.00000
  37     2.292       40.1029        0.0052      100.8047      100.8099      60.707065       0.00000
  36     2.964       40.1018        0.0068      100.8021      100.8089      60.707065       0.00000
  35     3.853       40.1004        0.0088      100.7986      100.8074      60.707065      -0.00000
  34     5.035       40.0985        0.0116      100.7940      100.8055      60.707065      -0.00000
  33     6.613       40.0960        0.0152      100.7878      100.8030      60.707065       0.00000
  32     8.786       40.0925        0.0202      100.7794      100.7996      60.707065       0.00000
  31     11.80       40.0877        0.0273      100.7674      100.7947      60.707065       0.00000
  30     15.07       40.0824        0.0349      100.7546      100.7895      60.707065       0.00000
  29     18.79       40.0765        0.0435      100.7400      100.7835      60.707065      -0.00000
  28     23.16       40.0695        0.0536      100.7230      100.7766      60.707065      -0.00000
  27     28.12       40.0616        0.0651      100.7035      100.7686      60.707065       0.00000
  26     33.73       40.0527        0.0781      100.6817      100.7597      60.707065      -0.00000
  25     40.54       40.0419        0.0937      100.6552      100.7490      60.707065       0.00000
  24     48.69       40.0289        0.1126      100.6234      100.7359      60.707065       0.00000
  23     57.69       40.0146        0.1333      100.5883      100.7216      60.707065       0.00000
  22     68.43       39.9975        0.1581      100.5464      100.7046      60.707065       0.00000
  21     81.20       39.9771        0.1876      100.4965      100.6842      60.707065      -0.00000
  20     96.49       39.9528        0.2229      100.4370      100.6599      60.707065       0.00000
  19     114.6       39.9240        0.2648      100.3601      100.6249      60.700954       0.00285
  18     136.5       39.8897        0.3146      100.2685      100.5831      60.693385       0.00291
  17     162.9       39.8488        0.3740      100.1557      100.5297      60.680839       0.00401
  16     196.4       39.7958        0.4511       99.9935      100.4446      60.648810       0.00806
  15     218.7       39.7611        0.5018       99.8490      100.3508      60.589729       0.02243
  14     243.0       39.7239        0.5568       99.6218      100.1787      60.454824       0.04679
  13     269.0       39.6847        0.6163       99.2701       99.8864      60.201650       0.08213
  12     297.5       39.6448        0.6801       98.7863       99.4664      59.821562       0.11273
  11     328.5       39.6047        0.7488       98.2127       98.9615      59.356773       0.12637
  10     361.9       39.5659        0.8223       97.5096       98.3319      58.765912       0.14949
   9     398.1       39.5311        0.9006       96.6249       97.5255      57.994406       0.17974
   8     437.6       39.5047        0.9834       95.5141       96.4975      56.992802       0.21415
   7     480.5       39.4923        1.0705       94.1664       95.2369      55.744589       0.24514
   6     533.0       39.5076        1.1750       92.2972       93.4723      53.964651       0.28634
   5     589.8       39.5814        1.2833       90.0044       91.2877      51.706278       0.33522
   4     651.6       39.7868        1.3926       87.0975       88.4901      48.703325       0.41066
   3     718.7       28.9899       58.2577       16.1100       74.3677      45.377737       0.41793
   2     792.3       21.7511       60.9666        2.9510       63.9176      42.166569       0.36829
   1     891.5        9.2213       47.8678        0.0195       47.8874      38.666077       0.29788
   0    1013.0        9.5732       44.8424        0.0179       44.8603      35.287074       0.23462



 Wavenumbers: 12850. - 16000. cm-1, ATM      1
 LEVEL PRESSURE   UPWARD FLUX   DIFDOWN FLUX  DIRDOWN FLUX  DOWNWARD FLUX   NET FLUX    HEATING RATE
          mb          W/m2          W/m2          W/m2        W/m2          W/m2       degree/day
  51    .06700       37.0878        0.0000       63.1686       63.1686      26.080807       0.00000
  50    .07753       37.0877        0.0001       63.1677       63.1678      26.080027       0.62541
  49    .09103       37.0877        0.0001       63.1666       63.1668      26.079054       0.60789
  48    0.1069       37.0877        0.0002       63.1654       63.1656      26.077946       0.58959
  47    0.1255       37.0876        0.0003       63.1640       63.1643      26.076686       0.57123
  46    0.1487       37.0876        0.0004       63.1623       63.1627      26.075115       0.57296
  45    0.1794       37.0876        0.0006       63.1600       63.1606      26.073006       0.57881
  44    0.2165       37.0875        0.0008       63.1573       63.1581      26.070567       0.55482
  43    0.2613       37.0875        0.0010       63.1542       63.1552      26.067753       0.53050
  42    0.3336       37.0874        0.0014       63.1493       63.1507      26.063266       0.52306
  41    0.4307       37.0874        0.0019       63.1431       63.1451      26.057652       0.48815
  40    0.5894       37.0874        0.0027       63.1338       63.1366      26.049140       0.45267
  39     1.339       37.0890        0.0067       63.0956       63.1022      26.013271       0.40382
  38     1.782       37.0909        0.0090       63.0740       63.0830      25.992093       0.40320
  37     2.292       37.0941        0.0116       63.0477       63.0593      25.965197       0.44546
  36     2.964       37.0998        0.0151       63.0095       63.0246      25.924886       0.50603
  35     3.853       37.1093        0.0197       62.9533       62.9730      25.863671       0.58094
  34     5.035       37.1241        0.0259       62.8725       62.8984      25.774304       0.63841
  33     6.613       37.1448        0.0340       62.7621       62.7961      25.651303       0.65756
  32     8.786       37.1716        0.0450       62.6182       62.6633      25.491631       0.62011
  31     11.80       37.2060        0.0607       62.4284       62.4890      25.283050       0.58396
  30     15.07       37.2382        0.0775       62.2426       62.3201      25.081880       0.51938
  29     18.79       37.2704        0.0964       62.0493       62.1457      24.875326       0.46832
  28     23.16       37.3031        0.1184       61.8425       61.9609      24.657818       0.42059
  27     28.12       37.3348        0.1436       61.6278       61.7714      24.436615       0.37603
  26     33.73       37.3622        0.1717       61.4177       61.5894      24.227184       0.31488
  25     40.54       37.3859        0.2056       61.1983       61.4039      24.018013       0.25950
  24     48.69       37.4054        0.2464       60.9680       61.2144      23.809049       0.21625
  23     57.69       37.4179        0.2912       60.7478       61.0390      23.621075       0.17620
  22     68.43       37.4234        0.3445       60.5202       60.8647      23.441306       0.14132
  21     81.20       37.4168        0.4079       60.2938       60.7017      23.284969       0.10330
  20     96.49       37.3969        0.4835       60.0643       60.5477      23.150876       0.07401
  19     114.6       37.3728        0.5737       59.8078       60.3815      23.008653       0.06641
  18     136.5       37.3391        0.6803       59.5158       60.1961      22.857032       0.05830
  17     162.9       37.2943        0.8071       59.1773       59.9844      22.690124       0.05335
  16     196.4       37.2261        0.9710       58.7611       59.7321      22.506065       0.04633
  15     218.7       37.1778        1.0784       58.4958       59.5742      22.396442       0.04162
  14     243.0       37.1239        1.1948       58.2104       59.4053      22.281409       0.03990
  13     269.0       37.0642        1.3208       57.9039       59.2247      22.160516       0.03922
  12     297.5       36.9988        1.4566       57.5736       59.0302      22.031331       0.03832
  11     328.5       36.9286        1.6029       57.2160       58.8189      21.890383       0.03832
  10     361.9       36.8537        1.7600       56.8288       58.5888      21.735088       0.03929
   9     398.1       36.7746        1.9285       56.4074       58.3359      21.561237       0.04050
   8     437.6       36.6928        2.1088       55.9445       58.0533      21.360554       0.04291
   7     480.5       36.6093        2.3011       55.4356       57.7367      21.127401       0.04579
   6     533.0       36.5149        2.5365       54.7850       57.3215      20.806527       0.05162
   5     589.8       36.4285        2.7879       54.0438       56.8318      20.403334       0.05985
   4     651.6       36.3662        3.0548       53.1687       56.2234      19.857183       0.07469
   3     718.7       30.2963       39.2556       10.2780       49.5336      19.237328       0.07790
   2     792.3       26.1234       42.7195        1.9797       44.6992      18.575835       0.07587
   1     891.5       19.1804       36.8937        0.0146       36.9083      17.727920       0.07215
   0    1013.0       19.4113       36.0465        0.0140       36.0604      16.649100       0.07491



 Wavenumbers: 16000. - 22650. cm-1, ATM      1
 LEVEL PRESSURE   UPWARD FLUX   DIFDOWN FLUX  DIRDOWN FLUX  DOWNWARD FLUX   NET FLUX    HEATING RATE
          mb          W/m2          W/m2          W/m2        W/m2          W/m2       degree/day
  51    .06700       77.0320        0.0000      100.7153      100.7153      23.683297       0.00000
  50    .07753       77.0319        0.0003      100.7147      100.7151      23.683179       0.09451
  49    .09103       77.0317        0.0007      100.7140      100.7147      23.683008       0.10720
  48    0.1069       77.0316        0.0012      100.7131      100.7143      23.682778       0.12224
  47    0.1255       77.0314        0.0018      100.7121      100.7139      23.682471       0.13934
  46    0.1487       77.0312        0.0024      100.7108      100.7132      23.682018       0.16511
  45    0.1794       77.0309        0.0034      100.7089      100.7123      23.681310       0.19441
  44    0.2165       77.0307        0.0045      100.7066      100.7110      23.680349       0.21849
  43    0.2613       77.0304        0.0058      100.7037      100.7095      23.679046       0.24563
  42    0.3336       77.0301        0.0080      100.6987      100.7067      23.676569       0.28885
  41    0.4307       77.0298        0.0109      100.6918      100.7026      23.672834       0.32469
  40    0.5894       77.0296        0.0156      100.6797      100.6953      23.665713       0.37873
  39     1.339       77.0343        0.0379      100.6095      100.6474      23.613107       0.59225
  38     1.782       77.0411        0.0510      100.5585      100.6094      23.568306       0.85293
  37     2.292       77.0529        0.0661      100.4903      100.5563      23.503477       1.07373
  36     2.964       77.0742        0.0860      100.3868      100.4727      23.398503       1.31775
  35     3.853       77.1107        0.1122      100.2306      100.3428      23.232053       1.57964
  34     5.035       77.1674        0.1469      100.0045      100.1514      22.983990       1.77206
  33     6.613       77.2474        0.1933       99.6939       99.8872      22.639779       1.84015
  32     8.786       77.3509        0.2556       99.2881       99.5436      22.192793       1.73593
  31     11.80       77.4829        0.3444       98.7496       99.0940      21.611148       1.62842
  30     15.07       77.6060        0.4395       98.2198       98.6593      21.053301       1.44025
  29     18.79       77.7283        0.5465       97.6651       98.2116      20.483282       1.29241
  28     23.16       77.8519        0.6710       97.0671       97.7382      19.886240       1.15449
  27     28.12       77.9707        0.8129       96.4406       97.2534      19.282758       1.02588
  26     33.73       78.0712        0.9711       95.8179       96.7890      18.717803       0.84942
  25     40.54       78.1551        1.1616       95.1548       96.3164      18.161299       0.69041
  24     48.69       78.2201        1.3904       94.4420       95.8324      17.612275       0.56815
  23     57.69       78.2564        1.6407       93.7416       95.3823      17.125836       0.45596
  22     68.43       78.2621        1.9375       92.9954       94.9329      16.670766       0.35775
  21     81.20       78.2174        2.2898       92.2231       94.5130      16.295610       0.24790
  20     96.49       78.1165        2.7077       91.4110       94.1187      16.002199       0.16194
  19     114.6       77.9733        3.2005       90.5070       93.7075      15.734214       0.12513
  18     136.5       77.7883        3.7797       89.4803       93.2599      15.471575       0.10099
  17     162.9       77.5551        4.4625       88.3023       92.7647      15.209600       0.08374
  16     196.4       77.2233        5.3377       86.8607       92.1985      14.975147       0.05901
  15     218.7       76.9956        5.9063       85.9494       91.8557      14.860145       0.04366
  14     243.0       76.7443        6.5188       84.9792       91.4980      14.753692       0.03692
  13     269.0       76.4684        7.1760       83.9498       91.1259      14.657526       0.03120
  12     297.5       76.1672        7.8789       82.8601       90.7390      14.571847       0.02541
  11     328.5       75.8419        8.6298       81.7009       90.3307      14.488744       0.02260
  10     361.9       75.4925        9.4284       80.4725       89.9009      14.408304       0.02035
   9     398.1       75.1181       10.2766       79.1714       89.4480      14.329844       0.01828
   8     437.6       74.7190       11.1747       77.7953       88.9700      14.251041       0.01685
   7     480.5       74.2947       12.1230       76.3434       88.4664      14.171677       0.01559
   6     533.0       73.7786       13.2701       74.5859       87.8560      14.077401       0.01517
   5     589.8       73.2315       14.4823       72.7227       87.2050      13.973457       0.01543
   4     651.6       72.6571       15.7578       70.7478       86.5055      13.848439       0.01710
   3     718.7       64.9370       64.9158       13.7277       78.6436      13.706553       0.01783
   2     792.3       59.6976       70.5853        2.6565       73.2419      13.544279       0.01861
   1     891.5       51.8134       65.0979        0.0203       65.1182      13.304777       0.02038
   0    1013.0       51.6804       64.6298        0.0192       64.6490      12.968593       0.02334



 Wavenumbers: 22650. - 29000. cm-1, ATM      1
 LEVEL PRESSURE   UPWARD FLUX   DIFDOWN FLUX  DIRDOWN FLUX  DOWNWARD FLUX   NET FLUX    HEATING RATE
          mb          W/m2          W/m2          W/m2        W/m2          W/m2       degree/day
  51    .06700       34.6185        0.0000       38.0063       38.0063       3.387799       0.00000
  50    .07753       34.6183        0.0004       38.0057       38.0061       3.387799       0.00000
  49    .09103       34.6181        0.0009       38.0050       38.0059       3.387799       0.00000
  48    0.1069       34.6179        0.0014       38.0042       38.0057       3.387799       0.00000
  47    0.1255       34.6176        0.0021       38.0033       38.0054       3.387799      -0.00000
  46    0.1487       34.6173        0.0029       38.0022       38.0051       3.387799       0.00000
  45    0.1794       34.6168        0.0040       38.0006       38.0046       3.387799      -0.00000
  44    0.2165       34.6162        0.0053       37.9987       38.0040       3.387799      -0.00000
  43    0.2613       34.6156        0.0068       37.9965       38.0034       3.387799       0.00000
  42    0.3336       34.6145        0.0094       37.9928       38.0023       3.387799       0.00000
  41    0.4307       34.6130        0.0128       37.9880       38.0008       3.387799       0.00000
  40    0.5894       34.6106        0.0184       37.9800       37.9984       3.387799       0.00000
  39     1.339       34.5993        0.0447       37.9425       37.9871       3.387799       0.00000
  38     1.782       34.5927        0.0601       37.9204       37.9805       3.387799      -0.00000
  37     2.292       34.5851        0.0779       37.8949       37.9729       3.387799       0.00000
  36     2.964       34.5750        0.1014       37.8614       37.9628       3.387799      -0.00000
  35     3.853       34.5617        0.1323       37.8172       37.9495       3.387799       0.00000
  34     5.035       34.5441        0.1733       37.7586       37.9319       3.387799       0.00000
  33     6.613       34.5206        0.2281       37.6803       37.9084       3.387799      -0.00000
  32     8.786       34.4890        0.3017       37.5750       37.8768       3.387799       0.00000
  31     11.80       34.4439        0.4068       37.4249       37.8317       3.387799      -0.00000
  30     15.07       34.3956        0.5192       37.2642       37.7834       3.387799       0.00000
  29     18.79       34.3412        0.6457       37.0833       37.7290       3.387799       0.00000
  28     23.16       34.2779        0.7927       36.8730       37.6657       3.387799      -0.00000
  27     28.12       34.2060        0.9600       36.6338       37.5938       3.387799       0.00000
  26     33.73       34.1258        1.1460       36.3677       37.5136       3.387799       0.00000
  25     40.54       34.0297        1.3690       36.0486       37.4175       3.387799      -0.00000
  24     48.69       33.9148        1.6353       35.6672       37.3026       3.387799       0.00000
  23     57.69       33.7897        1.9248       35.2527       37.1775       3.387799       0.00000
  22     68.43       33.6424        2.2653       34.7649       37.0302       3.387799      -0.00000
  21     81.20       33.4692        2.6648       34.1922       36.8570       3.387799       0.00000
  20     96.49       33.2662        3.1323       33.5217       36.6540       3.387799       0.00000
  19     114.6       33.0298        3.6753       32.7424       36.4176       3.387799      -0.00000
  18     136.5       32.7560        4.3022       31.8416       36.1438       3.387799       0.00000
  17     162.9       32.4389        5.0259       30.8008       35.8267       3.387799      -0.00000
  16     196.4       32.0413        5.9285       29.5007       35.4291       3.387799       0.00000
  15     218.7       31.7886        6.4997       28.6767       35.1764       3.387799       0.00000
  14     243.0       31.5210        7.1020       27.8068       34.9088       3.387799      -0.00000
  13     269.0       31.2392        7.7336       26.8934       34.6270       3.387799      -0.00000
  12     297.5       30.9438        8.3922       25.9394       34.3316       3.387799       0.00000
  11     328.5       30.6348        9.0772       24.9454       34.0226       3.387799      -0.00000
  10     361.9       30.3137        9.7849       23.9166       33.7015       3.387799       0.00000
   9     398.1       29.9807       10.5134       22.8551       33.3685       3.387799      -0.00000
   8     437.6       29.6373       11.2585       21.7666       33.0251       3.387799      -0.00000
   7     480.5       29.2845       12.0172       20.6551       32.6723       3.387799      -0.00000
   6     533.0       28.8711       12.8964       19.3625       32.2589       3.387799       0.00000
   5     589.8       28.4493       13.7814       18.0557       31.8371       3.387799       0.00000
   4     651.6       28.0207       14.6671       16.7414       31.4085       3.387799       0.00000
   3     718.7       26.0035       26.2688        3.1225       29.3913       3.387799      -0.00000
   2     792.3       24.6544       27.4636        0.5786       28.0422       3.387799       0.00000
   1     891.5       22.7742       26.1577        0.0043       26.1620       3.387799      -0.00000
   0    1013.0       22.5923       25.9764        0.0037       25.9801       3.387799       0.00000



 Wavenumbers: 29000. - 38000. cm-1, ATM      1
 LEVEL PRESSURE   UPWARD FLUX   DIFDOWN FLUX  DIRDOWN FLUX  DOWNWARD FLUX   NET FLUX    HEATING RATE
          mb          W/m2          W/m2          W/m2        W/m2          W/m2       degree/day
  51    .06700        4.9128        0.0000       13.4026       13.4026       8.489822       0.00000
  50    .07753        4.9126        0.0003       13.3983       13.3986       8.486024       3.04441
  49    .09103        4.9123        0.0007       13.3921       13.3928       8.480505       3.44969
  48    0.1069        4.9120        0.0011       13.3840       13.3851       8.473128       3.92679
  47    0.1255        4.9116        0.0016       13.3733       13.3749       8.463283       4.46321
  46    0.1487        4.9112        0.0022       13.3579       13.3600       8.448841       5.26442
  45    0.1794        4.9106        0.0030       13.3340       13.3371       8.426441       6.14931
  44    0.2165        4.9100        0.0040       13.3024       13.3064       8.396422       6.82882
  43    0.2613        4.9092        0.0052       13.2604       13.2656       8.356367       7.55017
  42    0.3336        4.9080        0.0070       13.1833       13.1903       8.282360       8.62849
  41    0.4307        4.9064        0.0095       13.0729       13.0824       8.175987       9.24888
  40    0.5894        4.9040        0.0134       12.8796       12.8930       7.988942       9.94681
  39     1.339        4.8956        0.0297       11.9165       11.9462       7.050591      10.56412
  38     1.782        4.8923        0.0380       11.4399       11.4779       6.585600       8.85268
  37     2.292        4.8898        0.0469       10.9796       11.0265       6.136653       7.43574
  36     2.964        4.8884        0.0578       10.4786       10.5364       5.647997       6.13411
  35     3.853        4.8891        0.0713        9.9429       10.0142       5.125096       4.96243
  34     5.035        4.8925        0.0881        9.4007        9.4888       4.596295       3.77754
  33     6.613        4.8989        0.1095        8.8752        8.9847       4.085803       2.72909
  32     8.786        4.9077        0.1370        8.3786        8.5156       3.607935       1.85587
  31     11.80        4.9184        0.1748        7.8897        8.0645       3.146098       1.29300
  30     15.07        4.9276        0.2138        7.5108        7.7246       2.797002       0.90130
  29     18.79        4.9362        0.2563        7.1776        7.4339       2.497728       0.67855
  28     23.16        4.9441        0.3042        6.8664        7.1706       2.226549       0.52437
  27     28.12        4.9504        0.3571        6.5780        6.9351       1.984697       0.41113
  26     33.73        4.9529        0.4148        6.3195        6.7342       1.781371       0.30571
  25     40.54        4.9502        0.4828        6.0663        6.5490       1.598853       0.22643
  24     48.69        4.9418        0.5624        5.8128        6.3753       1.433449       0.17117
  23     57.69        4.9278        0.6475        5.5777        6.2252       1.297404       0.12752
  22     68.43        4.9058        0.7459        5.3379        6.0838       1.178035       0.09384
  21     81.20        4.8715        0.8602        5.0965        5.9566       1.085092       0.06142
  20     96.49        4.8238        0.9921        4.8476        5.8397       1.015856       0.03821
  19     114.6        4.7658        1.1415        4.5799        5.7214       0.955570       0.02815
  18     136.5        4.6986        1.3085        4.2891        5.5976       0.899041       0.02174
  17     162.9        4.6217        1.4937        3.9732        5.4669       0.845128       0.01723
  16     196.4        4.5244        1.7154        3.6080        5.3235       0.799019       0.01161
  15     218.7        4.4631        1.8504        3.3898        5.2402       0.777057       0.00834
  14     243.0        4.3993        1.9879        3.1686        5.1565       0.757128       0.00691
  13     269.0        4.3334        2.1269        2.9461        5.0730       0.739543       0.00570
  12     297.5        4.2658        2.2662        2.7239        4.9901       0.724323       0.00451
  11     328.5        4.1972        2.4044        2.5029        4.9073       0.710020       0.00389
  10     361.9        4.1282        2.5403        2.2846        4.8249       0.696656       0.00338
   9     398.1        4.0592        2.6726        2.0708        4.7434       0.684225       0.00290
   8     437.6        3.9906        2.8000        1.8631        4.6631       0.672464       0.00251
   7     480.5        3.9227        2.9216        1.6626        4.5842       0.661496       0.00215
   6     533.0        3.8467        3.0519        1.4445        4.4964       0.649766       0.00189
   5     589.8        3.7728        3.1712        1.2402        4.4114       0.638631       0.00165
   4     651.6        3.7017        3.2782        1.0514        4.3296       0.627939       0.00146
   3     718.7        3.5229        3.9613        0.1795        4.1407       0.617836       0.00127
   2     792.3        3.3982        3.9764        0.0302        4.0066       0.608425       0.00108
   1     891.5        3.2127        3.8098        0.0002        3.8100       0.597277       0.00095
   0    1013.0        3.1700        3.7553        0.0001        3.7555       0.585477       0.00082



 Wavenumbers: 38000. - 50000. cm-1, ATM      1
 LEVEL PRESSURE   UPWARD FLUX   DIFDOWN FLUX  DIRDOWN FLUX  DOWNWARD FLUX   NET FLUX    HEATING RATE
          mb          W/m2          W/m2          W/m2        W/m2          W/m2       degree/day
  51    .06700        0.0051        0.0000        0.8267        0.8267       0.821528       0.00000
  50    .07753        0.0051        0.0001        0.8242        0.8243       0.819196       1.86936
  49    .09103        0.0050        0.0002        0.8207        0.8209       0.815872       2.07705
  48    0.1069        0.0049        0.0002        0.8162        0.8164       0.811514       2.31984
  47    0.1255        0.0048        0.0004        0.8103        0.8106       0.805801       2.59006
  46    0.1487        0.0047        0.0005        0.8018        0.8023       0.797567       3.00143
  45    0.1794        0.0045        0.0007        0.7889        0.7896       0.785013       3.44648
  44    0.2165        0.0044        0.0009        0.7720        0.7729       0.768507       3.75474
  43    0.2613        0.0042        0.0011        0.7500        0.7511       0.746955       4.06246
  42    0.3336        0.0039        0.0015        0.7106        0.7121       0.708267       4.51071
  41    0.4307        0.0035        0.0019        0.6566        0.6584       0.654972       4.63387
  40    0.5894        0.0029        0.0024        0.5680        0.5704       0.567464       4.65357
  39     1.339        0.0015        0.0030        0.2422        0.2452       0.243720       3.64476
  38     1.782        0.0010        0.0026        0.1493        0.1519       0.150889       1.76735
  37     2.292        0.0007        0.0022        0.0924        0.0946       0.093932       0.94336
  36     2.964        0.0005        0.0018        0.0539        0.0557       0.055224       0.48589
  35     3.853        0.0003        0.0013        0.0295        0.0308       0.030502       0.23462
  34     5.035        0.0002        0.0010        0.0154        0.0164       0.016181       0.10230
  33     6.613        0.0001        0.0007        0.0073        0.0080       0.007912       0.04420
  32     8.786        0.0000        0.0004        0.0030        0.0034       0.003390       0.01756
  31     11.80        0.0000        0.0003        0.0010        0.0012       0.001199       0.00613
  30     15.07        0.0000        0.0001        0.0003        0.0005       0.000463       0.00190
  29     18.79        0.0000        0.0001        0.0001        0.0002       0.000182       0.00064
  28     23.16        0.0000        0.0000        0.0000        0.0001       0.000071       0.00022
  27     28.12        0.0000        0.0000        0.0000        0.0000       0.000028       0.00007
  26     33.73        0.0000        0.0000        0.0000        0.0000       0.000011       0.00002
  25     40.54        0.0000        0.0000        0.0000        0.0000       0.000005       0.00001
  24     48.69        0.0000        0.0000        0.0000        0.0000       0.000002       0.00000
  23     57.69        0.0000        0.0000        0.0000        0.0000       0.000001       0.00000
  22     68.43        0.0000        0.0000        0.0000        0.0000       0.000000       0.00000
  21     81.20        0.0000        0.0000        0.0000        0.0000       0.000000       0.00000
  20     96.49        0.0000        0.0000        0.0000        0.0000       0.000000       0.00000
  19     114.6        0.0000        0.0000        0.0000        0.0000       0.000000       0.00000
  18     136.5        0.0000        0.0000        0.0000        0.0000       0.000000       0.00000
  17     162.9        0.0000        0.0000        0.0000        0.0000       0.000000       0.00000
  16     196.4        0.0000        0.0000        0.0000        0.0000       0.000000       0.00000
  15     218.7        0.0000        0.0000        0.0000        0.0000       0.000000       0.00000
  14     243.0        0.0000        0.0000        0.0000        0.0000       0.000000       0.00000
  13     269.0        0.0000        0.0000        0.0000        0.0000       0.000000       0.00000
  12     297.5        0.0000        0.0000        0.0000        0.0000       0.000000       0.00000
  11     328.5        0.0000        0.0000        0.0000        0.0000       0.000000       0.00000
  10     361.9        0.0000        0.0000        0.0000        0.0000       0.000000       0.00000
   9     398.1        0.0000        0.0000        0.0000        0.0000       0.000000       0.00000
   8     437.6        0.0000        0.0000        0.0000        0.0000       0.000000       0.00000
   7     480.5        0.0000        0.0000        0.0000        0.0000       0.000000       0.00000
   6     533.0        0.0000        0.0000        0.0000        0.0000       0.000000       0.00000
   5     589.8        0.0000        0.0000        0.0000        0.0000       0.000000       0.00000
   4     651.6        0.0000        0.0000        0.0000        0.0000       0.000000       0.00000
   3     718.7        0.0000        0.0000        0.0000        0.0000       0.000000       0.00000
   2     792.3        0.0000        0.0000        0.0000        0.0000       0.000000       0.00000
   1     891.5        0.0000        0.0000        0.0000        0.0000       0.000000       0.00000
   0    1013.0        0.0000        0.0000        0.0000        0.0000       0.000000       0.00000



 Wavenumbers:   820. -  2600. cm-1, ATM      1
 LEVEL PRESSURE   UPWARD FLUX   DIFDOWN FLUX  DIRDOWN FLUX  DOWNWARD FLUX   NET FLUX    HEATING RATE
          mb          W/m2          W/m2          W/m2        W/m2          W/m2       degree/day
  51    .06700        0.1797        0.0000        3.8670        3.8670       3.687360       0.00000
  50    .07753        0.1797        0.0000        3.8643        3.8643       3.684633       2.18510
  49    .09103        0.1797        0.0000        3.8635        3.8635       3.683811       0.51377
  48    0.1069        0.1797        0.0000        3.8626        3.8626       3.682907       0.48158
  47    0.1255        0.1797        0.0000        3.8616        3.8616       3.681929       0.44311
  46    0.1487        0.1797        0.0000        3.8605        3.8605       3.680798       0.41229
  45    0.1794        0.1797        0.0000        3.8591        3.8591       3.679433       0.37467
  44    0.2165        0.1797        0.0000        3.8577        3.8577       3.678020       0.32152
  43    0.2613        0.1797        0.0000        3.8562        3.8562       3.676516       0.28349
  42    0.3336        0.1797        0.0000        3.8539        3.8539       3.674210       0.26887
  41    0.4307        0.1797        0.0000        3.8509        3.8509       3.671234       0.25879
  40    0.5894        0.1797        0.0000        3.8460        3.8460       3.666350       0.25969
  39     1.339        0.1797        0.0000        3.8240        3.8240       3.644329       0.24791
  38     1.782        0.1797        0.0000        3.8119        3.8119       3.632211       0.23072
  37     2.292        0.1797        0.0000        3.7986        3.7986       3.618893       0.22058
  36     2.964        0.1797        0.0000        3.7823        3.7823       3.602600       0.20452
  35     3.853        0.1797        0.0000        3.7623        3.7623       3.582669       0.18915
  34     5.035        0.1797        0.0000        3.7378        3.7378       3.558152       0.17514
  33     6.613        0.1797        0.0000        3.7076        3.7076       3.527910       0.16167
  32     8.786        0.1797        0.0000        3.6716        3.6716       3.491914       0.13980
  31     11.80        0.1797        0.0000        3.6316        3.6316       3.451899       0.11203
  30     15.07        0.1797        0.0000        3.6017        3.6017       3.422067       0.07702
  29     18.79        0.1797        0.0000        3.5785        3.5785       3.398830       0.05269
  28     23.16        0.1797        0.0000        3.5580        3.5581       3.378364       0.03957
  27     28.12        0.1797        0.0000        3.5377        3.5377       3.357987       0.03464
  26     33.73        0.1797        0.0000        3.5162        3.5162       3.336510       0.03229
  25     40.54        0.1797        0.0000        3.4913        3.4914       3.311641       0.03085
  24     48.69        0.1797        0.0000        3.4628        3.4628       3.283075       0.02956
  23     57.69        0.1797        0.0000        3.4327        3.4327       3.252999       0.02819
  22     68.43        0.1797        0.0000        3.3986        3.3986       3.218882       0.02682
  21     81.20        0.1798        0.0000        3.3606        3.3606       3.180842       0.02514
  20     96.49        0.1798        0.0000        3.3183        3.3183       3.138522       0.02336
  19     114.6        0.1798        0.0000        3.2715        3.2715       3.091660       0.02188
  18     136.5        0.1798        0.0000        3.2206        3.2206       3.040788       0.01956
  17     162.9        0.1799        0.0000        3.1613        3.1613       2.981417       0.01898
  16     196.4        0.1800        0.0000        3.0792        3.0792       2.899209       0.02069
  15     218.7        0.1800        0.0000        3.0115        3.0115       2.831499       0.02571
  14     243.0        0.1802        0.0000        2.9223        2.9223       2.742150       0.03099
  13     269.0        0.1804        0.0000        2.8151        2.8152       2.634795       0.03483
  12     297.5        0.1807        0.0000        2.6710        2.6710       2.490367       0.04284
  11     328.5        0.1811        0.0000        2.4998        2.4998       2.318759       0.04666
  10     361.9        0.1816        0.0000        2.3186        2.3186       2.136967       0.04600
   9     398.1        0.1824        0.0000        2.1555        2.1556       1.973200       0.03815
   8     437.6        0.1833        0.0000        2.0290        2.0290       1.845713       0.02726
   7     480.5        0.1845        0.0000        1.9377        1.9378       1.753296       0.01815
   6     533.0        0.1863        0.0000        1.8432        1.8432       1.656917       0.01550
   5     589.8        0.1891        0.0000        1.7350        1.7350       1.545893       0.01648
   4     651.6        0.1943        0.0000        1.6037        1.6038       1.409480       0.01865
   3     718.7        0.0838        0.5839        0.2145        0.7985       0.714690       0.08732
   2     792.3        0.0394        0.3970        0.0282        0.4252       0.385803       0.03772
   1     891.5        0.0048        0.1024        0.0001        0.1025       0.097644       0.02452
   0    1013.0        0.0058        0.0821        0.0001        0.0821       0.076316       0.00148

  Modules and versions used in this calculation:

       rrtmg_sw.1col.f90:  $Revision$                    rrtmg_sw_init.f90:  $Revision$        
     rrtmgsw_cldprop.f90:  $Revision$                  rrtmgsw_cldprmc.f90:  NOT USED          
     rrtmg_sw_reftra.f90:  $Revision$                  rrtmg_sw_spcvrt.f90:  NOT USED          
     rrtmg_sw_spcvmc.f90:  NOT USED                    rrtmgsw_setcoef.f90:  NOT USED          
     rrtmg_sw_taumol.f90:  $Revision$                  rrtmg_sw_vrtqdr.f90:  NOT USED          
                rrtatm.f:  NOT USED                             util_xxx.f:  NOT USED          
                 extra.f:  NOT USED                       rrtmg_sw_k_g.f90:  $Revision$        

