

 Wavenumbers:   820. - 50000. cm-1, ATM      1
 LEVEL PRESSURE   UPWARD FLUX   DIFDOWN FLUX  DIRDOWN FLUX  DOWNWARD FLUX   NET FLUX    HEATING RATE
          mb          W/m2          W/m2          W/m2        W/m2          W/m2       degree/day
  51    .06700      177.6138        0.0000      397.8738      397.8738     220.259939       0.00000
  50    .07753      177.6132        0.0012      397.8580      397.8591     220.245881      11.26793
  49    .09103      177.6125        0.0026      397.8425      397.8451     220.232602       8.29964
  48    0.1069      177.6116        0.0043      397.8240      397.8283     220.216688       8.47108
  47    0.1255      177.6106        0.0062      397.8011      397.8073     220.196698       9.06231
  46    0.1487      177.6094        0.0086      397.7696      397.7782     220.168804      10.16793
  45    0.1794      177.6079        0.0119      397.7232      397.7351     220.127231      11.41269
  44    0.2165      177.6061        0.0158      397.6637      397.6794     220.073374      12.25158
  43    0.2613      177.6040        0.0203      397.5872      397.6076     220.003542      13.16304
  42    0.3336      177.6008        0.0279      397.4508      397.4787     219.877836      14.65610
  41    0.4307      177.5969        0.0377      397.2603      397.2980     219.701117      15.36527
  40    0.5894      177.5910        0.0536      396.9365      396.9900     219.399036      16.06429
  39     1.339      177.5740        0.1244      395.4501      395.5745     218.000531      15.74462
  38     1.782      177.5711        0.1641      394.7603      394.9244     217.353280      12.32261
  37     2.292      177.5742        0.2093      394.0951      394.3044     216.730210      10.31968
  36     2.964      177.5550        0.3496      382.0429      382.3926     204.837541     149.28894
  35     3.853      177.5736        0.4554      379.9903      380.4457     202.872122      18.65219
  34     5.035      177.6204        0.5692      378.4675      379.0367     201.416382      10.39920
  33     6.613      177.6938        0.7085      377.0813      377.7899     200.096038       7.05856
  32     8.786      177.7898        0.8894      375.6893      376.5787     198.788932       5.07632
  31     11.80      177.9070        1.1434      374.1274      375.2708     197.363798       3.98993
  30     15.07      178.0086        1.4129      372.7321      374.1449     196.136333       3.16907
  29     18.79      178.1017        1.7145      371.3499      373.0644     194.962655       2.66109
  28     23.16      178.1854        2.0637      369.9046      371.9683     193.782881       2.28130
  27     28.12      178.2516        2.4597      368.4182      370.8779     192.626307       1.96610
  26     33.73      178.2824        2.8996      366.9425      369.8421     191.559733       1.60362
  25     40.54      178.2693        3.4271      365.3539      368.7810     190.511638       1.30028
  24     48.69      178.2058        4.0575      363.6156      367.6731     189.467320       1.08070
  23     57.69      178.0901        4.7432      361.8685      366.6117     188.521612       0.88646
  22     68.43      177.9033        5.5516      359.9578      365.5094     187.606132       0.71969
  21     81.20      177.6127        6.5043      357.9003      364.4046     186.791843       0.53807
  20     96.49      177.2053        7.6249      355.6560      363.2810     186.075644       0.39529
  19     114.6      176.7048        8.9332      352.7946      361.7278     185.022989       0.49152
  18     136.5      176.0991       10.4520      349.6762      360.1283     184.029143       0.38216
  17     162.9      175.3716       12.2176      346.1961      358.4137     183.042076       0.31551
  16     196.4      174.4049       14.4425      341.9890      356.4315     182.026529       0.25563
  15     218.7      173.7675       15.8646      339.3607      355.2253     181.457865       0.21590
  14     243.0      173.0791       17.3771      336.5898      353.9669     180.887777       0.19773
  13     269.0      172.3392       18.9783      333.6620      352.6403     180.301146       0.19030
  12     297.5      171.5481       20.6662      330.5214      351.1876     179.639554       0.19622
  11     328.5      170.7085       22.4422      327.0492      349.4914     178.782960       0.23291
  10     361.9      169.8229       24.3008      323.1244      347.4252     177.602324       0.29871
   9     398.1      168.8918       26.2419      318.6168      344.8587     175.966951       0.38101
   8     437.6      167.9194       28.2601      313.3951      341.6553     173.735878       0.47702
   7     480.5      166.9098       30.3512      307.3393      337.6905     170.780668       0.58039
   6     533.0      165.7185       32.8271      299.3415      332.1686     166.450127       0.69665
   5     589.8      164.5009       35.3813      290.5746      325.9559     161.455043       0.74143
   4     651.6      163.2737       38.0038      281.3238      319.3275     156.053787       0.73864
   3     718.7      162.0604       40.6842      271.7360      312.4202     150.359790       0.71558
   2     792.3      160.8996       43.4061      261.8533      305.2594     144.359821       0.68813
   1     891.5      159.5918       46.8551      249.1956      296.0508     136.459016       0.67232
   0    1013.0      158.5334       50.6826      234.8479      285.5304     126.997094       0.65699



 Wavenumbers:  2600. -  3250. cm-1, ATM      1
 LEVEL PRESSURE   UPWARD FLUX   DIFDOWN FLUX  DIRDOWN FLUX  DOWNWARD FLUX   NET FLUX    HEATING RATE
          mb          W/m2          W/m2          W/m2        W/m2          W/m2       degree/day
  51    .06700        0.3200        0.0000        3.5066        3.5066       3.186663       0.00000
  50    .07753        0.3200        0.0000        3.5066        3.5066       3.186655       0.00640
  49    .09103        0.3200        0.0000        3.5066        3.5066       3.186645       0.00627
  48    0.1069        0.3200        0.0000        3.5066        3.5066       3.186634       0.00613
  47    0.1255        0.3200        0.0000        3.5066        3.5066       3.186621       0.00599
  46    0.1487        0.3200        0.0000        3.5066        3.5066       3.186604       0.00607
  45    0.1794        0.3200        0.0000        3.5065        3.5065       3.186581       0.00624
  44    0.2165        0.3200        0.0000        3.5065        3.5065       3.186554       0.00611
  43    0.2613        0.3200        0.0000        3.5065        3.5065       3.186523       0.00598
  42    0.3336        0.3200        0.0000        3.5064        3.5064       3.186470       0.00615
  41    0.4307        0.3200        0.0000        3.5064        3.5064       3.186399       0.00617
  40    0.5894        0.3200        0.0000        3.5062        3.5062       3.186280       0.00633
  39     1.339        0.3200        0.0000        3.5055        3.5055       3.185581       0.00787
  38     1.782        0.3200        0.0000        3.5050        3.5050       3.185050       0.01010
  37     2.292        0.3200        0.0000        3.5043        3.5043       3.184358       0.01147
  36     2.964        0.3200        0.0000        3.5033        3.5033       3.183368       0.01243
  35     3.853        0.3200        0.0000        3.5019        3.5019       3.181990       0.01307
  34     5.035        0.3200        0.0000        3.5001        3.5001       3.180127       0.01331
  33     6.613        0.3200        0.0000        3.4977        3.4977       3.177714       0.01290
  32     8.786        0.3200        0.0000        3.4947        3.4947       3.174735       0.01157
  31     11.80        0.3200        0.0000        3.4910        3.4910       3.171092       0.01020
  30     15.07        0.3200        0.0000        3.4878        3.4878       3.167862       0.00834
  29     18.79        0.3200        0.0000        3.4847        3.4847       3.164784       0.00698
  28     23.16        0.3200        0.0000        3.4815        3.4815       3.161542       0.00627
  27     28.12        0.3200        0.0000        3.4778        3.4779       3.157898       0.00619
  26     33.73        0.3200        0.0000        3.4733        3.4734       3.153403       0.00676
  25     40.54        0.3200        0.0000        3.4670        3.4670       3.147042       0.00789
  24     48.69        0.3200        0.0000        3.4580        3.4580       3.138085       0.00927
  23     57.69        0.3200        0.0000        3.4469        3.4469       3.126945       0.01044
  22     68.43        0.3200        0.0000        3.4324        3.4325       3.112511       0.01135
  21     81.20        0.3200        0.0000        3.4145        3.4146       3.094583       0.01185
  20     96.49        0.3200        0.0000        3.3932        3.3932       3.073235       0.01178
  19     114.6        0.3201        0.0000        3.3441        3.3442       3.024105       0.02294
  18     136.5        0.3201        0.0001        3.3013        3.3014       2.981227       0.01649
  17     162.9        0.3203        0.0001        3.2635        3.2636       2.943310       0.01212
  16     196.4        0.3204        0.0001        3.2264        3.2265       2.906068       0.00937
  15     218.7        0.3206        0.0001        3.2059        3.2060       2.885463       0.00782
  14     243.0        0.3207        0.0001        3.1854        3.1855       2.864833       0.00716
  13     269.0        0.3209        0.0001        3.1638        3.1639       2.843086       0.00705
  12     297.5        0.3211        0.0001        3.1389        3.1390       2.817916       0.00747
  11     328.5        0.3213        0.0001        3.1068        3.1069       2.785534       0.00880
  10     361.9        0.3217        0.0001        3.0641        3.0642       2.742449       0.01090
   9     398.1        0.3223        0.0001        3.0071        3.0073       2.684967       0.01339
   8     437.6        0.3231        0.0001        2.9315        2.9317       2.608614       0.01632
   7     480.5        0.3242        0.0002        2.8330        2.8331       2.508958       0.01957
   6     533.0        0.3260        0.0002        2.6912        2.6914       2.365433       0.02309
   5     589.8        0.3286        0.0002        2.5303        2.5305       2.201895       0.02427
   4     651.6        0.3324        0.0002        2.3623        2.3625       2.030086       0.02350
   3     718.7        0.3379        0.0002        2.1888        2.1890       1.851127       0.02249
   2     792.3        0.3457        0.0002        2.0066        2.0068       1.661049       0.02180
   1     891.5        0.3604        0.0002        1.7737        1.7739       1.413470       0.02107
   0    1013.0        0.3879        0.0002        1.5204        1.5206       1.132729       0.01949



 Wavenumbers:  3250. -  4000. cm-1, ATM      1
 LEVEL PRESSURE   UPWARD FLUX   DIFDOWN FLUX  DIRDOWN FLUX  DOWNWARD FLUX   NET FLUX    HEATING RATE
          mb          W/m2          W/m2          W/m2        W/m2          W/m2       degree/day
  51    .06700        0.0101        0.0000        5.9117        5.9117       5.901547       0.00000
  50    .07753        0.0101        0.0000        5.9075        5.9075       5.897384       3.33612
  49    .09103        0.0101        0.0000        5.9052        5.9052       5.895095       1.43071
  48    0.1069        0.0101        0.0000        5.9035        5.9035       5.893382       0.91191
  47    0.1255        0.0101        0.0000        5.9019        5.9019       5.891762       0.73438
  46    0.1487        0.0101        0.0000        5.9001        5.9001       5.890027       0.63248
  45    0.1794        0.0101        0.0000        5.8982        5.8982       5.888050       0.54263
  44    0.2165        0.0101        0.0000        5.8962        5.8962       5.886102       0.44317
  43    0.2613        0.0101        0.0000        5.8943        5.8943       5.884153       0.36742
  42    0.3336        0.0101        0.0000        5.8915        5.8915       5.881397       0.32131
  41    0.4307        0.0101        0.0000        5.8881        5.8881       5.878024       0.29332
  40    0.5894        0.0101        0.0000        5.8830        5.8830       5.872917       0.27154
  39     1.339        0.0101        0.0000        5.8641        5.8641       5.853998       0.21300
  38     1.782        0.0101        0.0000        5.8561        5.8561       5.846007       0.15212
  37     2.292        0.0101        0.0000        5.8483        5.8483       5.838221       0.12897
  36     2.964        0.0101        0.0000        3.3799        3.3799       3.369797      30.98617
  35     3.853        0.0102        0.0000        3.0963        3.0963       3.086149       2.69188
  34     5.035        0.0102        0.0000        2.9589        2.9589       2.948687       0.98197
  33     6.613        0.0102        0.0000        2.8774        2.8774       2.867209       0.43558
  32     8.786        0.0102        0.0000        2.8233        2.8233       2.813149       0.20995
  31     11.80        0.0102        0.0000        2.7811        2.7811       2.770946       0.11816
  30     15.07        0.0102        0.0000        2.7524        2.7524       2.742243       0.07411
  29     18.79        0.0102        0.0000        2.7296        2.7296       2.719447       0.05169
  28     23.16        0.0102        0.0000        2.7086        2.7086       2.698421       0.04066
  27     28.12        0.0102        0.0000        2.6895        2.6895       2.679294       0.03251
  26     33.73        0.0102        0.0000        2.6719        2.6719       2.661726       0.02641
  25     40.54        0.0102        0.0000        2.6536        2.6536       2.643412       0.02272
  24     48.69        0.0102        0.0000        2.6324        2.6325       2.622283       0.02187
  23     57.69        0.0102        0.0000        2.6096        2.6096       2.599455       0.02140
  22     68.43        0.0102        0.0000        2.5832        2.5832       2.573074       0.02074
  21     81.20        0.0102        0.0001        2.5528        2.5529       2.542726       0.02005
  20     96.49        0.0102        0.0001        2.5181        2.5182       2.508012       0.01916
  19     114.6        0.0102        0.0001        2.4786        2.4786       2.468485       0.01846
  18     136.5        0.0102        0.0001        2.4346        2.4347       2.424562       0.01689
  17     162.9        0.0101        0.0001        2.3861        2.3862       2.376024       0.01551
  16     196.4        0.0101        0.0001        2.3288        2.3290       2.318823       0.01440
  15     218.7        0.0101        0.0001        2.2942        2.2944       2.284228       0.01313
  14     243.0        0.0101        0.0001        2.2589        2.2590       2.248925       0.01224
  13     269.0        0.0101        0.0002        2.2209        2.2211       2.210974       0.01231
  12     297.5        0.0101        0.0002        2.1730        2.1732       2.163083       0.01420
  11     328.5        0.0101        0.0002        2.1027        2.1029       2.092761       0.01912
  10     361.9        0.0101        0.0002        1.9997        1.9999       1.989807       0.02605
   9     398.1        0.0101        0.0002        1.8612        1.8614       1.851274       0.03228
   8     437.6        0.0102        0.0002        1.6890        1.6892       1.679031       0.03683
   7     480.5        0.0103        0.0002        1.4882        1.4884       1.478038       0.03947
   6     533.0        0.0106        0.0002        1.2348        1.2350       1.224395       0.04080
   5     589.8        0.0112        0.0002        0.9846        0.9848       0.973633       0.03722
   4     651.6        0.0121        0.0002        0.7449        0.7450       0.732933       0.03292
   3     718.7        0.0137        0.0001        0.5261        0.5263       0.512545       0.02770
   2     792.3        0.0167        0.0001        0.3428        0.3429       0.326262       0.02136
   1     891.5        0.0244        0.0001        0.1706        0.1707       0.146235       0.01532
   0    1013.0        0.0490        0.0000        0.0517        0.0517       0.002694       0.00997



 Wavenumbers:  4000. -  4650. cm-1, ATM      1
 LEVEL PRESSURE   UPWARD FLUX   DIFDOWN FLUX  DIRDOWN FLUX  DOWNWARD FLUX   NET FLUX    HEATING RATE
          mb          W/m2          W/m2          W/m2        W/m2          W/m2       degree/day
  51    .06700        0.7160        0.0000        6.9421        6.9421       6.226034       0.00000
  50    .07753        0.7160        0.0000        6.9421        6.9421       6.226033       0.00081
  49    .09103        0.7160        0.0000        6.9421        6.9421       6.226032       0.00079
  48    0.1069        0.7160        0.0000        6.9421        6.9421       6.226031       0.00077
  47    0.1255        0.7160        0.0000        6.9421        6.9421       6.226029       0.00075
  46    0.1487        0.7160        0.0000        6.9421        6.9421       6.226027       0.00077
  45    0.1794        0.7160        0.0000        6.9421        6.9421       6.226024       0.00079
  44    0.2165        0.7160        0.0000        6.9421        6.9421       6.226021       0.00077
  43    0.2613        0.7160        0.0000        6.9421        6.9421       6.226017       0.00075
  42    0.3336        0.7160        0.0000        6.9420        6.9420       6.226010       0.00078
  41    0.4307        0.7160        0.0000        6.9420        6.9420       6.226001       0.00078
  40    0.5894        0.7160        0.0000        6.9420        6.9420       6.225986       0.00080
  39     1.339        0.7160        0.0000        6.9419        6.9419       6.225896       0.00102
  38     1.782        0.7160        0.0000        6.9418        6.9419       6.225825       0.00134
  37     2.292        0.7160        0.0000        6.9418        6.9418       6.225731       0.00157
  36     2.964        0.7160        0.0000        6.9416        6.9416       6.225589       0.00177
  35     3.853        0.7160        0.0000        6.9414        6.9414       6.225380       0.00199
  34     5.035        0.7160        0.0000        6.9411        6.9411       6.225072       0.00220
  33     6.613        0.7160        0.0000        6.9406        6.9406       6.224618       0.00243
  32     8.786        0.7160        0.0000        6.9399        6.9400       6.223948       0.00260
  31     11.80        0.7160        0.0000        6.9388        6.9389       6.222899       0.00294
  30     15.07        0.7160        0.0001        6.9376        6.9377       6.221671       0.00317
  29     18.79        0.7160        0.0001        6.9361        6.9362       6.220191       0.00336
  28     23.16        0.7160        0.0001        6.9342        6.9343       6.218361       0.00354
  27     28.12        0.7159        0.0001        6.9320        6.9321       6.216154       0.00375
  26     33.73        0.7159        0.0001        6.9292        6.9294       6.213445       0.00407
  25     40.54        0.7159        0.0002        6.9255        6.9257       6.209791       0.00453
  24     48.69        0.7159        0.0002        6.9207        6.9208       6.204954       0.00501
  23     57.69        0.7159        0.0002        6.9149        6.9151       6.199255       0.00534
  22     68.43        0.7158        0.0003        6.9078        6.9080       6.192168       0.00557
  21     81.20        0.7158        0.0003        6.8990        6.8993       6.183503       0.00573
  20     96.49        0.7158        0.0004        6.8885        6.8888       6.173028       0.00578
  19     114.6        0.7159        0.0004        6.8607        6.8611       6.145289       0.01295
  18     136.5        0.7159        0.0005        6.8349        6.8354       6.119420       0.00995
  17     162.9        0.7160        0.0006        6.8072        6.8077       6.091707       0.00886
  16     196.4        0.7162        0.0007        6.7731        6.7738       6.057603       0.00858
  15     218.7        0.7163        0.0008        6.7514        6.7522       6.035893       0.00824
  14     243.0        0.7165        0.0009        6.7283        6.7292       6.012719       0.00804
  13     269.0        0.7166        0.0010        6.7032        6.7042       5.987526       0.00817
  12     297.5        0.7169        0.0011        6.6745        6.6756       5.958671       0.00856
  11     328.5        0.7172        0.0012        6.6394        6.6406       5.923340       0.00961
  10     361.9        0.7177        0.0013        6.5947        6.5960       5.878303       0.01139
   9     398.1        0.7184        0.0014        6.5368        6.5382       5.819876       0.01361
   8     437.6        0.7193        0.0015        6.4617        6.4632       5.743913       0.01624
   7     480.5        0.7205        0.0017        6.3671        6.3688       5.648229       0.01879
   6     533.0        0.7224        0.0018        6.2357        6.2375       5.515086       0.02142
   5     589.8        0.7249        0.0020        6.0884        6.0904       5.365466       0.02221
   4     651.6        0.7284        0.0021        5.9223        5.9244       5.196028       0.02317
   3     718.7        0.7332        0.0023        5.7254        5.7277       4.994473       0.02533
   2     792.3        0.7401        0.0024        5.4935        5.4960       4.755896       0.02736
   1     891.5        0.7529        0.0026        5.1765        5.1791       4.426165       0.02806
   0    1013.0        0.7770        0.0028        4.8222        4.8250       4.048014       0.02626



 Wavenumbers:  4650. -  5150. cm-1, ATM      1
 LEVEL PRESSURE   UPWARD FLUX   DIFDOWN FLUX  DIRDOWN FLUX  DOWNWARD FLUX   NET FLUX    HEATING RATE
          mb          W/m2          W/m2          W/m2        W/m2          W/m2       degree/day
  51    .06700        0.5052        0.0000        6.5710        6.5710       6.065796       0.00000
  50    .07753        0.5052        0.0000        6.5708        6.5708       6.065562       0.18709
  49    .09103        0.5052        0.0000        6.5705        6.5705       6.065271       0.18187
  48    0.1069        0.5052        0.0000        6.5701        6.5701       6.064940       0.17635
  47    0.1255        0.5052        0.0000        6.5698        6.5698       6.064563       0.17071
  46    0.1487        0.5052        0.0000        6.5693        6.5693       6.064094       0.17099
  45    0.1794        0.5052        0.0000        6.5687        6.5687       6.063464       0.17300
  44    0.2165        0.5052        0.0000        6.5679        6.5679       6.062733       0.16622
  43    0.2613        0.5052        0.0000        6.5671        6.5671       6.061889       0.15921
  42    0.3336        0.5052        0.0000        6.5657        6.5657       6.060539       0.15739
  41    0.4307        0.5052        0.0000        6.5640        6.5640       6.058829       0.14868
  40    0.5894        0.5052        0.0000        6.5614        6.5614       6.056231       0.13812
  39     1.339        0.5052        0.0000        6.5517        6.5517       6.046526       0.10927
  38     1.782        0.5052        0.0000        6.5475        6.5475       6.042322       0.08003
  37     2.292        0.5052        0.0000        6.5436        6.5436       6.038420       0.06464
  36     2.964        0.5052        0.0000        6.5396        6.5396       6.034416       0.05026
  35     3.853        0.5052        0.0000        6.5355        6.5356       6.030397       0.03814
  34     5.035        0.5052        0.0000        6.5314        6.5315       6.026311       0.02919
  33     6.613        0.5052        0.0000        6.5270        6.5270       6.021844       0.02388
  32     8.786        0.5051        0.0001        6.5214        6.5214       6.016298       0.02154
  31     11.80        0.5051        0.0001        6.5132        6.5133       6.008168       0.02276
  30     15.07        0.5051        0.0001        6.5038        6.5039       5.998753       0.02431
  29     18.79        0.5051        0.0001        6.4922        6.4923       5.987187       0.02622
  28     23.16        0.5051        0.0001        6.4775        6.4776       5.972533       0.02834
  27     28.12        0.5051        0.0002        6.4594        6.4596       5.954530       0.03060
  26     33.73        0.5050        0.0002        6.4380        6.4382       5.933104       0.03221
  25     40.54        0.5050        0.0002        6.4108        6.4111       5.906029       0.03359
  24     48.69        0.5050        0.0003        6.3772        6.3775       5.872474       0.03472
  23     57.69        0.5050        0.0003        6.3401        6.3405       5.835466       0.03469
  22     68.43        0.5050        0.0004        6.2969        6.2973       5.792353       0.03389
  21     81.20        0.5050        0.0005        6.2481        6.2485       5.743576       0.03223
  20     96.49        0.5050        0.0005        6.1946        6.1952       5.690185       0.02947
  19     114.6        0.5050        0.0006        6.1311        6.1317       5.626655       0.02966
  18     136.5        0.5051        0.0007        6.0661        6.0668       5.561713       0.02497
  17     162.9        0.5052        0.0009        5.9978        5.9987       5.493471       0.02181
  16     196.4        0.5054        0.0010        5.9166        5.9176       5.412214       0.02045
  15     218.7        0.5056        0.0011        5.8649        5.8660       5.360412       0.01967
  14     243.0        0.5058        0.0012        5.8086        5.8099       5.304101       0.01953
  13     269.0        0.5060        0.0014        5.7469        5.7483       5.242272       0.02006
  12     297.5        0.5063        0.0015        5.6775        5.6790       5.172748       0.02062
  11     328.5        0.5067        0.0016        5.5980        5.5997       5.092984       0.02169
  10     361.9        0.5073        0.0018        5.5050        5.5068       4.999505       0.02365
   9     398.1        0.5081        0.0019        5.3968        5.3987       4.890678       0.02535
   8     437.6        0.5091        0.0021        5.2726        5.2747       4.765587       0.02675
   7     480.5        0.5106        0.0022        5.1299        5.1321       4.621546       0.02829
   6     533.0        0.5128        0.0024        4.9430        4.9454       4.432574       0.03040
   5     589.8        0.5160        0.0026        4.7367        4.7392       4.223276       0.03107
   4     651.6        0.5202        0.0027        4.5163        4.5191       3.998838       0.03069
   3     718.7        0.5260        0.0029        4.2885        4.2914       3.765380       0.02934
   2     792.3        0.5340        0.0030        4.0541        4.0572       3.523169       0.02778
   1     891.5        0.5482        0.0032        3.7600        3.7632       3.214985       0.02622
   0    1013.0        0.5727        0.0034        3.4344        3.4378       2.865105       0.02429



 Wavenumbers:  5150. -  6150. cm-1, ATM      1
 LEVEL PRESSURE   UPWARD FLUX   DIFDOWN FLUX  DIRDOWN FLUX  DOWNWARD FLUX   NET FLUX    HEATING RATE
          mb          W/m2          W/m2          W/m2        W/m2          W/m2       degree/day
  51    .06700        1.3584        0.0000       16.4735       16.4735      15.115127       0.00000
  50    .07753        1.3584        0.0000       16.4735       16.4735      15.115127       0.00018
  49    .09103        1.3584        0.0000       16.4735       16.4735      15.115126       0.00018
  48    0.1069        1.3584        0.0000       16.4735       16.4735      15.115126       0.00017
  47    0.1255        1.3584        0.0000       16.4735       16.4735      15.115126       0.00017
  46    0.1487        1.3584        0.0000       16.4735       16.4735      15.115125       0.00017
  45    0.1794        1.3584        0.0000       16.4735       16.4735      15.115125       0.00018
  44    0.2165        1.3584        0.0000       16.4735       16.4735      15.115124       0.00017
  43    0.2613        1.3584        0.0000       16.4735       16.4735      15.115123       0.00017
  42    0.3336        1.3584        0.0000       16.4735       16.4735      15.115121       0.00018
  41    0.4307        1.3584        0.0000       16.4735       16.4735      15.115119       0.00018
  40    0.5894        1.3584        0.0000       16.4735       16.4735      15.115116       0.00018
  39     1.339        1.3584        0.0000       16.4734       16.4734      15.115095       0.00023
  38     1.782        1.3583        0.0000       16.4734       16.4734      15.115079       0.00031
  37     2.292        1.3583        0.0001       16.4733       16.4734      15.115057       0.00036
  36     2.964        1.3589        0.0001       14.3106       14.3107      12.951737      27.15621
  35     3.853        1.3593        0.0001       13.9856       13.9857      12.626460       3.08694
  34     5.035        1.3594        0.0001       13.8273       13.8274      12.467989       1.13205
  33     6.613        1.3596        0.0002       13.7344       13.7346      12.375023       0.49700
  32     8.786        1.3596        0.0002       13.6735       13.6737      12.314072       0.23671
  31     11.80        1.3597        0.0003       13.6264       13.6267      12.266991       0.13181
  30     15.07        1.3597        0.0004       13.5947       13.5950      12.235370       0.08164
  29     18.79        1.3597        0.0004       13.5699       13.5703      12.210628       0.05610
  28     23.16        1.3597        0.0005       13.5473       13.5478      12.188196       0.04338
  27     28.12        1.3596        0.0006       13.5272       13.5279      12.168234       0.03393
  26     33.73        1.3596        0.0008       13.5091       13.5099      12.150306       0.02696
  25     40.54        1.3595        0.0009       13.4906       13.4915      12.131956       0.02276
  24     48.69        1.3595        0.0011       13.4693       13.4703      12.110849       0.02184
  23     57.69        1.3594        0.0013       13.4459       13.4472      12.087757       0.02164
  22     68.43        1.3594        0.0015       13.4184       13.4199      12.060499       0.02143
  21     81.20        1.3593        0.0018       13.3861       13.3879      12.028558       0.02111
  20     96.49        1.3593        0.0021       13.3488       13.3508      11.991574       0.02041
  19     114.6        1.3592        0.0024       13.3061       13.3085      11.949348       0.01972
  18     136.5        1.3591        0.0029       13.2587       13.2616      11.902444       0.01804
  17     162.9        1.3590        0.0034       13.2077       13.2111      11.852129       0.01608
  16     196.4        1.3588        0.0041       13.1503       13.1544      11.795612       0.01423
  15     218.7        1.3586        0.0046       13.1176       13.1221      11.763503       0.01219
  14     243.0        1.3584        0.0051       13.0838       13.0888      11.730395       0.01148
  13     269.0        1.3582        0.0056       13.0463       13.0519      11.693633       0.01193
  12     297.5        1.3580        0.0062       12.9960       13.0021      11.644124       0.01468
  11     328.5        1.3578        0.0068       12.9155       12.9223      11.564435       0.02167
  10     361.9        1.3577        0.0074       12.7816       12.7890      11.431286       0.03369
   9     398.1        1.3576        0.0080       12.5700       12.5780      11.220406       0.04913
   8     437.6        1.3577        0.0087       12.2566       12.2653      10.907573       0.06689
   7     480.5        1.3580        0.0093       11.8287       11.8380      10.479954       0.08398
   6     533.0        1.3589        0.0099       11.2227       11.2325       9.873625       0.09754
   5     589.8        1.3605        0.0104       10.6015       10.6119       9.251370       0.09236
   4     651.6        1.3634        0.0109       10.0421       10.0530       8.689653       0.07682
   3     718.7        1.3682        0.0115        9.5750        9.5864       8.218256       0.05924
   2     792.3        1.3760        0.0121        9.1852        9.1973       7.821322       0.04552
   1     891.5        1.3927        0.0130        8.7515        8.7644       7.371741       0.03826
   0    1013.0        1.4283        0.0140        8.2515        8.2655       6.837153       0.03712



 Wavenumbers:  6150. -  7700. cm-1, ATM      1
 LEVEL PRESSURE   UPWARD FLUX   DIFDOWN FLUX  DIRDOWN FLUX  DOWNWARD FLUX   NET FLUX    HEATING RATE
          mb          W/m2          W/m2          W/m2        W/m2          W/m2       degree/day
  51    .06700        2.2127        0.0000       30.4684       30.4684      28.255647       0.00000
  50    .07753        2.2127        0.0000       30.4684       30.4684      28.255630       0.01303
  49    .09103        2.2127        0.0000       30.4683       30.4683      28.255610       0.01277
  48    0.1069        2.2127        0.0000       30.4683       30.4683      28.255587       0.01250
  47    0.1255        2.2127        0.0000       30.4683       30.4683      28.255560       0.01223
  46    0.1487        2.2127        0.0000       30.4682       30.4683      28.255526       0.01241
  45    0.1794        2.2127        0.0000       30.4682       30.4682      28.255479       0.01276
  44    0.2165        2.2127        0.0000       30.4681       30.4681      28.255424       0.01252
  43    0.2613        2.2127        0.0000       30.4681       30.4681      28.255359       0.01228
  42    0.3336        2.2127        0.0000       30.4679       30.4680      28.255251       0.01256
  41    0.4307        2.2127        0.0000       30.4678       30.4678      28.255108       0.01241
  40    0.5894        2.2127        0.0001       30.4675       30.4676      28.254876       0.01239
  39     1.339        2.2126        0.0001       30.4662       30.4664      28.253776       0.01238
  38     1.782        2.2126        0.0002       30.4655       30.4657      28.253131       0.01227
  37     2.292        2.2125        0.0002       30.4647       30.4649      28.252386       0.01234
  36     2.964        2.2132        0.0004       26.9193       26.9197      24.706482      44.51182
  35     3.853        2.2136        0.0005       26.4194       26.4198      24.206247       4.74731
  34     5.035        2.2138        0.0006       26.1760       26.1766      23.962828       1.73888
  33     6.613        2.2138        0.0008       26.0356       26.0363      23.822515       0.75012
  32     8.786        2.2137        0.0010       25.9453       25.9462      23.732492       0.34962
  31     11.80        2.2136        0.0012       25.8768       25.8781      23.664477       0.19042
  30     15.07        2.2134        0.0015       25.8316       25.8332      23.619797       0.11536
  29     18.79        2.2131        0.0019       25.7967       25.7986      23.585527       0.07770
  28     23.16        2.2128        0.0023       25.7655       25.7678      23.554984       0.05906
  27     28.12        2.2124        0.0027       25.7380       25.7407      23.528328       0.04531
  26     33.73        2.2120        0.0033       25.7137       25.7170      23.505030       0.03503
  25     40.54        2.2114        0.0039       25.6896       25.6934      23.482011       0.02856
  24     48.69        2.2108        0.0046       25.6625       25.6671      23.456320       0.02659
  23     57.69        2.2101        0.0054       25.6335       25.6389      23.428831       0.02577
  22     68.43        2.2092        0.0064       25.5997       25.6061      23.396900       0.02510
  21     81.20        2.2082        0.0076       25.5604       25.5680      23.359800       0.02452
  20     96.49        2.2070        0.0090       25.5148       25.5238      23.316776       0.02375
  19     114.6        2.2055        0.0106       25.4614       25.4720      23.266515       0.02347
  18     136.5        2.2038        0.0126       25.3999       25.4125      23.208690       0.02224
  17     162.9        2.2018        0.0149       25.3289       25.3438      23.142024       0.02131
  16     196.4        2.1991        0.0179       25.2398       25.2577      23.058590       0.02100
  15     218.7        2.1974        0.0199       25.1829       25.2028      23.005402       0.02019
  14     243.0        2.1955        0.0220       25.1223       25.1443      22.948791       0.01963
  13     269.0        2.1934        0.0243       25.0538       25.0782      22.884713       0.02079
  12     297.5        2.1913        0.0268       24.9617       24.9885      22.797219       0.02595
  11     328.5        2.1890        0.0295       24.8136       24.8430      22.654048       0.03893
  10     361.9        2.1867        0.0322       24.5669       24.5991      22.412391       0.06114
   9     398.1        2.1845        0.0350       24.1746       24.2097      22.025164       0.09022
   8     437.6        2.1826        0.0378       23.5872       23.6250      21.442383       0.12460
   7     480.5        2.1813        0.0404       22.7613       22.8017      20.620478       0.16142
   6     533.0        2.1811        0.0430       21.5249       21.5678      19.386782       0.19846
   5     589.8        2.1830        0.0451       20.1472       20.1923      18.009305       0.20446
   4     651.6        2.1883        0.0469       18.7647       18.8116      16.623329       0.18954
   3     718.7        2.1987        0.0484       17.4377       17.4861      15.287406       0.16789
   2     792.3        2.2175        0.0498       16.1792       16.2290      14.011553       0.14633
   1     891.5        2.2593        0.0516       14.7468       14.7983      12.539004       0.12531
   0    1013.0        2.3515        0.0534       13.3266       13.3800      11.028416       0.10489



 Wavenumbers:  7700. -  8050. cm-1, ATM      1
 LEVEL PRESSURE   UPWARD FLUX   DIFDOWN FLUX  DIRDOWN FLUX  DOWNWARD FLUX   NET FLUX    HEATING RATE
          mb          W/m2          W/m2          W/m2        W/m2          W/m2       degree/day
  51    .06700        1.0495        0.0000        7.2006        7.2006       6.151103       0.00000
  50    .07753        1.0495        0.0000        7.2006        7.2006       6.151085       0.01477
  49    .09103        1.0495        0.0000        7.2005        7.2005       6.151062       0.01447
  48    0.1069        1.0495        0.0000        7.2005        7.2005       6.151035       0.01417
  47    0.1255        1.0495        0.0000        7.2005        7.2005       6.151005       0.01387
  46    0.1487        1.0495        0.0000        7.2004        7.2005       6.150966       0.01407
  45    0.1794        1.0495        0.0000        7.2004        7.2004       6.150913       0.01448
  44    0.2165        1.0495        0.0000        7.2003        7.2003       6.150851       0.01420
  43    0.2613        1.0495        0.0000        7.2003        7.2003       6.150777       0.01393
  42    0.3336        1.0495        0.0000        7.2001        7.2001       6.150655       0.01426
  41    0.4307        1.0495        0.0000        7.2000        7.2000       6.150492       0.01410
  40    0.5894        1.0495        0.0000        7.1997        7.1997       6.150228       0.01408
  39     1.339        1.0495        0.0001        7.1984        7.1985       6.148975       0.01410
  38     1.782        1.0495        0.0001        7.1977        7.1978       6.148240       0.01400
  37     2.292        1.0495        0.0001        7.1968        7.1969       6.147389       0.01409
  36     2.964        1.0495        0.0002        7.1956        7.1958       6.146272       0.01402
  35     3.853        1.0495        0.0002        7.1941        7.1943       6.144798       0.01399
  34     5.035        1.0496        0.0003        7.1921        7.1924       6.142841       0.01398
  33     6.613        1.0496        0.0003        7.1895        7.1898       6.140229       0.01396
  32     8.786        1.0496        0.0004        7.1859        7.1864       6.136715       0.01365
  31     11.80        1.0497        0.0006        7.1808        7.1814       6.131700       0.01404
  30     15.07        1.0498        0.0007        7.1754        7.1761       6.126332       0.01386
  29     18.79        1.0499        0.0009        7.1693        7.1702       6.120288       0.01370
  28     23.16        1.0500        0.0011        7.1622        7.1632       6.113256       0.01360
  27     28.12        1.0501        0.0013        7.1541        7.1554       6.105253       0.01361
  26     33.73        1.0503        0.0015        7.1451        7.1466       6.096345       0.01339
  25     40.54        1.0504        0.0018        7.1343        7.1361       6.085650       0.01327
  24     48.69        1.0506        0.0022        7.1213        7.1235       6.072857       0.01324
  23     57.69        1.0509        0.0025        7.1073        7.1098       6.058929       0.01306
  22     68.43        1.0511        0.0030        7.0907        7.0937       6.042509       0.01291
  21     81.20        1.0515        0.0035        7.0711        7.0747       6.023184       0.01277
  20     96.49        1.0519        0.0042        7.0482        7.0524       6.000483       0.01253
  19     114.6        1.0524        0.0049        7.0213        7.0262       5.973831       0.01244
  18     136.5        1.0530        0.0058        6.9901        6.9959       5.942877       0.01190
  17     162.9        1.0538        0.0069        6.9537        6.9606       5.906857       0.01151
  16     196.4        1.0548        0.0082        6.9079        6.9161       5.861371       0.01145
  15     218.7        1.0554        0.0091        6.8785        6.8877       5.832224       0.01107
  14     243.0        1.0562        0.0101        6.8472        6.8573       5.801126       0.01079
  13     269.0        1.0571        0.0112        6.8139        6.8251       5.768063       0.01073
  12     297.5        1.0580        0.0123        6.7786        6.7909       5.732953       0.01041
  11     328.5        1.0590        0.0135        6.7412        6.7547       5.695673       0.01014
  10     361.9        1.0602        0.0148        6.7016        6.7164       5.656181       0.00999
   9     398.1        1.0616        0.0162        6.6596        6.6758       5.614264       0.00977
   8     437.6        1.0631        0.0177        6.6150        6.6327       5.569665       0.00954
   7     480.5        1.0648        0.0193        6.5675        6.5868       5.521956       0.00937
   6     533.0        1.0672        0.0212        6.5088        6.5301       5.462894       0.00950
   5     589.8        1.0700        0.0233        6.4452        6.4686       5.398609       0.00954
   4     651.6        1.0733        0.0256        6.3760        6.4016       5.328292       0.00962
   3     718.7        1.0773        0.0279        6.3002        6.3281       5.250780       0.00974
   2     792.3        1.0822        0.0304        6.2167        6.2471       5.164903       0.00985
   1     891.5        1.0898        0.0338        6.0996        6.1334       5.043610       0.01032
   0    1013.0        1.1007        0.0376        5.9510        5.9887       4.887998       0.01080



 Wavenumbers:  8050. - 12850. cm-1, ATM      1
 LEVEL PRESSURE   UPWARD FLUX   DIFDOWN FLUX  DIRDOWN FLUX  DOWNWARD FLUX   NET FLUX    HEATING RATE
          mb          W/m2          W/m2          W/m2        W/m2          W/m2       degree/day
  51    .06700       23.4840        0.0000      100.8135      100.8135      77.329525       0.00000
  50    .07753       23.4840        0.0000      100.8135      100.8135      77.329525       0.00000
  49    .09103       23.4839        0.0001      100.8134      100.8135      77.329525       0.00000
  48    0.1069       23.4839        0.0001      100.8134      100.8134      77.329525       0.00000
  47    0.1255       23.4839        0.0001      100.8133      100.8134      77.329525       0.00000
  46    0.1487       23.4838        0.0002      100.8132      100.8134      77.329525      -0.00000
  45    0.1794       23.4838        0.0002      100.8131      100.8133      77.329525      -0.00000
  44    0.2165       23.4837        0.0003      100.8129      100.8133      77.329525      -0.00000
  43    0.2613       23.4836        0.0004      100.8127      100.8132      77.329525       0.00000
  42    0.3336       23.4835        0.0006      100.8125      100.8130      77.329525       0.00000
  41    0.4307       23.4833        0.0008      100.8121      100.8129      77.329525       0.00000
  40    0.5894       23.4831        0.0011      100.8115      100.8126      77.329525      -0.00000
  39     1.339       23.4818        0.0028      100.8085      100.8113      77.329525       0.00000
  38     1.782       23.4810        0.0037      100.8068      100.8105      77.329525       0.00000
  37     2.292       23.4801        0.0049      100.8047      100.8096      77.329525      -0.00000
  36     2.964       23.4773        0.0083      100.7986      100.8069      77.329525       0.00000
  35     3.853       23.4752        0.0109      100.7938      100.8047      77.329525       0.00000
  34     5.035       23.4728        0.0139      100.7885      100.8024      77.329525       0.00000
  33     6.613       23.4699        0.0175      100.7820      100.7994      77.329525      -0.00000
  32     8.786       23.4661        0.0222      100.7734      100.7956      77.329525       0.00000
  31     11.80       23.4607        0.0289      100.7613      100.7902      77.329525       0.00000
  30     15.07       23.4550        0.0361      100.7484      100.7845      77.329525       0.00000
  29     18.79       23.4485        0.0442      100.7338      100.7780      77.329525       0.00000
  28     23.16       23.4408        0.0536      100.7167      100.7704      77.329525      -0.00000
  27     28.12       23.4321        0.0644      100.6972      100.7617      77.329525       0.00000
  26     33.73       23.4224        0.0765      100.6754      100.7519      77.329525      -0.00000
  25     40.54       23.4106        0.0912      100.6490      100.7401      77.329525       0.00000
  24     48.69       23.3964        0.1089      100.6171      100.7259      77.329525      -0.00000
  23     57.69       23.3807        0.1283      100.5820      100.7103      77.329525       0.00000
  22     68.43       23.3621        0.1515      100.5401      100.6916      77.329525      -0.00000
  21     81.20       23.3398        0.1791      100.4902      100.6693      77.329525       0.00000
  20     96.49       23.3132        0.2121      100.4306      100.6427      77.329525       0.00000
  19     114.6       23.2846        0.2511      100.0821      100.3332      77.048566       0.13119
  18     136.5       23.2500        0.2973       99.7935      100.0908      76.840797       0.07989
  17     162.9       23.2076        0.3524       99.5287       99.8811      76.673444       0.05349
  16     196.4       23.1514        0.4241       99.2461       99.6702      76.518795       0.03893
  15     218.7       23.1139        0.4712       99.0817       99.5529      76.439010       0.03029
  14     243.0       23.0729        0.5225       98.9138       99.4363      76.363377       0.02623
  13     269.0       23.0284        0.5782       98.7350       99.3132      76.284793       0.02549
  12     297.5       22.9804        0.6383       98.5258       99.1641      76.183724       0.02998
  11     328.5       22.9289        0.7033       98.2507       98.9540      76.025134       0.04312
  10     361.9       22.8743        0.7730       97.8699       98.6430      75.768653       0.06489
   9     398.1       22.8172        0.8476       97.3399       98.1875      75.370355       0.09279
   8     437.6       22.7584        0.9270       96.6104       97.5374      74.778988       0.12644
   7     480.5       22.6998        1.0106       95.6232       96.6338      73.933967       0.16596
   6     533.0       22.6370        1.1109       94.1041       95.2151      72.578054       0.21812
   5     589.8       22.5832        1.2158       92.2033       93.4190      70.835861       0.25860
   4     651.6       22.5452        1.3244       89.9679       91.2923      68.747123       0.28564
   3     718.7       22.5338        1.4363       87.4464       88.8827      66.348978       0.30138
   2     792.3       22.5665        1.5506       84.6649       86.2155      63.648961       0.30966
   1     891.5       22.7060        1.6965       80.8921       82.5886      59.882612       0.32050
   0    1013.0       23.0913        1.8587       76.3874       78.2461      55.154754       0.32828



 Wavenumbers: 12850. - 16000. cm-1, ATM      1
 LEVEL PRESSURE   UPWARD FLUX   DIFDOWN FLUX  DIRDOWN FLUX  DOWNWARD FLUX   NET FLUX    HEATING RATE
          mb          W/m2          W/m2          W/m2        W/m2          W/m2       degree/day
  51    .06700       33.0227        0.0000       63.1686       63.1686      30.145886       0.00000
  50    .07753       33.0227        0.0001       63.1677       63.1678      30.145107       0.62463
  49    .09103       33.0226        0.0001       63.1666       63.1668      30.144136       0.60695
  48    0.1069       33.0226        0.0002       63.1654       63.1656      30.143031       0.58846
  47    0.1255       33.0226        0.0003       63.1640       63.1643      30.141773       0.56992
  46    0.1487       33.0225        0.0004       63.1623       63.1627      30.140206       0.57134
  45    0.1794       33.0225        0.0006       63.1600       63.1606      30.138105       0.57689
  44    0.2165       33.0224        0.0008       63.1573       63.1581      30.135674       0.55281
  43    0.2613       33.0223        0.0010       63.1542       63.1552      30.132872       0.52818
  42    0.3336       33.0223        0.0014       63.1493       63.1507      30.128408       0.52049
  41    0.4307       33.0222        0.0019       63.1431       63.1450      30.122815       0.48633
  40    0.5894       33.0222        0.0027       63.1338       63.1365      30.114347       0.45030
  39     1.339       33.0232        0.0065       63.0955       63.1020      30.078827       0.39989
  38     1.782       33.0248        0.0088       63.0739       63.0827      30.057929       0.39787
  37     2.292       33.0274        0.0114       63.0474       63.0588      30.031405       0.43930
  36     2.964       33.0293        0.0194       63.0017       63.0210      29.991716       0.49823
  35     3.853       33.0364        0.0256       62.9424       62.9680      29.931565       0.57084
  34     5.035       33.0486        0.0324       62.8601       62.8925      29.843890       0.62631
  33     6.613       33.0663        0.0408       62.7488       62.7896      29.723351       0.64440
  32     8.786       33.0893        0.0518       62.6045       62.6563      29.566973       0.60732
  31     11.80       33.1187        0.0672       62.4142       62.4815      29.362711       0.57187
  30     15.07       33.1462        0.0837       62.2282       62.3119      29.165744       0.50853
  29     18.79       33.1735        0.1023       62.0347       62.1370      28.963510       0.45853
  28     23.16       33.2009        0.1239       61.8277       61.9516      28.750623       0.41165
  27     28.12       33.2273        0.1485       61.6130       61.7614      28.534150       0.36799
  26     33.73       33.2495        0.1760       61.4028       61.5788      28.329248       0.30808
  25     40.54       33.2679        0.2091       61.1834       61.3926      28.124626       0.25386
  24     48.69       33.2820        0.2490       60.9531       61.2022      27.920202       0.21155
  23     57.69       33.2895        0.2928       60.7330       61.0258      27.736321       0.17236
  22     68.43       33.2898        0.3448       60.5055       60.8503      27.560463       0.13825
  21     81.20       33.2785        0.4068       60.2792       60.6860      27.407462       0.10110
  20     96.49       33.2542        0.4807       60.0497       60.5303      27.276113       0.07250
  19     114.6       33.2250        0.5688       59.7886       60.3573      27.132346       0.06713
  18     136.5       33.1857        0.6730       59.4920       60.1650      26.979319       0.05884
  17     162.9       33.1346        0.7967       59.1492       59.9460      26.811390       0.05368
  16     196.4       33.0592        0.9567       58.7291       59.6858      26.626623       0.04651
  15     218.7       33.0064        1.0615       58.4625       59.5240      26.517612       0.04139
  14     243.0       32.9475        1.1751       58.1774       59.3525      26.405018       0.03905
  13     269.0       32.8822        1.2980       57.8741       59.1721      26.289934       0.03733
  12     297.5       32.8102        1.4304       57.5514       58.9818      26.171611       0.03509
  11     328.5       32.7320        1.5731       57.2049       58.7780      26.046028       0.03415
  10     361.9       32.6477        1.7263       56.8324       58.5587      25.910931       0.03418
   9     398.1       32.5574        1.8907       56.4304       58.3211      25.763641       0.03432
   8     437.6       32.4615        2.0666       55.9937       58.0603      25.598815       0.03524
   7     480.5       32.3608        2.2543       55.5165       57.7708      25.410058       0.03707
   6     533.0       32.2414        2.4841       54.9087       57.3929      25.151456       0.04160
   5     589.8       32.1199        2.7301       54.2288       56.9589      24.838995       0.04638
   4     651.6       31.9994        2.9921       53.4708       56.4629      24.463497       0.05135
   3     718.7       31.8847        3.2702       52.6276       55.8978      24.013054       0.05661
   2     792.3       31.7831        3.5635       51.6934       55.2569      23.473803       0.06185
   1     891.5       31.6864        3.9513       50.4015       54.3528      22.666463       0.06870
   0    1013.0       31.6437        4.4036       48.8270       53.2306      21.586951       0.07496



 Wavenumbers: 16000. - 22650. cm-1, ATM      1
 LEVEL PRESSURE   UPWARD FLUX   DIFDOWN FLUX  DIRDOWN FLUX  DOWNWARD FLUX   NET FLUX    HEATING RATE
          mb          W/m2          W/m2          W/m2        W/m2          W/m2       degree/day
  51    .06700       75.6117        0.0000      100.7153      100.7153      25.103635       0.00000
  50    .07753       75.6115        0.0003      100.7147      100.7151      25.103517       0.09404
  49    .09103       75.6114        0.0007      100.7140      100.7147      25.103347       0.10666
  48    0.1069       75.6112        0.0012      100.7131      100.7143      25.103118       0.12163
  47    0.1255       75.6110        0.0017      100.7121      100.7139      25.102812       0.13864
  46    0.1487       75.6108        0.0024      100.7108      100.7132      25.102362       0.16429
  45    0.1794       75.6106        0.0034      100.7089      100.7122      25.101657       0.19344
  44    0.2165       75.6103        0.0045      100.7066      100.7110      25.100701       0.21740
  43    0.2613       75.6100        0.0058      100.7037      100.7095      25.099405       0.24441
  42    0.3336       75.6097        0.0079      100.6987      100.7066      25.096940       0.28741
  41    0.4307       75.6094        0.0108      100.6918      100.7026      25.093224       0.32308
  40    0.5894       75.6091        0.0155      100.6797      100.6952      25.086138       0.37684
  39     1.339       75.6134        0.0377      100.6095      100.6472      25.033794       0.58929
  38     1.782       75.6200        0.0507      100.5585      100.6092      24.989217       0.84867
  37     2.292       75.6313        0.0658      100.4903      100.5560      24.924712       1.06837
  36     2.964       75.6390        0.1119      100.3474      100.4593      24.820272       1.31104
  35     3.853       75.6697        0.1479      100.1765      100.3244      24.654690       1.57140
  34     5.035       75.7226        0.1872       99.9434      100.1306      24.407937       1.76271
  33     6.613       75.7994        0.2357       99.6293       99.8650      24.065557       1.83036
  32     8.786       75.8997        0.2989       99.2217       99.5206      23.620967       1.72663
  31     11.80       76.0279        0.3880       98.6823       99.0703      23.042463       1.61963
  30     15.07       76.1474        0.4829       98.1522       98.6351      22.487650       1.43242
  29     18.79       76.2661        0.5895       97.5974       98.1869      21.920755       1.28533
  28     23.16       76.3859        0.7135       96.9994       97.7129      21.327009       1.14811
  27     28.12       76.5007        0.8546       96.3730       97.2276      20.726886       1.02017
  26     33.73       76.5974        1.0119       95.7505       96.7625      20.165099       0.84466
  25     40.54       76.6774        1.2014       95.0878       96.2891      19.611740       0.68650
  24     48.69       76.7382        1.4288       94.3752       95.8041      19.065844       0.56492
  23     57.69       76.7707        1.6777       93.6752       95.3529      18.582199       0.45334
  22     68.43       76.7724        1.9728       92.9293       94.9021      18.129764       0.35567
  21     81.20       76.7238        2.3230       92.1575       94.4806      17.756798       0.24645
  20     96.49       76.6192        2.7384       91.3459       94.0843      17.465112       0.16099
  19     114.6       76.4722        3.2282       90.4417       93.6700      17.197754       0.12484
  18     136.5       76.2831        3.8039       89.4149       93.2188      16.935735       0.10075
  17     162.9       76.0451        4.4825       88.2370       92.7195      16.674418       0.08353
  16     196.4       75.7076        5.3522       86.7958       92.1481      16.440451       0.05889
  15     218.7       75.4763        5.9172       85.8848       91.8020      16.325764       0.04354
  14     243.0       75.2211        6.5257       84.9154       91.4410      16.219888       0.03672
  13     269.0       74.9410        7.1786       83.8872       91.0658      16.124808       0.03084
  12     297.5       74.6351        7.8767       82.7995       90.6762      16.041016       0.02485
  11     328.5       74.3048        8.6224       81.6429       90.2653      15.960531       0.02188
  10     361.9       73.9498        9.4154       80.4179       89.8333      15.883477       0.01950
   9     398.1       73.5692       10.2575       79.1210       89.3786      15.809395       0.01726
   8     437.6       73.1631       11.1491       77.7504       88.8995      15.736369       0.01561
   7     480.5       72.7312       12.0903       76.3050       88.3953      15.664118       0.01419
   6     533.0       72.2055       13.2288       74.5563       87.7851      15.579615       0.01359
   5     589.8       71.6470       14.4316       72.7054       87.1370      15.489961       0.01331
   4     651.6       71.0570       15.6968       70.7527       86.4494      15.392458       0.01333
   3     718.7       70.4365       17.0225       68.6981       85.7206      15.284102       0.01362
   2     792.3       69.7883       18.4042       66.5452       84.9494      15.161077       0.01411
   1     891.5       68.9420       20.2075       63.7127       83.9202      14.978111       0.01557
   0    1013.0       67.9717       22.2796       60.4199       82.6995      14.727839       0.01738



 Wavenumbers: 22650. - 29000. cm-1, ATM      1
 LEVEL PRESSURE   UPWARD FLUX   DIFDOWN FLUX  DIRDOWN FLUX  DOWNWARD FLUX   NET FLUX    HEATING RATE
          mb          W/m2          W/m2          W/m2        W/m2          W/m2       degree/day
  51    .06700       34.3507        0.0000       38.0063       38.0063       3.655575       0.00000
  50    .07753       34.3505        0.0004       38.0057       38.0061       3.655575      -0.00000
  49    .09103       34.3503        0.0009       38.0050       38.0059       3.655575       0.00000
  48    0.1069       34.3501        0.0014       38.0042       38.0057       3.655575       0.00000
  47    0.1255       34.3498        0.0021       38.0033       38.0054       3.655575       0.00000
  46    0.1487       34.3495        0.0029       38.0022       38.0050       3.655575      -0.00000
  45    0.1794       34.3490        0.0040       38.0006       38.0046       3.655575       0.00000
  44    0.2165       34.3484        0.0053       37.9987       38.0040       3.655575       0.00000
  43    0.2613       34.3478        0.0068       37.9965       38.0033       3.655575      -0.00000
  42    0.3336       34.3467        0.0094       37.9928       38.0022       3.655575      -0.00000
  41    0.4307       34.3452        0.0128       37.9880       38.0008       3.655575       0.00000
  40    0.5894       34.3428        0.0183       37.9800       37.9984       3.655575       0.00000
  39     1.339       34.3315        0.0446       37.9425       37.9870       3.655575       0.00000
  38     1.782       34.3248        0.0600       37.9204       37.9804       3.655575      -0.00000
  37     2.292       34.3171        0.0778       37.8949       37.9727       3.655575       0.00000
  36     2.964       34.2936        0.1323       37.8168       37.9491       3.655575      -0.00000
  35     3.853       34.2752        0.1748       37.7560       37.9308       3.655575       0.00000
  34     5.035       34.2551        0.2212       37.6894       37.9107       3.655575       0.00000
  33     6.613       34.2303        0.2787       37.6072       37.8859       3.655575       0.00000
  32     8.786       34.1979        0.3536       37.4999       37.8535       3.655575       0.00000
  31     11.80       34.1522        0.4592       37.3486       37.8078       3.655575      -0.00000
  30     15.07       34.1035        0.5716       37.1875       37.7591       3.655575       0.00000
  29     18.79       34.0489        0.6979       37.0065       37.7044       3.655575      -0.00000
  28     23.16       33.9853        0.8446       36.7963       37.6409       3.655575       0.00000
  27     28.12       33.9130        1.0112       36.5574       37.5686       3.655575      -0.00000
  26     33.73       33.8327        1.1965       36.2917       37.4882       3.655575       0.00000
  25     40.54       33.7362        1.4186       35.9731       37.3918       3.655575       0.00000
  24     48.69       33.6208        1.6839       35.5925       37.2764       3.655575       0.00000
  23     57.69       33.4954        1.9722       35.1788       37.1509       3.655575       0.00000
  22     68.43       33.3475        2.3112       34.6920       37.0031       3.655575       0.00000
  21     81.20       33.1738        2.7089       34.1204       36.8294       3.655575       0.00000
  20     96.49       32.9701        3.1743       33.4513       36.6256       3.655575       0.00000
  19     114.6       32.7328        3.7148       32.6736       36.3884       3.655575      -0.00000
  18     136.5       32.4580        4.3388       31.7748       36.1136       3.655575       0.00000
  17     162.9       32.1396        5.0590       30.7362       35.7952       3.655575       0.00000
  16     196.4       31.7405        5.9571       29.4390       35.3961       3.655575      -0.00000
  15     218.7       31.4867        6.5254       28.6168       35.1422       3.655575      -0.00000
  14     243.0       31.2179        7.1246       27.7489       34.8735       3.655575       0.00000
  13     269.0       30.9348        7.7528       26.8376       34.5903       3.655575      -0.00000
  12     297.5       30.6380        8.4077       25.8859       34.2936       3.655575       0.00000
  11     328.5       30.3275        9.0888       24.8943       33.9831       3.655575       0.00000
  10     361.9       30.0047        9.7922       23.8680       33.6602       3.655575      -0.00000
   9     398.1       29.6698       10.5163       22.8091       33.3254       3.655575      -0.00000
   8     437.6       29.3244       11.2566       21.7234       32.9800       3.655575       0.00000
   7     480.5       28.9695       12.0103       20.6147       32.6250       3.655575      -0.00000
   6     533.0       28.5532       12.8836       19.3251       32.2088       3.655575       0.00000
   5     589.8       28.1284       13.7619       18.0221       31.7840       3.655575      -0.00000
   4     651.6       27.6973       14.6384       16.7145       31.3529       3.655575       0.00000
   3     718.7       27.2620       15.5065       15.4111       30.9176       3.655575      -0.00000
   2     792.3       26.8258       16.3568       14.1246       30.4814       3.655575       0.00000
   1     891.5       26.2817       17.3858       12.5514       29.9373       3.655575       0.00000
   0    1013.0       25.6882       18.4611       10.8828       29.3438       3.655575       0.00000



 Wavenumbers: 29000. - 38000. cm-1, ATM      1
 LEVEL PRESSURE   UPWARD FLUX   DIFDOWN FLUX  DIRDOWN FLUX  DOWNWARD FLUX   NET FLUX    HEATING RATE
          mb          W/m2          W/m2          W/m2        W/m2          W/m2       degree/day
  51    .06700        4.8851        0.0000       13.4026       13.4026       8.517471       0.00000
  50    .07753        4.8849        0.0003       13.3983       13.3986       8.513680       3.03841
  49    .09103        4.8846        0.0007       13.3921       13.3928       8.508172       3.44285
  48    0.1069        4.8843        0.0011       13.3841       13.3851       8.500807       3.92002
  47    0.1255        4.8840        0.0016       13.3734       13.3750       8.490978       4.45634
  46    0.1487        4.8836        0.0022       13.3579       13.3601       8.476560       5.25537
  45    0.1794        4.8830        0.0030       13.3342       13.3372       8.454191       6.14075
  44    0.2165        4.8823        0.0040       13.3025       13.3065       8.424189       6.82498
  43    0.2613        4.8816        0.0052       13.2605       13.2657       8.384138       7.54940
  42    0.3336        4.8803        0.0070       13.1834       13.1905       8.310134       8.62814
  41    0.4307        4.8788        0.0095       13.0730       13.0825       8.203659       9.25781
  40    0.5894        4.8765        0.0134       12.8795       12.8929       8.016473       9.95432
  39     1.339        4.8682        0.0297       11.9153       11.9450       7.076757      10.57950
  38     1.782        4.8652        0.0380       11.4377       11.4757       6.610513       8.87653
  37     2.292        4.8631        0.0468       10.9754       11.0222       6.159128       7.47612
  36     2.964        4.8497        0.0749       10.4427       10.5177       5.667914       6.16621
  35     3.853        4.8464        0.0937        9.8967        9.9904       5.143961       4.97242
  34     5.035        4.8482        0.1122        9.3510        9.4632       4.615062       3.77823
  33     6.613        4.8537        0.1337        8.8257        8.9593       4.105599       2.72359
  32     8.786        4.8620        0.1606        8.3311        8.4917       3.629741       1.84806
  31     11.80        4.8723        0.1974        7.8446        8.0420       3.169659       1.28809
  30     15.07        4.8813        0.2355        7.4675        7.7030       2.821636       0.89853
  29     18.79        4.8897        0.2771        7.1357        7.4128       2.523062       0.67696
  28     23.16        4.8975        0.3240        6.8256        7.1496       2.252080       0.52399
  27     28.12        4.9038        0.3760        6.5385        6.9145       2.010703       0.41033
  26     33.73        4.9061        0.4327        6.2812        6.7139       1.807881       0.30495
  25     40.54        4.9033        0.4998        6.0293        6.5291       1.625849       0.22583
  24     48.69        4.8949        0.5785        5.7769        6.3554       1.460503       0.17111
  23     57.69        4.8810        0.6625        5.5425        6.2050       1.324042       0.12791
  22     68.43        4.8592        0.7598        5.3034        6.0632       1.204018       0.09435
  21     81.20        4.8252        0.8727        5.0629        5.9356       1.110327       0.06191
  20     96.49        4.7779        1.0032        4.8150        5.8182       1.040348       0.03862
  19     114.6        4.7202        1.1512        4.5484        5.6996       0.979360       0.02848
  18     136.5        4.6533        1.3164        4.2591        5.5755       0.922171       0.02199
  17     162.9        4.5767        1.5002        3.9441        5.4443       0.867615       0.01744
  16     196.4        4.4795        1.7202        3.5805        5.3006       0.821104       0.01171
  15     218.7        4.4184        1.8536        3.3640        5.2176       0.799217       0.00831
  14     243.0        4.3546        1.9896        3.1446        5.1342       0.779572       0.00681
  13     269.0        4.2887        2.1272        2.9239        5.0511       0.762398       0.00557
  12     297.5        4.2209        2.2651        2.7035        4.9686       0.747650       0.00437
  11     328.5        4.1522        2.4018        2.4842        4.8860       0.733806       0.00376
  10     361.9        4.0830        2.5361        2.2678        4.8039       0.720907       0.00326
   9     398.1        4.0137        2.6668        2.0559        4.7226       0.708904       0.00280
   8     437.6        3.9448        2.7926        1.8498        4.6424       0.697563       0.00242
   7     480.5        3.8768        2.9124        1.6514        4.5637       0.686990       0.00208
   6     533.0        3.8002        3.0409        1.4349        4.4758       0.675678       0.00182
   5     589.8        3.7257        3.1583        1.2324        4.3907       0.664945       0.00159
   4     651.6        3.6538        3.2635        1.0450        4.3085       0.654677       0.00140
   3     718.7        3.5848        3.3553        0.8743        4.2297       0.644831       0.00124
   2     792.3        3.5190        3.4329        0.7215        4.1544       0.635397       0.00108
   1     891.5        3.4411        3.5096        0.5554        4.0650       0.623968       0.00097
   0    1013.0        3.3606        3.5682        0.4040        3.9722       0.611586       0.00086



 Wavenumbers: 38000. - 50000. cm-1, ATM      1
 LEVEL PRESSURE   UPWARD FLUX   DIFDOWN FLUX  DIRDOWN FLUX  DOWNWARD FLUX   NET FLUX    HEATING RATE
          mb          W/m2          W/m2          W/m2        W/m2          W/m2       degree/day
  51    .06700        0.0054        0.0000        0.8267        0.8267       0.821221       0.00000
  50    .07753        0.0054        0.0001        0.8242        0.8243       0.818888       1.86958
  49    .09103        0.0053        0.0002        0.8207        0.8209       0.815565       2.07735
  48    0.1069        0.0052        0.0002        0.8162        0.8164       0.811206       2.32022
  47    0.1255        0.0051        0.0004        0.8103        0.8106       0.805492       2.59050
  46    0.1487        0.0050        0.0005        0.8018        0.8023       0.797256       3.00199
  45    0.1794        0.0049        0.0007        0.7889        0.7896       0.784700       3.44707
  44    0.2165        0.0047        0.0009        0.7720        0.7729       0.768192       3.75519
  43    0.2613        0.0045        0.0011        0.7500        0.7511       0.746638       4.06279
  42    0.3336        0.0042        0.0015        0.7106        0.7121       0.707947       4.51097
  41    0.4307        0.0038        0.0019        0.6566        0.6584       0.654649       4.63414
  40    0.5894        0.0033        0.0024        0.5680        0.5704       0.567135       4.65388
  39     1.339        0.0018        0.0030        0.2422        0.2452       0.243347       3.64527
  38     1.782        0.0014        0.0026        0.1493        0.1519       0.150485       1.76794
  37     2.292        0.0012        0.0022        0.0924        0.0946       0.093441       0.94480
  36     2.964        0.0006        0.0022        0.0532        0.0554       0.054803       0.48502
  35     3.853        0.0003        0.0017        0.0289        0.0306       0.030284       0.23269
  34     5.035        0.0002        0.0012        0.0151        0.0163       0.016094       0.10137
  33     6.613        0.0001        0.0008        0.0072        0.0080       0.007899       0.04381
  32     8.786        0.0000        0.0005        0.0029        0.0034       0.003406       0.01745
  31     11.80        0.0000        0.0003        0.0009        0.0012       0.001218       0.00612
  30     15.07        0.0000        0.0002        0.0003        0.0005       0.000477       0.00191
  29     18.79        0.0000        0.0001        0.0001        0.0002       0.000190       0.00065
  28     23.16        0.0000        0.0000        0.0000        0.0001       0.000075       0.00022
  27     28.12        0.0000        0.0000        0.0000        0.0000       0.000030       0.00008
  26     33.73        0.0000        0.0000        0.0000        0.0000       0.000012       0.00003
  25     40.54        0.0000        0.0000        0.0000        0.0000       0.000005       0.00001
  24     48.69        0.0000        0.0000        0.0000        0.0000       0.000002       0.00000
  23     57.69        0.0000        0.0000        0.0000        0.0000       0.000001       0.00000
  22     68.43        0.0000        0.0000        0.0000        0.0000       0.000000       0.00000
  21     81.20        0.0000        0.0000        0.0000        0.0000       0.000000       0.00000
  20     96.49        0.0000        0.0000        0.0000        0.0000       0.000000       0.00000
  19     114.6        0.0000        0.0000        0.0000        0.0000       0.000000       0.00000
  18     136.5        0.0000        0.0000        0.0000        0.0000       0.000000       0.00000
  17     162.9        0.0000        0.0000        0.0000        0.0000       0.000000       0.00000
  16     196.4        0.0000        0.0000        0.0000        0.0000       0.000000       0.00000
  15     218.7        0.0000        0.0000        0.0000        0.0000       0.000000       0.00000
  14     243.0        0.0000        0.0000        0.0000        0.0000       0.000000       0.00000
  13     269.0        0.0000        0.0000        0.0000        0.0000       0.000000       0.00000
  12     297.5        0.0000        0.0000        0.0000        0.0000       0.000000       0.00000
  11     328.5        0.0000        0.0000        0.0000        0.0000       0.000000       0.00000
  10     361.9        0.0000        0.0000        0.0000        0.0000       0.000000       0.00000
   9     398.1        0.0000        0.0000        0.0000        0.0000       0.000000       0.00000
   8     437.6        0.0000        0.0000        0.0000        0.0000       0.000000       0.00000
   7     480.5        0.0000        0.0000        0.0000        0.0000       0.000000       0.00000
   6     533.0        0.0000        0.0000        0.0000        0.0000       0.000000       0.00000
   5     589.8        0.0000        0.0000        0.0000        0.0000       0.000000       0.00000
   4     651.6        0.0000        0.0000        0.0000        0.0000       0.000000       0.00000
   3     718.7        0.0000        0.0000        0.0000        0.0000       0.000000       0.00000
   2     792.3        0.0000        0.0000        0.0000        0.0000       0.000000       0.00000
   1     891.5        0.0000        0.0000        0.0000        0.0000       0.000000       0.00000
   0    1013.0        0.0000        0.0000        0.0000        0.0000       0.000000       0.00000



 Wavenumbers:   820. -  2600. cm-1, ATM      1
 LEVEL PRESSURE   UPWARD FLUX   DIFDOWN FLUX  DIRDOWN FLUX  DOWNWARD FLUX   NET FLUX    HEATING RATE
          mb          W/m2          W/m2          W/m2        W/m2          W/m2       degree/day
  51    .06700        0.0823        0.0000        3.8670        3.8670       3.784710       0.00000
  50    .07753        0.0823        0.0000        3.8644        3.8644       3.782112       2.08287
  49    .09103        0.0823        0.0000        3.8638        3.8638       3.781442       0.41878
  48    0.1069        0.0823        0.0000        3.8630        3.8630       3.780692       0.39874
  47    0.1255        0.0823        0.0000        3.8622        3.8622       3.779879       0.36879
  46    0.1487        0.0823        0.0000        3.8613        3.8613       3.778952       0.33798
  45    0.1794        0.0823        0.0000        3.8602        3.8602       3.777843       0.30446
  44    0.2165        0.0823        0.0000        3.8590        3.8590       3.776708       0.25804
  43    0.2613        0.0823        0.0000        3.8579        3.8579       3.775549       0.21851
  42    0.3336        0.0823        0.0000        3.8562        3.8562       3.773864       0.19646
  41    0.4307        0.0823        0.0000        3.8540        3.8540       3.771699       0.18827
  40    0.5894        0.0823        0.0000        3.8505        3.8505       3.768211       0.18550
  39     1.339        0.0823        0.0000        3.8352        3.8352       3.752861       0.17281
  38     1.782        0.0823        0.0000        3.8267        3.8267       3.744382       0.16143
  37     2.292        0.0823        0.0000        3.8172        3.8172       3.734863       0.15766
  36     2.964        0.0925        0.0000        0.7925        0.7925       0.700075      38.09575
  35     3.853        0.0966        0.0000        0.7217        0.7217       0.625101       0.71152
  34     5.035        0.0987        0.0000        0.6932        0.6932       0.594445       0.21900
  33     6.613        0.0998        0.0000        0.6792        0.6792       0.579382       0.08053
  32     8.786        0.1005        0.0000        0.6718        0.6718       0.571336       0.03125
  31     11.80        0.1009        0.0000        0.6672        0.6672       0.566374       0.01389
  30     15.07        0.1011        0.0000        0.6648        0.6648       0.563699       0.00691
  29     18.79        0.1012        0.0000        0.6632        0.6632       0.561987       0.00388
  28     23.16        0.1013        0.0000        0.6620        0.6620       0.560702       0.00249
  27     28.12        0.1014        0.0000        0.6611        0.6611       0.559748       0.00162
  26     33.73        0.1014        0.0000        0.6605        0.6605       0.559033       0.00107
  25     40.54        0.1015        0.0000        0.6599        0.6599       0.558427       0.00075
  24     48.69        0.1015        0.0000        0.6594        0.6594       0.557847       0.00060
  23     57.69        0.1016        0.0000        0.6589        0.6589       0.557312       0.00050
  22     68.43        0.1016        0.0000        0.6584        0.6584       0.556773       0.00042
  21     81.20        0.1017        0.0000        0.6579        0.6579       0.556229       0.00036
  20     96.49        0.1017        0.0000        0.6574        0.6574       0.555680       0.00030
  19     114.6        0.1018        0.0000        0.6569        0.6569       0.555160       0.00024
  18     136.5        0.1018        0.0000        0.6564        0.6564       0.554615       0.00021
  17     162.9        0.1018        0.0000        0.6559        0.6560       0.554111       0.00016
  16     196.4        0.1019        0.0000        0.6556        0.6556       0.553699       0.00010
  15     218.7        0.1019        0.0000        0.6554        0.6554       0.553562       0.00005
  14     243.0        0.1019        0.0000        0.6553        0.6554       0.553459       0.00004
  13     269.0        0.1019        0.0000        0.6553        0.6553       0.553370       0.00003
  12     297.5        0.1019        0.0000        0.6552        0.6552       0.553265       0.00003
  11     328.5        0.1019        0.0000        0.6550        0.6550       0.553110       0.00004
  10     361.9        0.1019        0.0000        0.6548        0.6548       0.552859       0.00006
   9     398.1        0.1020        0.0000        0.6544        0.6544       0.552451       0.00010
   8     437.6        0.1020        0.0000        0.6538        0.6538       0.551801       0.00014
   7     480.5        0.1021        0.0000        0.6529        0.6529       0.550802       0.00020
   6     533.0        0.1023        0.0000        0.6512        0.6512       0.548959       0.00030
   5     589.8        0.1025        0.0000        0.6486        0.6486       0.546153       0.00042
   4     651.6        0.1029        0.0000        0.6442        0.6442       0.541298       0.00066
   3     718.7        0.1036        0.0000        0.6369        0.6369       0.533282       0.00101
   2     792.3        0.1047        0.0000        0.6255        0.6255       0.520854       0.00143
   1     891.5        0.1069        0.0000        0.6039        0.6039       0.497077       0.00202
   0    1013.0        0.1107        0.0000        0.5689        0.5689       0.458281       0.00269

  Modules and versions used in this calculation:

       rrtmg_sw.1col.f90:  $Revision$                    rrtmg_sw_init.f90:  $Revision$        
     rrtmgsw_cldprop.f90:  $Revision$                  rrtmgsw_cldprmc.f90:  NOT USED          
     rrtmg_sw_reftra.f90:  $Revision$                  rrtmg_sw_spcvrt.f90:  NOT USED          
     rrtmg_sw_spcvmc.f90:  NOT USED                    rrtmgsw_setcoef.f90:  NOT USED          
     rrtmg_sw_taumol.f90:  $Revision$                  rrtmg_sw_vrtqdr.f90:  NOT USED          
                rrtatm.f:  NOT USED                             util_xxx.f:  NOT USED          
                 extra.f:  NOT USED                       rrtmg_sw_k_g.f90:  $Revision$        

