

 Wavenumbers:   820. - 50000. cm-1, ATM      1
 LEVEL PRESSURE   UPWARD FLUX   DIFDOWN FLUX  DIRDOWN FLUX  DOWNWARD FLUX   NET FLUX    HEATING RATE
          mb          W/m2          W/m2          W/m2        W/m2          W/m2       degree/day
  51    .06700      176.0573        0.0000      397.8738      397.8738     221.816480       0.00000
  50    .07753      176.0567        0.0012      397.8580      397.8591     221.802420      11.26900
  49    .09103      176.0559        0.0026      397.8425      397.8451     221.789140       8.30067
  48    0.1069      176.0551        0.0043      397.8240      397.8283     221.773224       8.47205
  47    0.1255      176.0541        0.0062      397.8011      397.8073     221.753232       9.06322
  46    0.1487      176.0529        0.0086      397.7696      397.7782     221.725335      10.16882
  45    0.1794      176.0513        0.0119      397.7232      397.7351     221.683759      11.41356
  44    0.2165      176.0495        0.0158      397.6637      397.6794     221.629898      12.25239
  43    0.2613      176.0475        0.0203      397.5872      397.6075     221.560063      13.16378
  42    0.3336      176.0443        0.0278      397.4508      397.4786     221.434351      14.65678
  41    0.4307      176.0403        0.0377      397.2602      397.2979     221.257625      15.36587
  40    0.5894      176.0344        0.0536      396.9364      396.9900     220.955535      16.06478
  39     1.339      176.0173        0.1244      395.4500      395.5744     219.557012      15.74482
  38     1.782      176.0145        0.1641      394.7602      394.9242     218.909762      12.32260
  37     2.292      176.0175        0.2092      394.0950      394.3042     218.286689      10.31972
  36     2.964      175.9834        0.3768      381.1168      381.4935     205.510079     160.38507
  35     3.853      175.9963        0.4923      378.9628      379.4551     203.458763      19.46737
  34     5.035      176.0400        0.6103      377.3917      378.0019     201.961933      10.69273
  33     6.613      176.1113        0.7515      375.9774      376.7289     200.617583       7.18690
  32     8.786      176.2054        0.9331      374.5671      375.5002     199.294812       5.13716
  31     11.80      176.3207        1.1873      372.9921      374.1794     197.858762       4.02049
  30     15.07      176.4206        1.4566      371.5886      373.0452     196.624677       3.18617
  29     18.79      176.5120        1.7580      370.2005      371.9584     195.446424       2.67146
  28     23.16      176.5939        2.1068      368.7501      370.8569     194.262965       2.28843
  27     28.12      176.6584        2.5024      367.2596      369.7620     193.103622       1.97081
  26     33.73      176.6874        2.9417      365.7807      368.7224     192.034983       1.60673
  25     40.54      176.6727        3.4687      364.1892      367.6579     190.985124       1.30247
  24     48.69      176.6075        4.0983      362.4480      366.5463     189.938775       1.08281
  23     57.69      176.4903        4.7833      360.6975      365.4808     188.990505       0.88886
  22     68.43      176.3020        5.5908      358.7827      364.3735     188.071465       0.72249
  21     81.20      176.0102        6.5425      356.7203      363.2629     187.252676       0.54104
  20     96.49      175.6017        7.6620      354.4707      362.1328     186.531090       0.39826
  19     114.6      175.1013        8.9689      351.5171      360.4860     185.384669       0.53530
  18     136.5      174.4956       10.4861      348.3486      358.8347     184.339089       0.40205
  17     162.9      173.7679       12.2498      344.8315      357.0813     183.313359       0.32786
  16     196.4      172.8008       14.4723      340.5872      355.0595     182.258680       0.26548
  15     218.7      172.1629       15.8929      337.9380      353.8309     181.668025       0.22425
  14     243.0      171.4740       17.4037      335.1459      352.5496     181.075587       0.20548
  13     269.0      170.7335       19.0032      332.1942      351.1974     180.463938       0.19842
  12     297.5      169.9417       20.6891      329.0192      349.7083     179.766599       0.20682
  11     328.5      169.1015       22.4631      325.4879      347.9510     178.849568       0.24934
  10     361.9      168.2154       24.3194      321.4626      345.7820     177.566592       0.32461
   9     398.1      167.2840       26.2579      316.7999      343.0578     175.773788       0.41768
   8     437.6      166.3117       28.2731      311.3667      339.6397     173.328015       0.52292
   7     480.5      165.3030       30.3606      305.0480      335.4087     170.105624       0.63287
   6     533.0      164.1144       32.8315      296.7188      329.5503     165.435871       0.75121
   5     589.8      162.9019       35.3799      287.6290      323.0089     160.106933       0.79099
   4     651.6      161.6837       37.9950      278.0843      316.0793     154.395600       0.78104
   3     718.7      160.4845       40.6666      268.2158      308.8825     148.397962       0.75374
   2     792.3      159.3427       43.3787      258.0166      301.3953     142.052632       0.72774
   1     891.5      158.0695       46.8132      244.9198      291.7329     133.663466       0.71388
   0    1013.0      157.0805       50.6183      230.1651      280.7834     123.702953       0.69161



 Wavenumbers:  2600. -  3250. cm-1, ATM      1
 LEVEL PRESSURE   UPWARD FLUX   DIFDOWN FLUX  DIRDOWN FLUX  DOWNWARD FLUX   NET FLUX    HEATING RATE
          mb          W/m2          W/m2          W/m2        W/m2          W/m2       degree/day
  51    .06700        0.2896        0.0000        3.5066        3.5066       3.217016       0.00000
  50    .07753        0.2896        0.0000        3.5066        3.5066       3.217008       0.00640
  49    .09103        0.2896        0.0000        3.5066        3.5066       3.216998       0.00627
  48    0.1069        0.2896        0.0000        3.5066        3.5066       3.216986       0.00613
  47    0.1255        0.2896        0.0000        3.5066        3.5066       3.216973       0.00599
  46    0.1487        0.2896        0.0000        3.5066        3.5066       3.216956       0.00607
  45    0.1794        0.2896        0.0000        3.5065        3.5065       3.216933       0.00624
  44    0.2165        0.2896        0.0000        3.5065        3.5065       3.216907       0.00611
  43    0.2613        0.2896        0.0000        3.5065        3.5065       3.216875       0.00598
  42    0.3336        0.2896        0.0000        3.5064        3.5064       3.216822       0.00615
  41    0.4307        0.2896        0.0000        3.5064        3.5064       3.216751       0.00617
  40    0.5894        0.2896        0.0000        3.5062        3.5062       3.216632       0.00633
  39     1.339        0.2896        0.0000        3.5055        3.5055       3.215933       0.00787
  38     1.782        0.2896        0.0000        3.5050        3.5050       3.215402       0.01010
  37     2.292        0.2896        0.0000        3.5043        3.5043       3.214710       0.01147
  36     2.964        0.2896        0.0000        3.5033        3.5033       3.213720       0.01243
  35     3.853        0.2896        0.0000        3.5019        3.5019       3.212342       0.01307
  34     5.035        0.2896        0.0000        3.5001        3.5001       3.210479       0.01331
  33     6.613        0.2896        0.0000        3.4977        3.4977       3.208066       0.01290
  32     8.786        0.2896        0.0000        3.4947        3.4947       3.205087       0.01157
  31     11.80        0.2896        0.0000        3.4910        3.4910       3.201444       0.01020
  30     15.07        0.2896        0.0000        3.4878        3.4878       3.198215       0.00834
  29     18.79        0.2896        0.0000        3.4847        3.4847       3.195137       0.00698
  28     23.16        0.2896        0.0000        3.4815        3.4815       3.191895       0.00627
  27     28.12        0.2896        0.0000        3.4778        3.4779       3.188251       0.00619
  26     33.73        0.2896        0.0000        3.4733        3.4734       3.183756       0.00676
  25     40.54        0.2896        0.0000        3.4670        3.4670       3.177396       0.00789
  24     48.69        0.2896        0.0000        3.4580        3.4580       3.168440       0.00927
  23     57.69        0.2896        0.0000        3.4469        3.4469       3.157301       0.01044
  22     68.43        0.2896        0.0000        3.4324        3.4325       3.142869       0.01135
  21     81.20        0.2896        0.0000        3.4145        3.4146       3.124943       0.01185
  20     96.49        0.2896        0.0000        3.3932        3.3932       3.103599       0.01178
  19     114.6        0.2897        0.0000        3.3385        3.3386       3.048871       0.02555
  18     136.5        0.2898        0.0001        3.2926        3.2927       3.002898       0.01768
  17     162.9        0.2899        0.0001        3.2534        3.2535       2.963581       0.01257
  16     196.4        0.2900        0.0001        3.2150        3.2150       2.924995       0.00971
  15     218.7        0.2901        0.0001        3.1935        3.1935       2.903410       0.00820
  14     243.0        0.2903        0.0001        3.1719        3.1719       2.881679       0.00754
  13     269.0        0.2904        0.0001        3.1489        3.1490       2.858548       0.00750
  12     297.5        0.2906        0.0001        3.1217        3.1218       2.831207       0.00811
  11     328.5        0.2909        0.0001        3.0864        3.0865       2.795661       0.00966
  10     361.9        0.2912        0.0001        3.0385        3.0386       2.747376       0.01222
   9     398.1        0.2917        0.0001        2.9736        2.9738       2.682020       0.01523
   8     437.6        0.2925        0.0001        2.8877        2.8878       2.595359       0.01853
   7     480.5        0.2935        0.0002        2.7772        2.7774       2.483882       0.02189
   6     533.0        0.2953        0.0002        2.6210        2.6212       2.325890       0.02542
   5     589.8        0.2978        0.0002        2.4493        2.4495       2.151668       0.02586
   4     651.6        0.3015        0.0002        2.2711        2.2713       1.969759       0.02488
   3     718.7        0.3068        0.0002        2.0871        2.0873       1.780451       0.02379
   2     792.3        0.3144        0.0002        1.8948        1.8950       1.580518       0.02293
   1     891.5        0.3288        0.0002        1.6517        1.6519       1.323089       0.02191
   0    1013.0        0.3560        0.0002        1.3953        1.3955       1.039561       0.01969



 Wavenumbers:  3250. -  4000. cm-1, ATM      1
 LEVEL PRESSURE   UPWARD FLUX   DIFDOWN FLUX  DIRDOWN FLUX  DOWNWARD FLUX   NET FLUX    HEATING RATE
          mb          W/m2          W/m2          W/m2        W/m2          W/m2       degree/day
  51    .06700        0.0025        0.0000        5.9117        5.9117       5.909172       0.00000
  50    .07753        0.0025        0.0000        5.9075        5.9075       5.905010       3.33612
  49    .09103        0.0025        0.0000        5.9052        5.9052       5.902721       1.43071
  48    0.1069        0.0025        0.0000        5.9035        5.9035       5.901008       0.91191
  47    0.1255        0.0025        0.0000        5.9019        5.9019       5.899388       0.73438
  46    0.1487        0.0025        0.0000        5.9001        5.9001       5.897653       0.63248
  45    0.1794        0.0025        0.0000        5.8982        5.8982       5.895676       0.54264
  44    0.2165        0.0025        0.0000        5.8962        5.8962       5.893728       0.44317
  43    0.2613        0.0025        0.0000        5.8943        5.8943       5.891779       0.36742
  42    0.3336        0.0025        0.0000        5.8915        5.8915       5.889023       0.32132
  41    0.4307        0.0025        0.0000        5.8881        5.8881       5.885649       0.29332
  40    0.5894        0.0025        0.0000        5.8830        5.8830       5.880543       0.27154
  39     1.339        0.0025        0.0000        5.8641        5.8641       5.861623       0.21300
  38     1.782        0.0025        0.0000        5.8561        5.8561       5.853633       0.15212
  37     2.292        0.0025        0.0000        5.8483        5.8483       5.845846       0.12897
  36     2.964        0.0025        0.0000        3.1846        3.1846       3.182089      33.43820
  35     3.853        0.0025        0.0000        2.8921        2.8921       2.889616       2.77562
  34     5.035        0.0025        0.0000        2.7474        2.7475       2.744946       1.03346
  33     6.613        0.0025        0.0000        2.6618        2.6618       2.659286       0.45794
  32     8.786        0.0025        0.0000        2.6054        2.6054       2.602912       0.21893
  31     11.80        0.0025        0.0000        2.5618        2.5618       2.559249       0.12224
  30     15.07        0.0025        0.0000        2.5323        2.5323       2.529837       0.07594
  29     18.79        0.0025        0.0000        2.5092        2.5093       2.506746       0.05235
  28     23.16        0.0025        0.0000        2.4882        2.4882       2.485718       0.04066
  27     28.12        0.0025        0.0000        2.4694        2.4694       2.466886       0.03201
  26     33.73        0.0025        0.0000        2.4524        2.4524       2.449901       0.02554
  25     40.54        0.0025        0.0000        2.4350        2.4350       2.432529       0.02155
  24     48.69        0.0025        0.0000        2.4152        2.4152       2.412703       0.02052
  23     57.69        0.0025        0.0000        2.3937        2.3938       2.391283       0.02008
  22     68.43        0.0025        0.0000        2.3688        2.3689       2.366373       0.01958
  21     81.20        0.0025        0.0001        2.3403        2.3404       2.337898       0.01882
  20     96.49        0.0025        0.0001        2.3080        2.3081       2.305621       0.01781
  19     114.6        0.0025        0.0001        2.2716        2.2717       2.269203       0.01700
  18     136.5        0.0025        0.0001        2.2312        2.2312       2.228781       0.01554
  17     162.9        0.0024        0.0001        2.1868        2.1869       2.184421       0.01418
  16     196.4        0.0024        0.0001        2.1344        2.1345       2.132079       0.01318
  15     218.7        0.0024        0.0001        2.1028        2.1029       2.100475       0.01200
  14     243.0        0.0024        0.0001        2.0706        2.0707       2.068320       0.01115
  13     269.0        0.0024        0.0001        2.0360        2.0361       2.033716       0.01123
  12     297.5        0.0024        0.0002        1.9917        1.9919       1.989475       0.01312
  11     328.5        0.0024        0.0002        1.9262        1.9264       1.923988       0.01781
  10     361.9        0.0024        0.0002        1.8295        1.8296       1.827265       0.02447
   9     398.1        0.0024        0.0002        1.6980        1.6982       1.695798       0.03063
   8     437.6        0.0024        0.0002        1.5329        1.5331       1.530712       0.03530
   7     480.5        0.0024        0.0002        1.3382        1.3384       1.336016       0.03824
   6     533.0        0.0025        0.0002        1.0925        1.0927       1.090214       0.03954
   5     589.8        0.0027        0.0002        0.8461        0.8462       0.843563       0.03661
   4     651.6        0.0029        0.0001        0.6114        0.6115       0.608539       0.03214
   3     718.7        0.0035        0.0001        0.4084        0.4085       0.404995       0.02558
   2     792.3        0.0045        0.0001        0.2453        0.2454       0.240850       0.01883
   1     891.5        0.0076        0.0000        0.1002        0.1002       0.092687       0.01261
   0    1013.0        0.0192        0.0000        0.0203        0.0203       0.001062       0.00636



 Wavenumbers:  4000. -  4650. cm-1, ATM      1
 LEVEL PRESSURE   UPWARD FLUX   DIFDOWN FLUX  DIRDOWN FLUX  DOWNWARD FLUX   NET FLUX    HEATING RATE
          mb          W/m2          W/m2          W/m2        W/m2          W/m2       degree/day
  51    .06700        0.6870        0.0000        6.9421        6.9421       6.255073       0.00000
  50    .07753        0.6870        0.0000        6.9421        6.9421       6.255072       0.00080
  49    .09103        0.6870        0.0000        6.9421        6.9421       6.255070       0.00079
  48    0.1069        0.6870        0.0000        6.9421        6.9421       6.255069       0.00077
  47    0.1255        0.6870        0.0000        6.9421        6.9421       6.255067       0.00075
  46    0.1487        0.6870        0.0000        6.9421        6.9421       6.255065       0.00076
  45    0.1794        0.6870        0.0000        6.9421        6.9421       6.255062       0.00078
  44    0.2165        0.6870        0.0000        6.9421        6.9421       6.255059       0.00077
  43    0.2613        0.6870        0.0000        6.9421        6.9421       6.255055       0.00075
  42    0.3336        0.6870        0.0000        6.9420        6.9420       6.255048       0.00077
  41    0.4307        0.6870        0.0000        6.9420        6.9420       6.255039       0.00078
  40    0.5894        0.6870        0.0000        6.9420        6.9420       6.255024       0.00080
  39     1.339        0.6870        0.0000        6.9419        6.9419       6.254934       0.00101
  38     1.782        0.6870        0.0000        6.9418        6.9419       6.254864       0.00134
  37     2.292        0.6870        0.0000        6.9418        6.9418       6.254770       0.00156
  36     2.964        0.6870        0.0000        6.9416        6.9416       6.254629       0.00177
  35     3.853        0.6870        0.0000        6.9414        6.9414       6.254421       0.00198
  34     5.035        0.6870        0.0000        6.9411        6.9411       6.254113       0.00220
  33     6.613        0.6870        0.0000        6.9406        6.9406       6.253660       0.00242
  32     8.786        0.6870        0.0000        6.9399        6.9400       6.252993       0.00259
  31     11.80        0.6870        0.0001        6.9388        6.9389       6.251947       0.00293
  30     15.07        0.6869        0.0001        6.9376        6.9377       6.250724       0.00316
  29     18.79        0.6869        0.0001        6.9361        6.9362       6.249249       0.00334
  28     23.16        0.6869        0.0001        6.9342        6.9343       6.247425       0.00353
  27     28.12        0.6869        0.0001        6.9320        6.9321       6.245226       0.00374
  26     33.73        0.6869        0.0001        6.9293        6.9294       6.242527       0.00406
  25     40.54        0.6869        0.0002        6.9256        6.9258       6.238886       0.00452
  24     48.69        0.6868        0.0002        6.9207        6.9209       6.234067       0.00499
  23     57.69        0.6868        0.0002        6.9150        6.9152       6.228392       0.00532
  22     68.43        0.6868        0.0003        6.9079        6.9081       6.221334       0.00555
  21     81.20        0.6868        0.0003        6.8992        6.8995       6.212706       0.00570
  20     96.49        0.6867        0.0004        6.8887        6.8890       6.202279       0.00575
  19     114.6        0.6868        0.0004        6.8578        6.8582       6.171393       0.01442
  18     136.5        0.6869        0.0005        6.8304        6.8309       6.143997       0.01053
  17     162.9        0.6870        0.0006        6.8009        6.8014       6.114485       0.00943
  16     196.4        0.6871        0.0007        6.7648        6.7655       6.078420       0.00908
  15     218.7        0.6872        0.0008        6.7419        6.7427       6.055487       0.00871
  14     243.0        0.6874        0.0009        6.7175        6.7184       6.031048       0.00848
  13     269.0        0.6875        0.0010        6.6910        6.6920       6.004493       0.00861
  12     297.5        0.6877        0.0011        6.6605        6.6616       5.973883       0.00908
  11     328.5        0.6881        0.0012        6.6225        6.6237       5.935632       0.01040
  10     361.9        0.6885        0.0013        6.5732        6.5745       5.885967       0.01257
   9     398.1        0.6892        0.0014        6.5081        6.5095       5.820295       0.01530
   8     437.6        0.6901        0.0015        6.4247        6.4262       5.736104       0.01800
   7     480.5        0.6912        0.0016        6.3212        6.3228       5.631575       0.02053
   6     533.0        0.6930        0.0018        6.1803        6.1820       5.489032       0.02293
   5     589.8        0.6955        0.0019        6.0214        6.0233       5.327849       0.02392
   4     651.6        0.6989        0.0021        5.8348        5.8369       5.137923       0.02597
   3     718.7        0.7038        0.0022        5.6104        5.6127       4.908831       0.02879
   2     792.3        0.7109        0.0024        5.3524        5.3548       4.643877       0.03039
   1     891.5        0.7242        0.0025        5.0153        5.0179       4.293677       0.02980
   0    1013.0        0.7493        0.0027        4.6499        4.6526       3.903388       0.02710



 Wavenumbers:  4650. -  5150. cm-1, ATM      1
 LEVEL PRESSURE   UPWARD FLUX   DIFDOWN FLUX  DIRDOWN FLUX  DOWNWARD FLUX   NET FLUX    HEATING RATE
          mb          W/m2          W/m2          W/m2        W/m2          W/m2       degree/day
  51    .06700        0.4859        0.0000        6.5710        6.5710       6.085120       0.00000
  50    .07753        0.4859        0.0000        6.5708        6.5708       6.084885       0.18821
  49    .09103        0.4859        0.0000        6.5705        6.5705       6.084592       0.18296
  48    0.1069        0.4859        0.0000        6.5701        6.5701       6.084259       0.17740
  47    0.1255        0.4859        0.0000        6.5698        6.5698       6.083880       0.17172
  46    0.1487        0.4859        0.0000        6.5693        6.5693       6.083408       0.17200
  45    0.1794        0.4859        0.0000        6.5686        6.5686       6.082774       0.17402
  44    0.2165        0.4859        0.0000        6.5679        6.5679       6.082039       0.16719
  43    0.2613        0.4859        0.0000        6.5671        6.5671       6.081190       0.16013
  42    0.3336        0.4859        0.0000        6.5657        6.5657       6.079832       0.15830
  41    0.4307        0.4859        0.0000        6.5640        6.5640       6.078112       0.14952
  40    0.5894        0.4859        0.0000        6.5614        6.5614       6.075500       0.13889
  39     1.339        0.4859        0.0000        6.5516        6.5516       6.065743       0.10985
  38     1.782        0.4859        0.0000        6.5474        6.5474       6.061519       0.08042
  37     2.292        0.4859        0.0000        6.5434        6.5435       6.057599       0.06493
  36     2.964        0.4859        0.0000        6.5394        6.5394       6.053578       0.05047
  35     3.853        0.4858        0.0000        6.5354        6.5354       6.049545       0.03827
  34     5.035        0.4858        0.0000        6.5312        6.5313       6.045449       0.02927
  33     6.613        0.4858        0.0000        6.5268        6.5268       6.040973       0.02392
  32     8.786        0.4858        0.0001        6.5212        6.5212       6.035422       0.02156
  31     11.80        0.4858        0.0001        6.5130        6.5131       6.027285       0.02278
  30     15.07        0.4858        0.0001        6.5036        6.5037       6.017862       0.02433
  29     18.79        0.4858        0.0001        6.4919        6.4921       6.006287       0.02624
  28     23.16        0.4858        0.0001        6.4772        6.4774       5.991622       0.02836
  27     28.12        0.4857        0.0002        6.4592        6.4593       5.973605       0.03063
  26     33.73        0.4857        0.0002        6.4377        6.4379       5.952163       0.03224
  25     40.54        0.4857        0.0002        6.4105        6.4108       5.925068       0.03362
  24     48.69        0.4857        0.0003        6.3769        6.3772       5.891489       0.03475
  23     57.69        0.4857        0.0003        6.3398        6.3401       5.854455       0.03471
  22     68.43        0.4856        0.0004        6.2966        6.2969       5.811313       0.03392
  21     81.20        0.4856        0.0005        6.2477        6.2481       5.762505       0.03225
  20     96.49        0.4856        0.0005        6.1942        6.1947       5.709084       0.02948
  19     114.6        0.4856        0.0006        6.1283        6.1289       5.643262       0.03073
  18     136.5        0.4857        0.0007        6.0614        6.0622       5.576432       0.02570
  17     162.9        0.4858        0.0009        5.9914        5.9923       5.506483       0.02236
  16     196.4        0.4860        0.0010        5.9083        5.9093       5.423303       0.02094
  15     218.7        0.4861        0.0011        5.8555        5.8566       5.370484       0.02005
  14     243.0        0.4863        0.0012        5.7982        5.7995       5.313188       0.01987
  13     269.0        0.4865        0.0014        5.7354        5.7368       5.250321       0.02039
  12     297.5        0.4867        0.0015        5.6646        5.6661       5.179395       0.02104
  11     328.5        0.4871        0.0016        5.5825        5.5842       5.097104       0.02237
  10     361.9        0.4876        0.0018        5.4852        5.4870       4.999366       0.02473
   9     398.1        0.4883        0.0019        5.3727        5.3746       4.886258       0.02635
   8     437.6        0.4893        0.0021        5.2416        5.2437       4.754328       0.02821
   7     480.5        0.4907        0.0022        5.0910        5.0933       4.602586       0.02980
   6     533.0        0.4928        0.0024        4.8931        4.8955       4.402628       0.03217
   5     589.8        0.4958        0.0026        4.6737        4.6763       4.180448       0.03298
   4     651.6        0.5000        0.0027        4.4428        4.4455       3.945519       0.03213
   3     718.7        0.5057        0.0028        4.2035        4.2064       3.700733       0.03076
   2     792.3        0.5135        0.0030        3.9597        3.9626       3.449104       0.02886
   1     891.5        0.5278        0.0031        3.6518        3.6549       3.127096       0.02740
   0    1013.0        0.5529        0.0033        3.3154        3.3187       2.765792       0.02509



 Wavenumbers:  5150. -  6150. cm-1, ATM      1
 LEVEL PRESSURE   UPWARD FLUX   DIFDOWN FLUX  DIRDOWN FLUX  DOWNWARD FLUX   NET FLUX    HEATING RATE
          mb          W/m2          W/m2          W/m2        W/m2          W/m2       degree/day
  51    .06700        1.3124        0.0000       16.4735       16.4735      15.161108       0.00000
  50    .07753        1.3124        0.0000       16.4735       16.4735      15.161108       0.00018
  49    .09103        1.3124        0.0000       16.4735       16.4735      15.161108       0.00018
  48    0.1069        1.3124        0.0000       16.4735       16.4735      15.161107       0.00017
  47    0.1255        1.3124        0.0000       16.4735       16.4735      15.161107       0.00017
  46    0.1487        1.3124        0.0000       16.4735       16.4735      15.161106       0.00017
  45    0.1794        1.3124        0.0000       16.4735       16.4735      15.161106       0.00018
  44    0.2165        1.3124        0.0000       16.4735       16.4735      15.161105       0.00017
  43    0.2613        1.3124        0.0000       16.4735       16.4735      15.161104       0.00017
  42    0.3336        1.3124        0.0000       16.4735       16.4735      15.161103       0.00018
  41    0.4307        1.3124        0.0000       16.4735       16.4735      15.161101       0.00018
  40    0.5894        1.3124        0.0000       16.4735       16.4735      15.161097       0.00018
  39     1.339        1.3124        0.0000       16.4734       16.4734      15.161077       0.00023
  38     1.782        1.3124        0.0000       16.4734       16.4734      15.161060       0.00031
  37     2.292        1.3123        0.0001       16.4733       16.4734      15.161039       0.00036
  36     2.964        1.3129        0.0001       14.0703       14.0704      12.757418      30.17270
  35     3.853        1.3133        0.0001       13.7228       13.7229      12.409672       3.30018
  34     5.035        1.3134        0.0001       13.5528       13.5530      12.239526       1.21545
  33     6.613        1.3136        0.0002       13.4522       13.4524      12.138838       0.53828
  32     8.786        1.3136        0.0002       13.3858       13.3860      12.072377       0.25811
  31     11.80        1.3137        0.0003       13.3341       13.3344      12.020751       0.14454
  30     15.07        1.3137        0.0004       13.2993       13.2996      11.985949       0.08985
  29     18.79        1.3137        0.0004       13.2719       13.2723      11.958645       0.06191
  28     23.16        1.3137        0.0005       13.2470       13.2475      11.933834       0.04798
  27     28.12        1.3136        0.0006       13.2247       13.2254      11.911723       0.03759
  26     33.73        1.3136        0.0007       13.2047       13.2054      11.891846       0.02989
  25     40.54        1.3135        0.0009       13.1841       13.1850      11.871490       0.02525
  24     48.69        1.3135        0.0011       13.1605       13.1615      11.848050       0.02426
  23     57.69        1.3134        0.0012       13.1346       13.1358      11.822372       0.02407
  22     68.43        1.3134        0.0015       13.1040       13.1054      11.792019       0.02386
  21     81.20        1.3133        0.0017       13.0680       13.0698      11.756411       0.02353
  20     96.49        1.3133        0.0020       13.0264       13.0284      11.715153       0.02277
  19     114.6        1.3132        0.0024       12.9788       12.9812      11.668032       0.02200
  18     136.5        1.3131        0.0028       12.9260       12.9288      11.615726       0.02011
  17     162.9        1.3130        0.0034       12.8694       12.8728      11.559788       0.01788
  16     196.4        1.3128        0.0040       12.8063       12.8103      11.497535       0.01567
  15     218.7        1.3126        0.0045       12.7709       12.7754      11.462754       0.01321
  14     243.0        1.3124        0.0049       12.7346       12.7395      11.427121       0.01236
  13     269.0        1.3122        0.0055       12.6944       12.6999      11.387706       0.01279
  12     297.5        1.3120        0.0060       12.6406       12.6466      11.334610       0.01575
  11     328.5        1.3117        0.0066       12.5543       12.5609      11.249129       0.02324
  10     361.9        1.3116        0.0072       12.4111       12.4183      11.106736       0.03603
   9     398.1        1.3115        0.0078       12.1862       12.1941      10.882556       0.05223
   8     437.6        1.3115        0.0084       11.8589       11.8673      10.555759       0.06987
   7     480.5        1.3118        0.0090       11.4232       11.4321      10.120309       0.08552
   6     533.0        1.3126        0.0095       10.8274       10.8369       9.524326       0.09587
   5     589.8        1.3141        0.0100       10.2407       10.2507       8.936658       0.08723
   4     651.6        1.3167        0.0105        9.7321        9.7426       8.425938       0.06984
   3     718.7        1.3211        0.0111        9.3126        9.3237       8.002585       0.05320
   2     792.3        1.3285        0.0118        8.9464        8.9582       7.629705       0.04277
   1     891.5        1.3444        0.0126        8.4949        8.5076       7.163223       0.03970
   0    1013.0        1.3795        0.0136        7.9693        7.9829       6.603424       0.03887



 Wavenumbers:  6150. -  7700. cm-1, ATM      1
 LEVEL PRESSURE   UPWARD FLUX   DIFDOWN FLUX  DIRDOWN FLUX  DOWNWARD FLUX   NET FLUX    HEATING RATE
          mb          W/m2          W/m2          W/m2        W/m2          W/m2       degree/day
  51    .06700        2.0878        0.0000       30.4684       30.4684      28.380622       0.00000
  50    .07753        2.0878        0.0000       30.4684       30.4684      28.380606       0.01303
  49    .09103        2.0878        0.0000       30.4683       30.4683      28.380585       0.01277
  48    0.1069        2.0878        0.0000       30.4683       30.4683      28.380562       0.01250
  47    0.1255        2.0878        0.0000       30.4683       30.4683      28.380535       0.01223
  46    0.1487        2.0878        0.0000       30.4682       30.4683      28.380501       0.01241
  45    0.1794        2.0877        0.0000       30.4682       30.4682      28.380454       0.01276
  44    0.2165        2.0877        0.0000       30.4681       30.4681      28.380399       0.01252
  43    0.2613        2.0877        0.0000       30.4681       30.4681      28.380334       0.01228
  42    0.3336        2.0877        0.0000       30.4679       30.4680      28.380226       0.01256
  41    0.4307        2.0877        0.0000       30.4678       30.4678      28.380084       0.01241
  40    0.5894        2.0877        0.0001       30.4675       30.4676      28.379851       0.01239
  39     1.339        2.0876        0.0001       30.4662       30.4664      28.378751       0.01238
  38     1.782        2.0876        0.0002       30.4655       30.4657      28.378106       0.01227
  37     2.292        2.0875        0.0002       30.4647       30.4649      28.377361       0.01234
  36     2.964        2.0882        0.0004       26.5347       26.5351      24.446852      49.33977
  35     3.853        2.0885        0.0005       25.9836       25.9842      23.895613       5.23136
  34     5.035        2.0887        0.0006       25.7193       25.7200      23.631264       1.88840
  33     6.613        2.0888        0.0008       25.5669       25.5677      23.478913       0.81447
  32     8.786        2.0887        0.0010       25.4685       25.4695      23.380768       0.38116
  31     11.80        2.0885        0.0013       25.3937       25.3950      23.306425       0.20813
  30     15.07        2.0883        0.0016       25.3443       25.3458      23.257487       0.12635
  29     18.79        2.0881        0.0019       25.3061       25.3080      23.219881       0.08527
  28     23.16        2.0878        0.0023       25.2718       25.2741      23.186315       0.06491
  27     28.12        2.0874        0.0027       25.2416       25.2444      23.156987       0.04985
  26     33.73        2.0870        0.0032       25.2151       25.2183      23.131335       0.03857
  25     40.54        2.0864        0.0038       25.1886       25.1924      23.105977       0.03146
  24     48.69        2.0858        0.0046       25.1589       25.1635      23.077657       0.02931
  23     57.69        2.0851        0.0054       25.1270       25.1324      23.047334       0.02842
  22     68.43        2.0843        0.0063       25.0900       25.0964      23.012092       0.02770
  21     81.20        2.0833        0.0075       25.0469       25.0544      22.971128       0.02707
  20     96.49        2.0821        0.0088       24.9969       25.0057      22.923614       0.02622
  19     114.6        2.0807        0.0104       24.9385       24.9489      22.868263       0.02584
  18     136.5        2.0790        0.0123       24.8713       24.8836      22.804640       0.02446
  17     162.9        2.0770        0.0146       24.7937       24.8083      22.731337       0.02343
  16     196.4        2.0744        0.0175       24.6966       24.7141      22.639771       0.02305
  15     218.7        2.0727        0.0195       24.6347       24.6542      22.581482       0.02213
  14     243.0        2.0708        0.0215       24.5688       24.5903      22.519518       0.02149
  13     269.0        2.0688        0.0238       24.4944       24.5182      22.449386       0.02275
  12     297.5        2.0667        0.0262       24.3937       24.4200      22.353319       0.02849
  11     328.5        2.0644        0.0288       24.2312       24.2600      22.195564       0.04289
  10     361.9        2.0622        0.0315       23.9597       23.9912      21.929030       0.06744
   9     398.1        2.0600        0.0342       23.5284       23.5626      21.502529       0.09937
   8     437.6        2.0582        0.0368       22.8875       22.9243      20.866177       0.13606
   7     480.5        2.0569        0.0392       22.0003       22.0395      19.982635       0.17352
   6     533.0        2.0566        0.0415       20.7079       20.7494      18.692732       0.20750
   5     589.8        2.0584        0.0433       19.3090       19.3523      17.293891       0.20763
   4     651.6        2.0634        0.0449       17.9289       17.9738      15.910392       0.18920
   3     718.7        2.0734        0.0463       16.6157       16.6619      14.588543       0.16612
   2     792.3        2.0913        0.0475       15.3753       15.4228      13.331427       0.14418
   1     891.5        2.1316        0.0490       13.9739       14.0229      11.891273       0.12255
   0    1013.0        2.2212        0.0506       12.5881       12.6387      10.417418       0.10234



 Wavenumbers:  7700. -  8050. cm-1, ATM      1
 LEVEL PRESSURE   UPWARD FLUX   DIFDOWN FLUX  DIRDOWN FLUX  DOWNWARD FLUX   NET FLUX    HEATING RATE
          mb          W/m2          W/m2          W/m2        W/m2          W/m2       degree/day
  51    .06700        1.0418        0.0000        7.2006        7.2006       6.158815       0.00000
  50    .07753        1.0418        0.0000        7.2006        7.2006       6.158796       0.01476
  49    .09103        1.0418        0.0000        7.2005        7.2005       6.158773       0.01446
  48    0.1069        1.0418        0.0000        7.2005        7.2005       6.158746       0.01416
  47    0.1255        1.0418        0.0000        7.2005        7.2005       6.158716       0.01386
  46    0.1487        1.0418        0.0000        7.2004        7.2005       6.158677       0.01406
  45    0.1794        1.0418        0.0000        7.2004        7.2004       6.158625       0.01447
  44    0.2165        1.0418        0.0000        7.2003        7.2003       6.158562       0.01419
  43    0.2613        1.0418        0.0000        7.2003        7.2003       6.158488       0.01392
  42    0.3336        1.0418        0.0000        7.2001        7.2001       6.158366       0.01425
  41    0.4307        1.0418        0.0000        7.2000        7.2000       6.158204       0.01409
  40    0.5894        1.0418        0.0000        7.1997        7.1997       6.157939       0.01407
  39     1.339        1.0418        0.0001        7.1984        7.1985       6.156688       0.01409
  38     1.782        1.0418        0.0001        7.1977        7.1978       6.155953       0.01399
  37     2.292        1.0418        0.0001        7.1968        7.1969       6.155103       0.01408
  36     2.964        1.0418        0.0002        7.1956        7.1958       6.153987       0.01401
  35     3.853        1.0418        0.0002        7.1941        7.1943       6.152514       0.01398
  34     5.035        1.0418        0.0003        7.1921        7.1924       6.150558       0.01397
  33     6.613        1.0419        0.0004        7.1894        7.1898       6.147949       0.01395
  32     8.786        1.0419        0.0005        7.1859        7.1863       6.144437       0.01364
  31     11.80        1.0420        0.0006        7.1808        7.1814       6.139426       0.01403
  30     15.07        1.0421        0.0007        7.1754        7.1761       6.134062       0.01385
  29     18.79        1.0421        0.0009        7.1693        7.1702       6.128023       0.01369
  28     23.16        1.0422        0.0011        7.1622        7.1632       6.120997       0.01359
  27     28.12        1.0424        0.0013        7.1541        7.1554       6.113000       0.01359
  26     33.73        1.0425        0.0015        7.1451        7.1466       6.104099       0.01338
  25     40.54        1.0427        0.0018        7.1343        7.1361       6.093413       0.01326
  24     48.69        1.0429        0.0022        7.1213        7.1235       6.080630       0.01323
  23     57.69        1.0431        0.0026        7.1073        7.1098       6.066713       0.01304
  22     68.43        1.0434        0.0030        7.0907        7.0937       6.050307       0.01290
  21     81.20        1.0437        0.0035        7.0711        7.0747       6.030997       0.01276
  20     96.49        1.0441        0.0042        7.0482        7.0524       6.008315       0.01252
  19     114.6        1.0446        0.0049        7.0213        7.0262       5.981637       0.01246
  18     136.5        1.0452        0.0058        6.9900        6.9958       5.950662       0.01191
  17     162.9        1.0459        0.0069        6.9536        6.9605       5.914627       0.01152
  16     196.4        1.0469        0.0083        6.9078        6.9160       5.869153       0.01145
  15     218.7        1.0475        0.0092        6.8784        6.8876       5.840005       0.01107
  14     243.0        1.0483        0.0101        6.8471        6.8572       5.808911       0.01078
  13     269.0        1.0491        0.0112        6.8138        6.8250       5.775851       0.01072
  12     297.5        1.0500        0.0123        6.7785        6.7908       5.740746       0.01041
  11     328.5        1.0511        0.0135        6.7410        6.7545       5.703450       0.01014
  10     361.9        1.0522        0.0148        6.7013        6.7161       5.663897       0.01001
   9     398.1        1.0535        0.0162        6.6591        6.6753       5.621774       0.00981
   8     437.6        1.0550        0.0177        6.6142        6.6319       5.576844       0.00961
   7     480.5        1.0568        0.0193        6.5661        6.5854       5.528579       0.00948
   6     533.0        1.0592        0.0213        6.5065        6.5277       5.468567       0.00965
   5     589.8        1.0620        0.0233        6.4414        6.4648       5.402744       0.00977
   4     651.6        1.0655        0.0256        6.3700        6.3956       5.330122       0.00993
   3     718.7        1.0697        0.0279        6.2913        6.3192       5.249558       0.01012
   2     792.3        1.0748        0.0304        6.2037        6.2341       5.159268       0.01036
   1     891.5        1.0830        0.0337        6.0798        6.1135       5.030474       0.01096
   0    1013.0        1.0950        0.0375        5.9204        5.9580       4.862953       0.01163



 Wavenumbers:  8050. - 12850. cm-1, ATM      1
 LEVEL PRESSURE   UPWARD FLUX   DIFDOWN FLUX  DIRDOWN FLUX  DOWNWARD FLUX   NET FLUX    HEATING RATE
          mb          W/m2          W/m2          W/m2        W/m2          W/m2       degree/day
  51    .06700       22.6729        0.0000      100.8135      100.8135      78.140589       0.00000
  50    .07753       22.6729        0.0000      100.8135      100.8135      78.140589       0.00000
  49    .09103       22.6729        0.0001      100.8134      100.8135      78.140589       0.00000
  48    0.1069       22.6729        0.0001      100.8134      100.8134      78.140589      -0.00000
  47    0.1255       22.6728        0.0001      100.8133      100.8134      78.140589       0.00000
  46    0.1487       22.6728        0.0002      100.8132      100.8134      78.140589      -0.00000
  45    0.1794       22.6727        0.0002      100.8131      100.8133      78.140589       0.00000
  44    0.2165       22.6727        0.0003      100.8129      100.8132      78.140589      -0.00000
  43    0.2613       22.6726        0.0004      100.8127      100.8132      78.140589       0.00000
  42    0.3336       22.6725        0.0006      100.8125      100.8130      78.140589       0.00000
  41    0.4307       22.6723        0.0008      100.8121      100.8129      78.140589      -0.00000
  40    0.5894       22.6720        0.0011      100.8115      100.8126      78.140589       0.00000
  39     1.339       22.6707        0.0028      100.8085      100.8113      78.140589       0.00000
  38     1.782       22.6699        0.0037      100.8068      100.8105      78.140589       0.00000
  37     2.292       22.6690        0.0048      100.8047      100.8096      78.140589      -0.00000
  36     2.964       22.6657        0.0089      100.7974      100.8063      78.140589       0.00000
  35     3.853       22.6634        0.0118      100.7922      100.8040      78.140589      -0.00000
  34     5.035       22.6609        0.0148      100.7867      100.8015      78.140589       0.00000
  33     6.613       22.6579        0.0185      100.7800      100.7985      78.140589      -0.00000
  32     8.786       22.6541        0.0233      100.7714      100.7947      78.140589       0.00000
  31     11.80       22.6487        0.0300      100.7593      100.7893      78.140589       0.00000
  30     15.07       22.6429        0.0371      100.7463      100.7835      78.140589      -0.00000
  29     18.79       22.6363        0.0452      100.7317      100.7769      78.140589       0.00000
  28     23.16       22.6287        0.0546      100.7147      100.7693      78.140589       0.00000
  27     28.12       22.6200        0.0654      100.6952      100.7606      78.140589       0.00000
  26     33.73       22.6102        0.0775      100.6733      100.7508      78.140589      -0.00000
  25     40.54       22.5984        0.0921      100.6469      100.7389      78.140589       0.00000
  24     48.69       22.5841        0.1097      100.6150      100.7247      78.140589       0.00000
  23     57.69       22.5684        0.1291      100.5799      100.7090      78.140589       0.00000
  22     68.43       22.5496        0.1522      100.5380      100.6902      78.140589      -0.00000
  21     81.20       22.5273        0.1798      100.4881      100.6679      78.140589      -0.00000
  20     96.49       22.5006        0.2126      100.4285      100.6412      78.140589       0.00000
  19     114.6       22.4726        0.2514      100.0065      100.2580      77.785399       0.16585
  18     136.5       22.4384        0.2974       99.6825       99.9799      77.541544       0.09377
  17     162.9       22.3964        0.3523       99.3939       99.7463      77.349847       0.06127
  16     196.4       22.3404        0.4236       99.0883       99.5119      77.171590       0.04487
  15     218.7       22.3028        0.4706       98.9108       99.3813      77.078503       0.03534
  14     243.0       22.2618        0.5216       98.7293       99.2509      76.989118       0.03100
  13     269.0       22.2173        0.5770       98.5354       99.1125      76.895182       0.03047
  12     297.5       22.1692        0.6369       98.3054       98.9423      76.773066       0.03622
  11     328.5       22.1177        0.7015       97.9963       98.6977      76.580013       0.05249
  10     361.9       22.0632        0.7707       97.5592       98.3299      76.266713       0.07927
   9     398.1       22.0061        0.8445       96.9439       97.7884      75.782271       0.11286
   8     437.6       21.9476        0.9228       96.0974       97.0202      75.072572       0.15174
   7     480.5       21.8896        1.0050       94.9540       95.9591      74.069498       0.19700
   6     533.0       21.8278        1.1031       93.2036       94.3067      72.478909       0.25588
   5     589.8       21.7755        1.2049       91.0386       92.2435      70.467996       0.29849
   4     651.6       21.7401        1.3097       88.5475       89.8573      68.117132       0.32149
   3     718.7       21.7326        1.4172       85.7884       87.2056      65.472965       0.33230
   2     792.3       21.7715        1.5263       82.7553       84.2816      62.510130       0.33980
   1     891.5       21.9239        1.6644       78.6606       80.3250      58.401104       0.34966
   0    1013.0       22.3390        1.8157       73.8858       75.7015      53.362590       0.34985



 Wavenumbers: 12850. - 16000. cm-1, ATM      1
 LEVEL PRESSURE   UPWARD FLUX   DIFDOWN FLUX  DIRDOWN FLUX  DOWNWARD FLUX   NET FLUX    HEATING RATE
          mb          W/m2          W/m2          W/m2        W/m2          W/m2       degree/day
  51    .06700       32.6751        0.0000       63.1686       63.1686      30.493517       0.00000
  50    .07753       32.6750        0.0001       63.1677       63.1678      30.492738       0.62449
  49    .09103       32.6750        0.0001       63.1666       63.1668      30.491767       0.60678
  48    0.1069       32.6750        0.0002       63.1654       63.1656      30.490662       0.58828
  47    0.1255       32.6749        0.0003       63.1640       63.1643      30.489406       0.56971
  46    0.1487       32.6749        0.0004       63.1623       63.1627      30.487839       0.57109
  45    0.1794       32.6748        0.0006       63.1600       63.1606      30.485738       0.57660
  44    0.2165       32.6748        0.0008       63.1573       63.1581      30.483310       0.55248
  43    0.2613       32.6747        0.0010       63.1542       63.1552      30.480510       0.52781
  42    0.3336       32.6746        0.0014       63.1493       63.1507      30.476049       0.52006
  41    0.4307       32.6745        0.0019       63.1431       63.1450      30.470461       0.48584
  40    0.5894       32.6745        0.0027       63.1338       63.1365      30.462005       0.44973
  39     1.339       32.6755        0.0065       63.0955       63.1020      30.426565       0.39899
  38     1.782       32.6769        0.0087       63.0739       63.0827      30.405734       0.39658
  37     2.292       32.6795        0.0113       63.0474       63.0588      30.379309       0.43767
  36     2.964       32.6802        0.0208       62.9992       63.0200      30.339780       0.49621
  35     3.853       32.6867        0.0276       62.9390       62.9666      30.279885       0.56841
  34     5.035       32.6983        0.0347       62.8562       62.8909      30.192593       0.62358
  33     6.613       32.7153        0.0432       62.7447       62.7879      30.072588       0.64155
  32     8.786       32.7375        0.0542       62.6002       62.6544      29.916909       0.60460
  31     11.80       32.7660        0.0697       62.4098       62.4795      29.713561       0.56931
  30     15.07       32.7925        0.0862       62.2238       62.3099      29.517479       0.50624
  29     18.79       32.8187        0.1047       62.0302       62.1349      29.316156       0.45646
  28     23.16       32.8452        0.1262       61.8232       61.9494      29.104231       0.40979
  27     28.12       32.8704        0.1508       61.6084       61.7592      28.888741       0.36632
  26     33.73       32.8916        0.1782       61.3982       61.5764      28.684768       0.30668
  25     40.54       32.9090        0.2112       61.1788       61.3901      28.481071       0.25271
  24     48.69       32.9220        0.2510       60.9485       61.1996      28.277574       0.21059
  23     57.69       32.9285        0.2947       60.7284       61.0230      28.094527       0.17158
  22     68.43       32.9279        0.3466       60.5008       60.8474      27.919470       0.13762
  21     81.20       32.9158        0.4084       60.2745       60.6829      27.767152       0.10065
  20     96.49       32.8907        0.4820       60.0450       60.5270      27.636368       0.07218
  19     114.6       32.8610        0.5699       59.7822       60.3522      27.491132       0.06781
  18     136.5       32.8212        0.6739       59.4842       60.1580      27.336814       0.05934
  17     162.9       32.7695        0.7973       59.1399       59.9372      27.167695       0.05406
  16     196.4       32.6934        0.9569       58.7184       59.6752      26.981794       0.04679
  15     218.7       32.6402        1.0614       58.4510       59.5124      26.872190       0.04161
  14     243.0       32.5808        1.1747       58.1652       59.3399      26.759162       0.03920
  13     269.0       32.5148        1.2972       57.8613       59.1585      26.643660       0.03747
  12     297.5       32.4422        1.4293       57.5376       58.9669      26.524649       0.03530
  11     328.5       32.3634        1.5716       57.1894       58.7610      26.397609       0.03454
  10     361.9       32.2785        1.7244       56.8138       58.5382      26.259673       0.03490
   9     398.1       32.1877        1.8882       56.4068       58.2950      26.107329       0.03549
   8     437.6       32.0915        2.0636       55.9620       58.0256      25.934057       0.03705
   7     480.5       31.9910        2.2507       55.4715       57.7222      25.731220       0.03984
   6     533.0       31.8729        2.4795       54.8408       57.3203      25.447402       0.04566
   5     589.8       31.7543        2.7242       54.1276       56.8518      25.097464       0.05194
   4     651.6       31.6391        2.9845       53.3249       56.3093      24.670239       0.05842
   3     718.7       31.5330        3.2602       52.4250       55.6852      24.152210       0.06510
   2     792.3       31.4427        3.5502       51.4307       54.9809      23.538243       0.07042
   1     891.5       31.3655        3.9318       50.0622       53.9940      22.628522       0.07741
   0    1013.0       31.3607        4.3747       48.3808       52.7555      21.394790       0.08566



 Wavenumbers: 16000. - 22650. cm-1, ATM      1
 LEVEL PRESSURE   UPWARD FLUX   DIFDOWN FLUX  DIRDOWN FLUX  DOWNWARD FLUX   NET FLUX    HEATING RATE
          mb          W/m2          W/m2          W/m2        W/m2          W/m2       degree/day
  51    .06700       75.4956        0.0000      100.7153      100.7153      25.219665       0.00000
  50    .07753       75.4955        0.0003      100.7147      100.7151      25.219547       0.09395
  49    .09103       75.4954        0.0007      100.7140      100.7147      25.219377       0.10656
  48    0.1069       75.4952        0.0012      100.7131      100.7143      25.219149       0.12151
  47    0.1255       75.4950        0.0017      100.7121      100.7139      25.218843       0.13851
  46    0.1487       75.4948        0.0024      100.7108      100.7132      25.218393       0.16413
  45    0.1794       75.4946        0.0034      100.7089      100.7122      25.217689       0.19325
  44    0.2165       75.4943        0.0045      100.7066      100.7110      25.216734       0.21718
  43    0.2613       75.4940        0.0058      100.7037      100.7095      25.215439       0.24416
  42    0.3336       75.4937        0.0079      100.6987      100.7066      25.212976       0.28713
  41    0.4307       75.4933        0.0108      100.6918      100.7026      25.209264       0.32275
  40    0.5894       75.4931        0.0155      100.6797      100.6952      25.202185       0.37646
  39     1.339       75.4973        0.0377      100.6095      100.6472      25.149893       0.58871
  38     1.782       75.5038        0.0507      100.5585      100.6092      25.105361       0.84783
  37     2.292       75.5151        0.0658      100.4903      100.5560      25.040920       1.06731
  36     2.964       75.5183        0.1207      100.3342      100.4549      24.936587       1.30970
  35     3.853       75.5472        0.1599      100.1585      100.3184      24.771183       1.56971
  34     5.035       75.5991        0.2008       99.9230      100.1238      24.524698       1.76078
  33     6.613       75.6751        0.2501       99.6078       99.8578      24.182697       1.82834
  32     8.786       75.7747        0.3137       99.1996       99.5133      23.738602       1.72471
  31     11.80       75.9021        0.4030       98.6599       99.0629      23.160748       1.61781
  30     15.07       76.0210        0.4980       98.1296       98.6276      22.606565       1.43079
  29     18.79       76.1391        0.6046       97.5748       98.1794      22.040319       1.28385
  28     23.16       76.2581        0.7285       96.9768       97.7054      21.447260       1.14678
  27     28.12       76.3722        0.8696       96.3505       97.2201      20.847837       1.01898
  26     33.73       76.4682        1.0269       95.7281       96.7549      20.286711       0.84367
  25     40.54       76.5476        1.2162       95.0654       96.2816      19.734010       0.68569
  24     48.69       76.6077        1.4435       94.3530       95.7965      19.188769       0.56424
  23     57.69       76.6396        1.6922       93.6531       95.3453      18.705709       0.45280
  22     68.43       76.6407        1.9872       92.9073       94.8945      18.253827       0.35524
  21     81.20       76.5916        2.3372       92.1357       94.4729      17.881320       0.24615
  20     96.49       76.4866        2.7524       91.3242       94.0766      17.589997       0.16079
  19     114.6       76.3394        3.2419       90.4200       93.6619      17.322549       0.12488
  18     136.5       76.1500        3.8173       89.3931       93.2104      17.060440       0.10079
  17     162.9       75.9117        4.4955       88.2153       92.7107      16.799038       0.08355
  16     196.4       75.5740        5.3647       86.7742       92.1389      16.564938       0.05893
  15     218.7       75.3424        5.9294       85.8632       91.7926      16.450166       0.04357
  14     243.0       75.0871        6.5375       84.8938       91.4313      16.344207       0.03675
  13     269.0       74.8068        7.1900       83.8658       91.0558      16.249028       0.03088
  12     297.5       74.5007        7.8877       82.7782       90.6658      16.165067       0.02490
  11     328.5       74.1702        8.6329       81.6216       90.2545      16.084258       0.02197
  10     361.9       73.8151        9.4254       80.3963       89.8217      16.006610       0.01965
   9     398.1       73.4344       10.2671       79.0988       89.3660      15.931512       0.01750
   8     437.6       73.0284       11.1582       77.7271       88.8853      15.856837       0.01597
   7     480.5       72.5968       12.0989       76.2799       88.3788      15.781955       0.01471
   6     533.0       72.0717       13.2367       74.5276       87.7643      15.692608       0.01437
   5     589.8       71.5145       14.4388       72.6713       87.1102      15.595670       0.01439
   4     651.6       70.9265       15.7033       70.7111       86.4144      15.487864       0.01474
   3     718.7       70.3091       17.0281       68.6463       85.6745      15.365381       0.01539
   2     792.3       69.6655       18.4088       66.4801       84.8888      15.223354       0.01629
   1     891.5       68.8283       20.2096       63.6263       83.8359      15.007681       0.01835
   0    1013.0       67.8728       22.2808       60.2993       82.5801      14.707318       0.02086



 Wavenumbers: 22650. - 29000. cm-1, ATM      1
 LEVEL PRESSURE   UPWARD FLUX   DIFDOWN FLUX  DIRDOWN FLUX  DOWNWARD FLUX   NET FLUX    HEATING RATE
          mb          W/m2          W/m2          W/m2        W/m2          W/m2       degree/day
  51    .06700       34.3512        0.0000       38.0063       38.0063       3.655136       0.00000
  50    .07753       34.3510        0.0004       38.0057       38.0061       3.655136       0.00000
  49    .09103       34.3508        0.0009       38.0050       38.0059       3.655136       0.00000
  48    0.1069       34.3505        0.0014       38.0042       38.0057       3.655136      -0.00000
  47    0.1255       34.3503        0.0021       38.0033       38.0054       3.655136       0.00000
  46    0.1487       34.3499        0.0029       38.0022       38.0050       3.655136       0.00000
  45    0.1794       34.3494        0.0040       38.0006       38.0046       3.655136       0.00000
  44    0.2165       34.3489        0.0053       37.9987       38.0040       3.655136       0.00000
  43    0.2613       34.3482        0.0068       37.9965       38.0033       3.655136      -0.00000
  42    0.3336       34.3471        0.0094       37.9928       38.0022       3.655136       0.00000
  41    0.4307       34.3456        0.0128       37.9880       38.0008       3.655136       0.00000
  40    0.5894       34.3432        0.0183       37.9800       37.9984       3.655136      -0.00000
  39     1.339       34.3319        0.0446       37.9425       37.9870       3.655136       0.00000
  38     1.782       34.3253        0.0600       37.9204       37.9804       3.655136       0.00000
  37     2.292       34.3176        0.0778       37.8949       37.9727       3.655136      -0.00000
  36     2.964       34.2895        0.1427       37.8020       37.9447       3.655136       0.00000
  35     3.853       34.2695        0.1890       37.7356       37.9246       3.655136       0.00000
  34     5.035       34.2486        0.2373       37.6664       37.9037       3.655136      -0.00000
  33     6.613       34.2234        0.2957       37.5828       37.8785       3.655136       0.00000
  32     8.786       34.1908        0.3711       37.4748       37.8459       3.655136       0.00000
  31     11.80       34.1450        0.4769       37.3232       37.8001       3.655136      -0.00000
  30     15.07       34.0963        0.5895       37.1619       37.7514       3.655136      -0.00000
  29     18.79       34.0416        0.7157       36.9810       37.6967       3.655136       0.00000
  28     23.16       33.9780        0.8624       36.7708       37.6332       3.655136      -0.00000
  27     28.12       33.9058        1.0290       36.5320       37.5609       3.655136       0.00000
  26     33.73       33.8254        1.2142       36.2664       37.4806       3.655136      -0.00000
  25     40.54       33.7290        1.4361       35.9480       37.3842       3.655136       0.00000
  24     48.69       33.6137        1.7013       35.5676       37.2689       3.655136       0.00000
  23     57.69       33.4883        1.9893       35.1542       37.1435       3.655136      -0.00000
  22     68.43       33.3406        2.3281       34.6677       36.9958       3.655136       0.00000
  21     81.20       33.1670        2.7256       34.0965       36.8221       3.655136      -0.00000
  20     96.49       32.9634        3.1906       33.4279       36.6185       3.655136       0.00000
  19     114.6       32.7263        3.7307       32.6507       36.3814       3.655136       0.00000
  18     136.5       32.4517        4.3543       31.7525       36.1068       3.655136       0.00000
  17     162.9       32.1335        5.0739       30.7147       35.7886       3.655136      -0.00000
  16     196.4       31.7346        5.9714       29.4184       35.3898       3.655136       0.00000
  15     218.7       31.4810        6.5392       28.5969       35.1361       3.655136      -0.00000
  14     243.0       31.2124        7.1380       27.7295       34.8675       3.655136       0.00000
  13     269.0       30.9294        7.7657       26.8189       34.5846       3.655136      -0.00000
  12     297.5       30.6329        8.4201       25.8679       34.2880       3.655136       0.00000
  11     328.5       30.3226        9.1007       24.8770       33.9777       3.655136      -0.00000
  10     361.9       29.9999        9.8036       23.8514       33.6550       3.655136       0.00000
   9     398.1       29.6653       10.5272       22.7932       33.3204       3.655136       0.00000
   8     437.6       29.3201       11.2670       21.7082       32.9752       3.655136      -0.00000
   7     480.5       28.9653       12.0202       20.6002       32.6204       3.655136       0.00000
   6     533.0       28.5492       12.8929       19.3114       32.2044       3.655136      -0.00000
   5     589.8       28.1246       13.7706       18.0091       31.7798       3.655136       0.00000
   4     651.6       27.6937       14.6466       16.7023       31.3489       3.655136       0.00000
   3     718.7       27.2586       15.5141       15.3997       30.9137       3.655136       0.00000
   2     792.3       26.8224       16.3643       14.1132       30.4775       3.655136       0.00000
   1     891.5       26.2771       17.3956       12.5367       29.9323       3.655136       0.00000
   0    1013.0       25.6836       18.4704       10.8683       29.3387       3.655136       0.00000



 Wavenumbers: 29000. - 38000. cm-1, ATM      1
 LEVEL PRESSURE   UPWARD FLUX   DIFDOWN FLUX  DIRDOWN FLUX  DOWNWARD FLUX   NET FLUX    HEATING RATE
          mb          W/m2          W/m2          W/m2        W/m2          W/m2       degree/day
  51    .06700        4.8891        0.0000       13.4026       13.4026       8.513479       0.00000
  50    .07753        4.8889        0.0003       13.3983       13.3986       8.509688       3.03855
  49    .09103        4.8886        0.0007       13.3921       13.3928       8.504179       3.44300
  48    0.1069        4.8883        0.0011       13.3841       13.3851       8.496814       3.92019
  47    0.1255        4.8880        0.0016       13.3734       13.3750       8.486984       4.45654
  46    0.1487        4.8876        0.0022       13.3579       13.3601       8.472566       5.25560
  45    0.1794        4.8870        0.0030       13.3342       13.3372       8.450196       6.14102
  44    0.2165        4.8863        0.0040       13.3025       13.3065       8.420193       6.82529
  43    0.2613        4.8856        0.0052       13.2605       13.2657       8.380140       7.54976
  42    0.3336        4.8843        0.0070       13.1834       13.1905       8.306132       8.62856
  41    0.4307        4.8828        0.0095       13.0730       13.0825       8.199651       9.25829
  40    0.5894        4.8805        0.0134       12.8795       12.8929       8.012455       9.95489
  39     1.339        4.8723        0.0297       11.9153       11.9450       7.072655      10.58044
  38     1.782        4.8694        0.0380       11.4377       11.4757       6.606334       8.87800
  37     2.292        4.8674        0.0468       10.9754       11.0222       6.154825       7.47816
  36     2.964        4.8500        0.0807       10.4328       10.5135       5.663414       6.16869
  35     3.853        4.8454        0.1012        9.8842        9.9854       5.140066       4.96667
  34     5.035        4.8465        0.1202        9.3384        9.4587       4.612180       3.77100
  33     6.613        4.8518        0.1417        8.8134        8.9552       4.103375       2.72007
  32     8.786        4.8599        0.1685        8.3189        8.4874       3.627517       1.84806
  31     11.80        4.8702        0.2051        7.8330        8.0381       3.167863       1.28689
  30     15.07        4.8792        0.2429        7.4564        7.6993       2.820170       0.89768
  29     18.79        4.8876        0.2842        7.1252        7.4094       2.521857       0.67637
  28     23.16        4.8953        0.3309        6.8155        7.1464       2.251097       0.52356
  27     28.12        4.9016        0.3826        6.5289        6.9115       2.009907       0.41001
  26     33.73        4.9039        0.4392        6.2720        6.7112       1.807234       0.30472
  25     40.54        4.9012        0.5060        6.0205        6.5265       1.625328       0.22567
  24     48.69        4.8928        0.5845        5.7685        6.3529       1.460090       0.17100
  23     57.69        4.8790        0.6682        5.5344        6.2027       1.323713       0.12783
  22     68.43        4.8572        0.7653        5.2957        6.0610       1.203759       0.09430
  21     81.20        4.8233        0.8780        5.0555        5.9335       1.110120       0.06188
  20     96.49        4.7760        1.0083        4.8079        5.8162       1.040177       0.03860
  19     114.6        4.7185        1.1559        4.5418        5.6977       0.979219       0.02846
  18     136.5        4.6517        1.3209        4.2529        5.5738       0.922055       0.02198
  17     162.9        4.5752        1.5043        3.9384        5.4427       0.867521       0.01743
  16     196.4        4.4782        1.7239        3.5753        5.2992       0.821025       0.01170
  15     218.7        4.4171        1.8571        3.3591        5.2162       0.799144       0.00831
  14     243.0        4.3534        1.9929        3.1400        5.1329       0.779505       0.00681
  13     269.0        4.2876        2.1303        2.9196        5.0499       0.762335       0.00557
  12     297.5        4.2199        2.2679        2.6996        4.9675       0.747590       0.00437
  11     328.5        4.1513        2.4044        2.4806        4.8850       0.733748       0.00376
  10     361.9        4.0822        2.5384        2.2646        4.8030       0.720850       0.00326
   9     398.1        4.0130        2.6689        2.0529        4.7218       0.708848       0.00280
   8     437.6        3.9442        2.7946        1.8471        4.6417       0.697509       0.00242
   7     480.5        3.8762        2.9141        1.6490        4.5631       0.686936       0.00208
   6     533.0        3.7996        3.0424        1.4329        4.4753       0.675625       0.00182
   5     589.8        3.7252        3.1598        1.2303        4.3901       0.664890       0.00159
   4     651.6        3.6534        3.2648        1.0432        4.3080       0.654622       0.00140
   3     718.7        3.5844        3.3564        0.8728        4.2292       0.644776       0.00124
   2     792.3        3.5186        3.4339        0.7200        4.1539       0.635339       0.00108
   1     891.5        3.4406        3.5105        0.5540        4.0645       0.623909       0.00097
   0    1013.0        3.3601        3.5688        0.4028        3.9716       0.611526       0.00086



 Wavenumbers: 38000. - 50000. cm-1, ATM      1
 LEVEL PRESSURE   UPWARD FLUX   DIFDOWN FLUX  DIRDOWN FLUX  DOWNWARD FLUX   NET FLUX    HEATING RATE
          mb          W/m2          W/m2          W/m2        W/m2          W/m2       degree/day
  51    .06700        0.0055        0.0000        0.8267        0.8267       0.821120       0.00000
  50    .07753        0.0055        0.0001        0.8242        0.8243       0.818787       1.86965
  49    .09103        0.0054        0.0002        0.8207        0.8209       0.815463       2.07741
  48    0.1069        0.0053        0.0002        0.8162        0.8164       0.811105       2.32029
  47    0.1255        0.0052        0.0004        0.8103        0.8106       0.805390       2.59057
  46    0.1487        0.0051        0.0005        0.8018        0.8023       0.797154       3.00207
  45    0.1794        0.0050        0.0007        0.7889        0.7896       0.784598       3.44715
  44    0.2165        0.0048        0.0009        0.7720        0.7729       0.768090       3.75527
  43    0.2613        0.0046        0.0011        0.7500        0.7511       0.746535       4.06288
  42    0.3336        0.0043        0.0015        0.7106        0.7121       0.707844       4.51107
  41    0.4307        0.0039        0.0019        0.6566        0.6584       0.654544       4.63425
  40    0.5894        0.0034        0.0024        0.5680        0.5704       0.567028       4.65400
  39     1.339        0.0020        0.0030        0.2422        0.2452       0.243224       3.64545
  38     1.782        0.0016        0.0026        0.1493        0.1519       0.150347       1.76822
  37     2.292        0.0014        0.0022        0.0924        0.0946       0.093278       0.94522
  36     2.964        0.0006        0.0023        0.0530        0.0553       0.054667       0.48469
  35     3.853        0.0003        0.0018        0.0288        0.0305       0.030216       0.23205
  34     5.035        0.0002        0.0013        0.0150        0.0162       0.016070       0.10105
  33     6.613        0.0001        0.0009        0.0071        0.0080       0.007896       0.04369
  32     8.786        0.0000        0.0006        0.0029        0.0035       0.003413       0.01741
  31     11.80        0.0000        0.0003        0.0009        0.0012       0.001225       0.00612
  30     15.07        0.0000        0.0002        0.0003        0.0005       0.000482       0.00192
  29     18.79        0.0000        0.0001        0.0001        0.0002       0.000193       0.00065
  28     23.16        0.0000        0.0000        0.0000        0.0001       0.000077       0.00023
  27     28.12        0.0000        0.0000        0.0000        0.0000       0.000031       0.00008
  26     33.73        0.0000        0.0000        0.0000        0.0000       0.000013       0.00003
  25     40.54        0.0000        0.0000        0.0000        0.0000       0.000005       0.00001
  24     48.69        0.0000        0.0000        0.0000        0.0000       0.000002       0.00000
  23     57.69        0.0000        0.0000        0.0000        0.0000       0.000001       0.00000
  22     68.43        0.0000        0.0000        0.0000        0.0000       0.000000       0.00000
  21     81.20        0.0000        0.0000        0.0000        0.0000       0.000000       0.00000
  20     96.49        0.0000        0.0000        0.0000        0.0000       0.000000       0.00000
  19     114.6        0.0000        0.0000        0.0000        0.0000       0.000000       0.00000
  18     136.5        0.0000        0.0000        0.0000        0.0000       0.000000       0.00000
  17     162.9        0.0000        0.0000        0.0000        0.0000       0.000000       0.00000
  16     196.4        0.0000        0.0000        0.0000        0.0000       0.000000       0.00000
  15     218.7        0.0000        0.0000        0.0000        0.0000       0.000000       0.00000
  14     243.0        0.0000        0.0000        0.0000        0.0000       0.000000       0.00000
  13     269.0        0.0000        0.0000        0.0000        0.0000       0.000000       0.00000
  12     297.5        0.0000        0.0000        0.0000        0.0000       0.000000       0.00000
  11     328.5        0.0000        0.0000        0.0000        0.0000       0.000000       0.00000
  10     361.9        0.0000        0.0000        0.0000        0.0000       0.000000       0.00000
   9     398.1        0.0000        0.0000        0.0000        0.0000       0.000000       0.00000
   8     437.6        0.0000        0.0000        0.0000        0.0000       0.000000       0.00000
   7     480.5        0.0000        0.0000        0.0000        0.0000       0.000000       0.00000
   6     533.0        0.0000        0.0000        0.0000        0.0000       0.000000       0.00000
   5     589.8        0.0000        0.0000        0.0000        0.0000       0.000000       0.00000
   4     651.6        0.0000        0.0000        0.0000        0.0000       0.000000       0.00000
   3     718.7        0.0000        0.0000        0.0000        0.0000       0.000000       0.00000
   2     792.3        0.0000        0.0000        0.0000        0.0000       0.000000       0.00000
   1     891.5        0.0000        0.0000        0.0000        0.0000       0.000000       0.00000
   0    1013.0        0.0000        0.0000        0.0000        0.0000       0.000000       0.00000



 Wavenumbers:   820. -  2600. cm-1, ATM      1
 LEVEL PRESSURE   UPWARD FLUX   DIFDOWN FLUX  DIRDOWN FLUX  DOWNWARD FLUX   NET FLUX    HEATING RATE
          mb          W/m2          W/m2          W/m2        W/m2          W/m2       degree/day
  51    .06700        0.0610        0.0000        3.8670        3.8670       3.806050       0.00000
  50    .07753        0.0610        0.0000        3.8644        3.8644       3.803451       2.08287
  49    .09103        0.0610        0.0000        3.8638        3.8638       3.802781       0.41878
  48    0.1069        0.0610        0.0000        3.8630        3.8630       3.802032       0.39874
  47    0.1255        0.0610        0.0000        3.8622        3.8622       3.801219       0.36879
  46    0.1487        0.0610        0.0000        3.8613        3.8613       3.800291       0.33798
  45    0.1794        0.0610        0.0000        3.8602        3.8602       3.799182       0.30446
  44    0.2165        0.0610        0.0000        3.8590        3.8590       3.798048       0.25804
  43    0.2613        0.0610        0.0000        3.8579        3.8579       3.796889       0.21851
  42    0.3336        0.0610        0.0000        3.8562        3.8562       3.795204       0.19646
  41    0.4307        0.0610        0.0000        3.8540        3.8540       3.793038       0.18827
  40    0.5894        0.0610        0.0000        3.8505        3.8505       3.789550       0.18550
  39     1.339        0.0610        0.0000        3.8352        3.8352       3.774200       0.17281
  38     1.782        0.0610        0.0000        3.8267        3.8267       3.765721       0.16143
  37     2.292        0.0610        0.0000        3.8172        3.8172       3.756203       0.15766
  36     2.964        0.0711        0.0000        0.7287        0.7287       0.657632      38.89643
  35     3.853        0.0753        0.0000        0.6533        0.6533       0.577965       0.75605
  34     5.035        0.0775        0.0000        0.6218        0.6218       0.544331       0.24027
  33     6.613        0.0786        0.0000        0.6062        0.6062       0.527616       0.08936
  32     8.786        0.0792        0.0000        0.5979        0.5979       0.518650       0.03482
  31     11.80        0.0796        0.0000        0.5927        0.5927       0.513110       0.01551
  30     15.07        0.0799        0.0000        0.5900        0.5900       0.510121       0.00772
  29     18.79        0.0800        0.0000        0.5882        0.5882       0.508206       0.00434
  28     23.16        0.0801        0.0000        0.5869        0.5869       0.506769       0.00278
  27     28.12        0.0802        0.0000        0.5859        0.5859       0.505703       0.00181
  26     33.73        0.0802        0.0000        0.5851        0.5851       0.504903       0.00120
  25     40.54        0.0803        0.0000        0.5845        0.5845       0.504225       0.00084
  24     48.69        0.0803        0.0000        0.5839        0.5839       0.503577       0.00067
  23     57.69        0.0804        0.0000        0.5834        0.5834       0.502979       0.00056
  22     68.43        0.0804        0.0000        0.5828        0.5828       0.502376       0.00047
  21     81.20        0.0805        0.0000        0.5822        0.5822       0.501769       0.00040
  20     96.49        0.0805        0.0000        0.5817        0.5817       0.501157       0.00034
  19     114.6        0.0806        0.0000        0.5811        0.5811       0.500574       0.00027
  18     136.5        0.0806        0.0000        0.5806        0.5806       0.499965       0.00023
  17     162.9        0.0806        0.0000        0.5800        0.5800       0.499401       0.00018
  16     196.4        0.0807        0.0000        0.5796        0.5796       0.498941       0.00012
  15     218.7        0.0807        0.0000        0.5795        0.5795       0.498789       0.00006
  14     243.0        0.0807        0.0000        0.5794        0.5794       0.498675       0.00004
  13     269.0        0.0807        0.0000        0.5793        0.5793       0.498576       0.00003
  12     297.5        0.0807        0.0000        0.5792        0.5792       0.498457       0.00004
  11     328.5        0.0807        0.0000        0.5790        0.5790       0.498277       0.00005
  10     361.9        0.0807        0.0000        0.5787        0.5787       0.497972       0.00008
   9     398.1        0.0808        0.0000        0.5782        0.5782       0.497461       0.00012
   8     437.6        0.0808        0.0000        0.5775        0.5775       0.496621       0.00018
   7     480.5        0.0809        0.0000        0.5762        0.5762       0.495297       0.00026
   6     533.0        0.0811        0.0000        0.5739        0.5739       0.492804       0.00040
   5     589.8        0.0814        0.0000        0.5704        0.5704       0.488957       0.00057
   4     651.6        0.0819        0.0000        0.5643        0.5644       0.482414       0.00089
   3     718.7        0.0828        0.0000        0.5546        0.5546       0.471800       0.00133
   2     792.3        0.0841        0.0000        0.5398        0.5398       0.455681       0.00185
   1     891.5        0.0867        0.0000        0.5123        0.5123       0.425593       0.00256
   0    1013.0        0.0913        0.0000        0.4692        0.4693       0.377996       0.00330

  Modules and versions used in this calculation:

       rrtmg_sw.1col.f90:  $Revision$                    rrtmg_sw_init.f90:  $Revision$        
     rrtmgsw_cldprop.f90:  $Revision$                  rrtmgsw_cldprmc.f90:  NOT USED          
     rrtmg_sw_reftra.f90:  $Revision$                  rrtmg_sw_spcvrt.f90:  NOT USED          
     rrtmg_sw_spcvmc.f90:  NOT USED                    rrtmgsw_setcoef.f90:  NOT USED          
     rrtmg_sw_taumol.f90:  $Revision$                  rrtmg_sw_vrtqdr.f90:  NOT USED          
                rrtatm.f:  NOT USED                             util_xxx.f:  NOT USED          
                 extra.f:  NOT USED                       rrtmg_sw_k_g.f90:  $Revision$        

