

 Wavenumbers:   820. - 50000. cm-1, ATM      1
 LEVEL PRESSURE   UPWARD FLUX   DIFDOWN FLUX  DIRDOWN FLUX  DOWNWARD FLUX   NET FLUX    HEATING RATE
          mb          W/m2          W/m2          W/m2        W/m2          W/m2       degree/day
  51    .06700      180.9870        0.0000      397.8738      397.8738     216.886759       0.00000
  50    .07753      180.9864        0.0012      397.8580      397.8591     216.872703      11.26602
  49    .09103      180.9856        0.0026      397.8425      397.8451     216.859427       8.29782
  48    0.1069      180.9848        0.0043      397.8240      397.8283     216.843516       8.46936
  47    0.1255      180.9838        0.0062      397.8012      397.8073     216.823530       9.06069
  46    0.1487      180.9826        0.0086      397.7697      397.7783     216.795640      10.16638
  45    0.1794      180.9811        0.0119      397.7232      397.7351     216.754073      11.41118
  44    0.2165      180.9793        0.0158      397.6637      397.6795     216.700221      12.25021
  43    0.2613      180.9772        0.0203      397.5873      397.6076     216.630396      13.16181
  42    0.3336      180.9740        0.0279      397.4509      397.4787     216.504699      14.65498
  41    0.4307      180.9701        0.0377      397.2603      397.2981     216.327992      15.36432
  40    0.5894      180.9642        0.0536      396.9366      396.9902     216.025924      16.06357
  39     1.339      180.9473        0.1245      395.4503      395.5748     214.627424      15.74457
  38     1.782      180.9446        0.1642      394.7605      394.9247     213.980146      12.32313
  37     2.292      180.9478        0.2094      394.0954      394.3048     213.357038      10.32030
  36     2.964      180.9498        0.3089      383.9707      384.2796     203.329817     125.87193
  35     3.853      180.9767        0.4001      382.1652      382.5653     201.588581      16.52465
  34     5.035      181.0283        0.5075      380.7559      381.2633     200.235038       9.66915
  33     6.613      181.1052        0.6440      379.4339      380.0779     198.972654       6.74871
  32     8.786      181.2043        0.8237      378.0829      378.9066     197.702333       4.93347
  31     11.80      181.3249        1.0775      376.5514      377.6289     196.303973       3.91497
  30     15.07      181.4296        1.3473      375.1754      376.5226     195.093037       3.12640
  29     18.79      181.5257        1.6493      373.8073      375.4566     193.930866       2.63500
  28     23.16      181.6126        1.9992      372.3737      374.3729     192.760339       2.26342
  27     28.12      181.6820        2.3959      370.8966      373.2925     191.610575       1.95452
  26     33.73      181.7157        2.8367      369.4278      372.2645     190.548828       1.59636
  25     40.54      181.7057        3.3652      367.8463      371.2115     189.505838       1.29395
  24     48.69      181.6451        3.9967      366.1164      370.1130     188.467918       1.07408
  23     57.69      181.5322        4.6836      364.3782      369.0619     187.529638       0.87950
  22     68.43      181.3481        5.4934      362.4778      367.9712     186.623076       0.71268
  21     81.20      181.0600        6.4477      360.4319      366.8796     185.819644       0.53090
  20     96.49      180.6547        7.5702      358.2015      365.7717     185.117032       0.38779
  19     114.6      180.1541        8.8808      355.5046      364.3854     184.231251       0.41360
  18     136.5      179.5486       10.4023      352.4950      362.8973     183.348733       0.33935
  17     162.9      178.8217       12.1711      349.0977      361.2687     182.447012       0.28823
  16     196.4      177.8563       14.4000      344.9659      359.3659     181.509597       0.23596
  15     218.7      177.2199       15.8247      342.3770      358.2018     180.981851       0.20037
  14     243.0      176.5329       17.3400      339.6452      356.9852     180.452277       0.18367
  13     269.0      175.7944       18.9442      336.7604      355.7046     179.910193       0.17585
  12     297.5      175.0049       20.6354      333.6803      354.3157     179.310706       0.17780
  11     328.5      174.1669       22.4149      330.3127      352.7275     178.560605       0.20395
  10     361.9      173.2828       24.2773      326.5722      350.8495     177.566724       0.25146
   9     398.1      172.3527       26.2228      322.3603      348.5832     176.230467       0.31132
   8     437.6      171.3805       28.2462      317.5708      345.8170     174.436504       0.38356
   7     480.5      170.3701       30.3428      312.0869      342.4297     172.059628       0.46681
   6     533.0      169.1742       32.8277      304.8623      337.6900     168.515786       0.57009
   5     589.8      167.9473       35.3931      296.8624      332.2556     164.308234       0.62454
   4     651.6      166.7040       38.0288      288.3213      326.3500     159.646069       0.63756
   3     718.7      165.4639       40.7252      279.3869      320.1121     154.648153       0.62810
   2     792.3      164.2602       43.4668      270.1413      313.6081     149.347913       0.60788
   1     891.5      162.8654       46.9473      258.3605      305.3078     142.442415       0.58762
   0    1013.0      161.6403       50.8206      245.0525      295.8731     134.232726       0.57004



 Wavenumbers:  2600. -  3250. cm-1, ATM      1
 LEVEL PRESSURE   UPWARD FLUX   DIFDOWN FLUX  DIRDOWN FLUX  DOWNWARD FLUX   NET FLUX    HEATING RATE
          mb          W/m2          W/m2          W/m2        W/m2          W/m2       degree/day
  51    .06700        0.3921        0.0000        3.5066        3.5066       3.114549       0.00000
  50    .07753        0.3921        0.0000        3.5066        3.5066       3.114541       0.00640
  49    .09103        0.3921        0.0000        3.5066        3.5066       3.114531       0.00627
  48    0.1069        0.3921        0.0000        3.5066        3.5066       3.114520       0.00613
  47    0.1255        0.3921        0.0000        3.5066        3.5066       3.114507       0.00599
  46    0.1487        0.3921        0.0000        3.5066        3.5066       3.114490       0.00607
  45    0.1794        0.3921        0.0000        3.5065        3.5065       3.114467       0.00624
  44    0.2165        0.3921        0.0000        3.5065        3.5065       3.114440       0.00611
  43    0.2613        0.3921        0.0000        3.5065        3.5065       3.114409       0.00598
  42    0.3336        0.3921        0.0000        3.5064        3.5064       3.114356       0.00615
  41    0.4307        0.3921        0.0000        3.5064        3.5064       3.114285       0.00617
  40    0.5894        0.3921        0.0000        3.5062        3.5062       3.114166       0.00633
  39     1.339        0.3921        0.0000        3.5055        3.5055       3.113467       0.00787
  38     1.782        0.3921        0.0000        3.5050        3.5050       3.112936       0.01010
  37     2.292        0.3921        0.0000        3.5043        3.5043       3.112244       0.01147
  36     2.964        0.3921        0.0000        3.5033        3.5033       3.111254       0.01243
  35     3.853        0.3921        0.0000        3.5019        3.5019       3.109876       0.01307
  34     5.035        0.3921        0.0000        3.5001        3.5001       3.108013       0.01331
  33     6.613        0.3921        0.0000        3.4977        3.4977       3.105600       0.01290
  32     8.786        0.3921        0.0000        3.4947        3.4947       3.102621       0.01157
  31     11.80        0.3921        0.0000        3.4910        3.4910       3.098978       0.01020
  30     15.07        0.3921        0.0000        3.4878        3.4878       3.095748       0.00834
  29     18.79        0.3921        0.0000        3.4847        3.4847       3.092669       0.00698
  28     23.16        0.3921        0.0000        3.4815        3.4815       3.089426       0.00627
  27     28.12        0.3921        0.0000        3.4778        3.4779       3.085781       0.00620
  26     33.73        0.3921        0.0000        3.4733        3.4734       3.081285       0.00676
  25     40.54        0.3921        0.0000        3.4670        3.4670       3.074921       0.00789
  24     48.69        0.3921        0.0000        3.4580        3.4580       3.065962       0.00927
  23     57.69        0.3921        0.0000        3.4469        3.4469       3.054817       0.01045
  22     68.43        0.3921        0.0000        3.4324        3.4325       3.040377       0.01135
  21     81.20        0.3921        0.0000        3.4145        3.4146       3.022440       0.01185
  20     96.49        0.3921        0.0000        3.3932        3.3932       3.001080       0.01179
  19     114.6        0.3922        0.0000        3.3542        3.3542       2.962024       0.01824
  18     136.5        0.3923        0.0001        3.3174        3.3175       2.925153       0.01418
  17     162.9        0.3925        0.0001        3.2830        3.2831       2.890584       0.01105
  16     196.4        0.3927        0.0001        3.2480        3.2481       2.855395       0.00886
  15     218.7        0.3929        0.0001        3.2290        3.2291       2.836257       0.00727
  14     243.0        0.3930        0.0001        3.2106        3.2107       2.817625       0.00646
  13     269.0        0.3932        0.0001        3.1917        3.1918       2.798599       0.00617
  12     297.5        0.3935        0.0001        3.1705        3.1706       2.777093       0.00638
  11     328.5        0.3938        0.0001        3.1442        3.1443       2.750484       0.00724
  10     361.9        0.3943        0.0001        3.1110        3.1111       2.716763       0.00853
   9     398.1        0.3950        0.0001        3.0679        3.0680       2.673063       0.01018
   8     437.6        0.3959        0.0002        3.0116        3.0118       2.615931       0.01222
   7     480.5        0.3971        0.0002        2.9386        2.9388       2.541663       0.01459
   6     533.0        0.3991        0.0002        2.8301        2.8303       2.431147       0.01778
   5     589.8        0.4020        0.0002        2.6994        2.6996       2.297615       0.01982
   4     651.6        0.4061        0.0002        2.5550        2.5552       2.149127       0.02031
   3     718.7        0.4118        0.0002        2.4028        2.4031       1.991269       0.01984
   2     792.3        0.4199        0.0002        2.2468        2.2470       1.827088       0.01883
   1     891.5        0.4348        0.0002        2.0459        2.0461       1.611300       0.01836
   0    1013.0        0.4621        0.0002        1.8113        1.8116       1.349483       0.01818



 Wavenumbers:  3250. -  4000. cm-1, ATM      1
 LEVEL PRESSURE   UPWARD FLUX   DIFDOWN FLUX  DIRDOWN FLUX  DOWNWARD FLUX   NET FLUX    HEATING RATE
          mb          W/m2          W/m2          W/m2        W/m2          W/m2       degree/day
  51    .06700        0.0885        0.0000        5.9117        5.9117       5.823181       0.00000
  50    .07753        0.0885        0.0000        5.9075        5.9075       5.819019       3.33611
  49    .09103        0.0885        0.0000        5.9052        5.9052       5.816730       1.43070
  48    0.1069        0.0885        0.0000        5.9035        5.9035       5.815017       0.91190
  47    0.1255        0.0885        0.0000        5.9019        5.9019       5.813397       0.73438
  46    0.1487        0.0885        0.0000        5.9001        5.9001       5.811662       0.63248
  45    0.1794        0.0885        0.0000        5.8982        5.8982       5.809685       0.54263
  44    0.2165        0.0885        0.0000        5.8962        5.8962       5.807737       0.44316
  43    0.2613        0.0885        0.0000        5.8943        5.8943       5.805788       0.36742
  42    0.3336        0.0885        0.0000        5.8915        5.8915       5.803032       0.32131
  41    0.4307        0.0885        0.0000        5.8881        5.8881       5.799658       0.29332
  40    0.5894        0.0885        0.0000        5.8830        5.8830       5.794552       0.27154
  39     1.339        0.0885        0.0000        5.8641        5.8641       5.775632       0.21300
  38     1.782        0.0885        0.0000        5.8561        5.8561       5.767642       0.15212
  37     2.292        0.0885        0.0000        5.8483        5.8483       5.759855       0.12897
  36     2.964        0.0886        0.0000        3.8641        3.8641       3.775472      24.91001
  35     3.853        0.0887        0.0000        3.5809        3.5809       3.492183       2.68846
  34     5.035        0.0887        0.0000        3.4498        3.4498       3.361029       0.93690
  33     6.613        0.0888        0.0000        3.3741        3.3741       3.285331       0.40469
  32     8.786        0.0888        0.0000        3.3243        3.3243       3.235501       0.19352
  31     11.80        0.0888        0.0000        3.2851        3.2851       3.196261       0.10986
  30     15.07        0.0888        0.0000        3.2579        3.2579       3.169044       0.07027
  29     18.79        0.0888        0.0000        3.2356        3.2356       3.146744       0.05056
  28     23.16        0.0888        0.0000        3.2143        3.2143       3.125442       0.04119
  27     28.12        0.0888        0.0000        3.1939        3.1940       3.105115       0.03455
  26     33.73        0.0888        0.0000        3.1743        3.1743       3.085462       0.02955
  25     40.54        0.0888        0.0000        3.1541        3.1542       3.065308       0.02500
  24     48.69        0.0889        0.0000        3.1311        3.1312       3.042304       0.02381
  23     57.69        0.0889        0.0000        3.1062        3.1062       3.017390       0.02335
  22     68.43        0.0889        0.0001        3.0770        3.0770       2.988188       0.02296
  21     81.20        0.0889        0.0001        3.0430        3.0430       2.954185       0.02247
  20     96.49        0.0889        0.0001        3.0043        3.0044       2.915542       0.02133
  19     114.6        0.0889        0.0001        2.9604        2.9605       2.871623       0.02051
  18     136.5        0.0889        0.0001        2.9113        2.9114       2.822541       0.01887
  17     162.9        0.0889        0.0001        2.8570        2.8571       2.768251       0.01735
  16     196.4        0.0889        0.0001        2.7923        2.7924       2.703509       0.01630
  15     218.7        0.0889        0.0002        2.7527        2.7529       2.663974       0.01501
  14     243.0        0.0889        0.0002        2.7122        2.7124       2.623463       0.01405
  13     269.0        0.0889        0.0002        2.6686        2.6688       2.579855       0.01415
  12     297.5        0.0890        0.0002        2.6136        2.6138       2.524880       0.01631
  11     328.5        0.0890        0.0002        2.5343        2.5345       2.445520       0.02158
  10     361.9        0.0891        0.0002        2.4204        2.4206       2.331511       0.02885
   9     398.1        0.0893        0.0002        2.2684        2.2686       2.179332       0.03545
   8     437.6        0.0897        0.0003        2.0807        2.0810       1.991293       0.04020
   7     480.5        0.0903        0.0003        1.8641        1.8643       1.773993       0.04268
   6     533.0        0.0917        0.0002        1.5938        1.5940       1.502352       0.04370
   5     589.8        0.0940        0.0002        1.3274        1.3277       1.233677       0.03988
   4     651.6        0.0979        0.0002        1.0775        1.0777       0.979882       0.03471
   3     718.7        0.1043        0.0002        0.8446        0.8448       0.740571       0.03007
   2     792.3        0.1150        0.0002        0.6267        0.6268       0.511840       0.02623
   1     891.5        0.1392        0.0001        0.3987        0.3988       0.259579       0.02147
   0    1013.0        0.1977        0.0001        0.2084        0.2085       0.010823       0.01727



 Wavenumbers:  4000. -  4650. cm-1, ATM      1
 LEVEL PRESSURE   UPWARD FLUX   DIFDOWN FLUX  DIRDOWN FLUX  DOWNWARD FLUX   NET FLUX    HEATING RATE
          mb          W/m2          W/m2          W/m2        W/m2          W/m2       degree/day
  51    .06700        0.7742        0.0000        6.9421        6.9421       6.167827       0.00000
  50    .07753        0.7742        0.0000        6.9421        6.9421       6.167826       0.00081
  49    .09103        0.7742        0.0000        6.9421        6.9421       6.167825       0.00080
  48    0.1069        0.7742        0.0000        6.9421        6.9421       6.167824       0.00078
  47    0.1255        0.7742        0.0000        6.9421        6.9421       6.167822       0.00076
  46    0.1487        0.7742        0.0000        6.9421        6.9421       6.167820       0.00077
  45    0.1794        0.7742        0.0000        6.9421        6.9421       6.167817       0.00079
  44    0.2165        0.7742        0.0000        6.9421        6.9421       6.167814       0.00078
  43    0.2613        0.7742        0.0000        6.9421        6.9421       6.167809       0.00076
  42    0.3336        0.7742        0.0000        6.9420        6.9420       6.167803       0.00078
  41    0.4307        0.7742        0.0000        6.9420        6.9420       6.167794       0.00079
  40    0.5894        0.7742        0.0000        6.9420        6.9420       6.167778       0.00081
  39     1.339        0.7742        0.0000        6.9419        6.9419       6.167687       0.00103
  38     1.782        0.7742        0.0000        6.9418        6.9419       6.167616       0.00136
  37     2.292        0.7742        0.0000        6.9417        6.9418       6.167520       0.00159
  36     2.964        0.7742        0.0000        6.9416        6.9416       6.167378       0.00179
  35     3.853        0.7742        0.0000        6.9414        6.9414       6.167166       0.00201
  34     5.035        0.7742        0.0000        6.9411        6.9411       6.166854       0.00223
  33     6.613        0.7742        0.0000        6.9406        6.9406       6.166396       0.00245
  32     8.786        0.7742        0.0000        6.9399        6.9399       6.165719       0.00263
  31     11.80        0.7742        0.0000        6.9388        6.9389       6.164659       0.00297
  30     15.07        0.7742        0.0001        6.9376        6.9376       6.163419       0.00320
  29     18.79        0.7742        0.0001        6.9360        6.9361       6.161923       0.00339
  28     23.16        0.7742        0.0001        6.9342        6.9342       6.160073       0.00358
  27     28.12        0.7742        0.0001        6.9319        6.9320       6.157841       0.00379
  26     33.73        0.7741        0.0001        6.9291        6.9292       6.155102       0.00412
  25     40.54        0.7741        0.0002        6.9254        6.9255       6.151405       0.00459
  24     48.69        0.7741        0.0002        6.9204        6.9206       6.146509       0.00507
  23     57.69        0.7741        0.0002        6.9146        6.9148       6.140739       0.00541
  22     68.43        0.7741        0.0003        6.9074        6.9077       6.133559       0.00564
  21     81.20        0.7741        0.0003        6.8986        6.8989       6.124777       0.00580
  20     96.49        0.7741        0.0004        6.8879        6.8882       6.114156       0.00586
  19     114.6        0.7742        0.0004        6.8660        6.8665       6.092303       0.01020
  18     136.5        0.7743        0.0005        6.8434        6.8439       6.069640       0.00871
  17     162.9        0.7744        0.0006        6.8185        6.8191       6.044665       0.00798
  16     196.4        0.7746        0.0007        6.7877        6.7884       6.013789       0.00777
  15     218.7        0.7748        0.0008        6.7680        6.7688       5.994021       0.00751
  14     243.0        0.7750        0.0009        6.7469        6.7478       5.972790       0.00736
  13     269.0        0.7752        0.0010        6.7239        6.7249       5.949687       0.00749
  12     297.5        0.7755        0.0011        6.6981        6.6992       5.923654       0.00772
  11     328.5        0.7759        0.0012        6.6676        6.6688       5.892860       0.00837
  10     361.9        0.7765        0.0013        6.6306        6.6319       5.855476       0.00946
   9     398.1        0.7772        0.0014        6.5851        6.5865       5.809326       0.01075
   8     437.6        0.7782        0.0015        6.5278        6.5294       5.751195       0.01243
   7     480.5        0.7796        0.0017        6.4548        6.4564       5.676876       0.01460
   6     533.0        0.7817        0.0018        6.3478        6.3496       5.567894       0.01753
   5     589.8        0.7845        0.0020        6.2220        6.2240       5.439515       0.01906
   4     651.6        0.7883        0.0022        6.0834        6.0856       5.297305       0.01945
   3     718.7        0.7933        0.0023        5.9308        5.9331       5.139813       0.01979
   2     792.3        0.8002        0.0025        5.7561        5.7587       4.958444       0.02080
   1     891.5        0.8129        0.0027        5.5027        5.5055       4.692589       0.02262
   0    1013.0        0.8358        0.0030        5.1873        5.1903       4.354448       0.02348



 Wavenumbers:  4650. -  5150. cm-1, ATM      1
 LEVEL PRESSURE   UPWARD FLUX   DIFDOWN FLUX  DIRDOWN FLUX  DOWNWARD FLUX   NET FLUX    HEATING RATE
          mb          W/m2          W/m2          W/m2        W/m2          W/m2       degree/day
  51    .06700        0.5455        0.0000        6.5710        6.5710       6.025482       0.00000
  50    .07753        0.5455        0.0000        6.5708        6.5708       6.025251       0.18502
  49    .09103        0.5455        0.0000        6.5705        6.5705       6.024964       0.17986
  48    0.1069        0.5455        0.0000        6.5701        6.5701       6.024636       0.17441
  47    0.1255        0.5455        0.0000        6.5698        6.5698       6.024263       0.16884
  46    0.1487        0.5455        0.0000        6.5693        6.5693       6.023799       0.16912
  45    0.1794        0.5455        0.0000        6.5687        6.5687       6.023176       0.17113
  44    0.2165        0.5455        0.0000        6.5680        6.5680       6.022453       0.16444
  43    0.2613        0.5455        0.0000        6.5671        6.5671       6.021618       0.15751
  42    0.3336        0.5455        0.0000        6.5658        6.5658       6.020282       0.15573
  41    0.4307        0.5455        0.0000        6.5641        6.5641       6.018590       0.14713
  40    0.5894        0.5455        0.0000        6.5615        6.5615       6.016019       0.13670
  39     1.339        0.5455        0.0000        6.5519        6.5519       6.006409       0.10819
  38     1.782        0.5455        0.0000        6.5477        6.5477       6.002244       0.07929
  37     2.292        0.5455        0.0000        6.5439        6.5439       5.998375       0.06408
  36     2.964        0.5455        0.0000        6.5399        6.5399       5.994403       0.04987
  35     3.853        0.5455        0.0000        6.5359        6.5359       5.990411       0.03788
  34     5.035        0.5455        0.0000        6.5318        6.5318       5.986346       0.02904
  33     6.613        0.5455        0.0000        6.5273        6.5274       5.981895       0.02379
  32     8.786        0.5455        0.0001        6.5218        6.5218       5.976364       0.02148
  31     11.80        0.5455        0.0001        6.5136        6.5137       5.968251       0.02271
  30     15.07        0.5454        0.0001        6.5042        6.5043       5.958855       0.02426
  29     18.79        0.5454        0.0001        6.4926        6.4927       5.947313       0.02617
  28     23.16        0.5454        0.0001        6.4780        6.4781       5.932688       0.02828
  27     28.12        0.5454        0.0002        6.4600        6.4601       5.914720       0.03054
  26     33.73        0.5454        0.0002        6.4385        6.4387       5.893335       0.03215
  25     40.54        0.5454        0.0002        6.4115        6.4117       5.866310       0.03353
  24     48.69        0.5454        0.0003        6.3779        6.3782       5.832817       0.03466
  23     57.69        0.5454        0.0003        6.3409        6.3412       5.795874       0.03463
  22     68.43        0.5454        0.0004        6.2978        6.2982       5.752834       0.03384
  21     81.20        0.5454        0.0004        6.2491        6.2495       5.704134       0.03218
  20     96.49        0.5454        0.0005        6.1957        6.1962       5.650818       0.02943
  19     114.6        0.5455        0.0006        6.1357        6.1363       5.590819       0.02802
  18     136.5        0.5456        0.0007        6.0736        6.0743       5.528762       0.02386
  17     162.9        0.5458        0.0009        6.0080        6.0088       5.463074       0.02100
  16     196.4        0.5460        0.0010        5.9295        5.9306       5.384508       0.01978
  15     218.7        0.5463        0.0011        5.8794        5.8805       5.334241       0.01908
  14     243.0        0.5465        0.0013        5.8247        5.8259       5.279419       0.01901
  13     269.0        0.5468        0.0014        5.7646        5.7660       5.219159       0.01955
  12     297.5        0.5472        0.0015        5.6977        5.6993       5.152006       0.01992
  11     328.5        0.5478        0.0016        5.6221        5.6237       5.075954       0.02068
  10     361.9        0.5484        0.0018        5.5361        5.5379       4.989408       0.02190
   9     398.1        0.5494        0.0019        5.4381        5.4401       4.890739       0.02299
   8     437.6        0.5506        0.0021        5.3260        5.3281       4.777470       0.02422
   7     480.5        0.5522        0.0023        5.1990        5.2013       4.649093       0.02521
   6     533.0        0.5547        0.0024        5.0350        5.0375       4.482734       0.02676
   5     589.8        0.5581        0.0026        4.8539        4.8565       4.298415       0.02736
   4     651.6        0.5626        0.0028        4.6598        4.6627       4.100089       0.02712
   3     718.7        0.5685        0.0030        4.4563        4.4592       3.890712       0.02631
   2     792.3        0.5765        0.0032        4.2457        4.2488       3.672315       0.02505
   1     891.5        0.5904        0.0034        3.9775        3.9808       3.390403       0.02399
   0    1013.0        0.6135        0.0036        3.6791        3.6826       3.069138       0.02231



 Wavenumbers:  5150. -  6150. cm-1, ATM      1
 LEVEL PRESSURE   UPWARD FLUX   DIFDOWN FLUX  DIRDOWN FLUX  DOWNWARD FLUX   NET FLUX    HEATING RATE
          mb          W/m2          W/m2          W/m2        W/m2          W/m2       degree/day
  51    .06700        1.4710        0.0000       16.4735       16.4735      15.002499       0.00000
  50    .07753        1.4710        0.0000       16.4735       16.4735      15.002499       0.00018
  49    .09103        1.4710        0.0000       16.4735       16.4735      15.002499       0.00018
  48    0.1069        1.4710        0.0000       16.4735       16.4735      15.002498       0.00018
  47    0.1255        1.4710        0.0000       16.4735       16.4735      15.002498       0.00017
  46    0.1487        1.4710        0.0000       16.4735       16.4735      15.002498       0.00018
  45    0.1794        1.4710        0.0000       16.4735       16.4735      15.002497       0.00018
  44    0.2165        1.4710        0.0000       16.4735       16.4735      15.002496       0.00018
  43    0.2613        1.4710        0.0000       16.4735       16.4735      15.002495       0.00017
  42    0.3336        1.4710        0.0000       16.4735       16.4735      15.002494       0.00018
  41    0.4307        1.4710        0.0000       16.4735       16.4735      15.002492       0.00018
  40    0.5894        1.4710        0.0000       16.4735       16.4735      15.002488       0.00019
  39     1.339        1.4710        0.0000       16.4734       16.4734      15.002467       0.00024
  38     1.782        1.4710        0.0000       16.4734       16.4734      15.002451       0.00031
  37     2.292        1.4710        0.0001       16.4733       16.4734      15.002429       0.00036
  36     2.964        1.4715        0.0001       14.8044       14.8045      13.332926      20.95730
  35     3.853        1.4718        0.0001       14.5520       14.5521      13.080340       2.39709
  34     5.035        1.4720        0.0001       14.4243       14.4245      12.952478       0.91340
  33     6.613        1.4721        0.0002       14.3492       14.3494      12.877282       0.40199
  32     8.786        1.4721        0.0002       14.3002       14.3004      12.828298       0.19024
  31     11.80        1.4722        0.0003       14.2627       14.2630      12.790807       0.10496
  30     15.07        1.4722        0.0004       14.2376       14.2380      12.765812       0.06453
  29     18.79        1.4721        0.0004       14.2181       14.2185      12.746377       0.04407
  28     23.16        1.4721        0.0005       14.2004       14.2010      12.728852       0.03389
  27     28.12        1.4721        0.0006       14.1848       14.1854      12.713324       0.02640
  26     33.73        1.4720        0.0008       14.1707       14.1714      12.699409       0.02092
  25     40.54        1.4720        0.0009       14.1562       14.1572      12.685176       0.01766
  24     48.69        1.4719        0.0011       14.1397       14.1408      12.668843       0.01690
  23     57.69        1.4719        0.0013       14.1216       14.1229      12.651042       0.01669
  22     68.43        1.4718        0.0015       14.1004       14.1019      12.630112       0.01645
  21     81.20        1.4718        0.0018       14.0756       14.0775      12.605682       0.01614
  20     96.49        1.4717        0.0022       14.0470       14.0492      12.577466       0.01557
  19     114.6        1.4717        0.0026       14.0144       14.0169      12.545262       0.01504
  18     136.5        1.4716        0.0030       13.9779       13.9809      12.509357       0.01381
  17     162.9        1.4715        0.0036       13.9383       13.9419      12.470408       0.01245
  16     196.4        1.4713        0.0043       13.8925       13.8969      12.425563       0.01129
  15     218.7        1.4712        0.0048       13.8655       13.8703      12.399152       0.01003
  14     243.0        1.4710        0.0053       13.8372       13.8426      12.371545       0.00957
  13     269.0        1.4709        0.0059       13.8057       13.8116      12.340700       0.01001
  12     297.5        1.4707        0.0065       13.7636       13.7701      12.299344       0.01227
  11     328.5        1.4706        0.0071       13.6967       13.7038      12.233249       0.01797
  10     361.9        1.4705        0.0078       13.5857       13.5935      12.123059       0.02788
   9     398.1        1.4705        0.0085       13.4091       13.4176      11.947162       0.04098
   8     437.6        1.4706        0.0092       13.1428       13.1520      11.681407       0.05682
   7     480.5        1.4710        0.0099       12.7655       12.7754      11.304460       0.07403
   6     533.0        1.4719        0.0106       12.1918       12.2024      10.730579       0.09232
   5     589.8        1.4735        0.0113       11.5438       11.5550      10.081554       0.09634
   4     651.6        1.4763        0.0118       10.9015       10.9133       9.437034       0.08814
   3     718.7        1.4808        0.0124       10.3188       10.3312       8.850383       0.07373
   2     792.3        1.4882        0.0130        9.8187        9.8317       8.343462       0.05814
   1     891.5        1.5034        0.0139        9.3220        9.3358       7.832402       0.04349
   0    1013.0        1.5345        0.0150        8.8650        8.8799       7.345378       0.03382



 Wavenumbers:  6150. -  7700. cm-1, ATM      1
 LEVEL PRESSURE   UPWARD FLUX   DIFDOWN FLUX  DIRDOWN FLUX  DOWNWARD FLUX   NET FLUX    HEATING RATE
          mb          W/m2          W/m2          W/m2        W/m2          W/m2       degree/day
  51    .06700        2.5301        0.0000       30.4684       30.4684      27.938250       0.00000
  50    .07753        2.5301        0.0000       30.4684       30.4684      27.938234       0.01303
  49    .09103        2.5301        0.0000       30.4683       30.4683      27.938214       0.01277
  48    0.1069        2.5301        0.0000       30.4683       30.4683      27.938190       0.01250
  47    0.1255        2.5301        0.0000       30.4683       30.4683      27.938163       0.01223
  46    0.1487        2.5301        0.0000       30.4682       30.4683      27.938129       0.01241
  45    0.1794        2.5301        0.0000       30.4682       30.4682      27.938083       0.01276
  44    0.2165        2.5301        0.0000       30.4681       30.4681      27.938028       0.01252
  43    0.2613        2.5301        0.0000       30.4681       30.4681      27.937963       0.01228
  42    0.3336        2.5301        0.0000       30.4679       30.4680      27.937855       0.01256
  41    0.4307        2.5301        0.0000       30.4678       30.4678      27.937712       0.01241
  40    0.5894        2.5301        0.0001       30.4675       30.4676      27.937479       0.01239
  39     1.339        2.5300        0.0001       30.4662       30.4664      27.936380       0.01238
  38     1.782        2.5300        0.0002       30.4655       30.4657      27.935735       0.01227
  37     2.292        2.5299        0.0002       30.4647       30.4649      27.934990       0.01234
  36     2.964        2.5307        0.0003       27.6544       27.6548      25.124048      35.28581
  35     3.853        2.5311        0.0004       27.3059       27.3064      24.775271       3.30996
  34     5.035        2.5313        0.0006       27.1279       27.1285      24.597198       1.27207
  33     6.613        2.5313        0.0007       27.0234       27.0242      24.492848       0.55786
  32     8.786        2.5312        0.0009       26.9560       26.9569      24.425628       0.26106
  31     11.80        2.5311        0.0012       26.9047       26.9059      24.374813       0.14227
  30     15.07        2.5308        0.0015       26.8707       26.8723      24.341436       0.08617
  29     18.79        2.5306        0.0019       26.8445       26.8464      24.315846       0.05802
  28     23.16        2.5302        0.0023       26.8210       26.8233      24.293046       0.04409
  27     28.12        2.5298        0.0028       26.8002       26.8030      24.273139       0.03384
  26     33.73        2.5294        0.0033       26.7818       26.7851      24.255722       0.02619
  25     40.54        2.5288        0.0040       26.7633       26.7673      24.238486       0.02138
  24     48.69        2.5281        0.0048       26.7426       26.7474      24.219227       0.01993
  23     57.69        2.5274        0.0056       26.7204       26.7260      24.198598       0.01934
  22     68.43        2.5265        0.0066       26.6945       26.7011      24.174597       0.01887
  21     81.20        2.5254        0.0079       26.6642       26.6721      24.146653       0.01846
  20     96.49        2.5242        0.0093       26.6290       26.6383      24.114158       0.01793
  19     114.6        2.5227        0.0110       26.5873       26.5983      24.075672       0.01797
  18     136.5        2.5209        0.0131       26.5389       26.5520      24.031131       0.01713
  17     162.9        2.5188        0.0155       26.4827       26.4982      23.979409       0.01653
  16     196.4        2.5160        0.0187       26.4114       26.4301      23.914115       0.01644
  15     218.7        2.5142        0.0208       26.3656       26.3864      23.872159       0.01593
  14     243.0        2.5122        0.0230       26.3164       26.3394      23.827223       0.01559
  13     269.0        2.5101        0.0255       26.2609       26.2863      23.776251       0.01654
  12     297.5        2.5078        0.0281       26.1870       26.2151      23.707268       0.02046
  11     328.5        2.5055        0.0309       26.0704       26.1013      23.595845       0.03030
  10     361.9        2.5031        0.0339       25.8781       25.9119      23.408851       0.04731
   9     398.1        2.5008        0.0370       25.5704       25.6074      23.106597       0.07042
   8     437.6        2.4988        0.0401       25.1026       25.1427      22.643905       0.09893
   7     480.5        2.4974        0.0431       24.4271       24.4702      21.972787       0.13181
   6     533.0        2.4973        0.0463       23.3744       23.4207      20.923441       0.16881
   5     589.8        2.4994        0.0491       22.1263       22.1754      19.675993       0.18516
   4     651.6        2.5051        0.0515       20.7932       20.8448      18.339656       0.18275
   3     718.7        2.5164        0.0537       19.4599       19.5136      16.997261       0.16870
   2     792.3        2.5365        0.0556       18.1692       18.2248      15.688305       0.15012
   1     891.5        2.5813        0.0580       16.6816       16.7396      14.158343       0.13019
   0    1013.0        2.6792        0.0604       15.1835       15.2439      12.564758       0.11065



 Wavenumbers:  7700. -  8050. cm-1, ATM      1
 LEVEL PRESSURE   UPWARD FLUX   DIFDOWN FLUX  DIRDOWN FLUX  DOWNWARD FLUX   NET FLUX    HEATING RATE
          mb          W/m2          W/m2          W/m2        W/m2          W/m2       degree/day
  51    .06700        1.0622        0.0000        7.2006        7.2006       6.138426       0.00000
  50    .07753        1.0622        0.0000        7.2006        7.2006       6.138408       0.01479
  49    .09103        1.0622        0.0000        7.2005        7.2005       6.138385       0.01450
  48    0.1069        1.0622        0.0000        7.2005        7.2005       6.138358       0.01419
  47    0.1255        1.0622        0.0000        7.2005        7.2005       6.138327       0.01389
  46    0.1487        1.0622        0.0000        7.2004        7.2005       6.138289       0.01409
  45    0.1794        1.0622        0.0000        7.2004        7.2004       6.138236       0.01450
  44    0.2165        1.0622        0.0000        7.2003        7.2003       6.138173       0.01422
  43    0.2613        1.0622        0.0000        7.2003        7.2003       6.138099       0.01396
  42    0.3336        1.0622        0.0000        7.2001        7.2001       6.137977       0.01428
  41    0.4307        1.0622        0.0000        7.2000        7.2000       6.137815       0.01412
  40    0.5894        1.0622        0.0000        7.1997        7.1997       6.137549       0.01410
  39     1.339        1.0622        0.0001        7.1984        7.1985       6.136295       0.01412
  38     1.782        1.0622        0.0001        7.1977        7.1978       6.135558       0.01402
  37     2.292        1.0622        0.0001        7.1968        7.1969       6.134706       0.01411
  36     2.964        1.0622        0.0001        7.1957        7.1958       6.133588       0.01404
  35     3.853        1.0622        0.0002        7.1942        7.1943       6.132111       0.01401
  34     5.035        1.0623        0.0002        7.1922        7.1924       6.130151       0.01400
  33     6.613        1.0623        0.0003        7.1895        7.1898       6.127535       0.01398
  32     8.786        1.0624        0.0004        7.1860        7.1864       6.124016       0.01367
  31     11.80        1.0624        0.0005        7.1809        7.1814       6.118993       0.01406
  30     15.07        1.0625        0.0007        7.1755        7.1761       6.113616       0.01388
  29     18.79        1.0626        0.0008        7.1693        7.1702       6.107563       0.01373
  28     23.16        1.0627        0.0010        7.1622        7.1632       6.100520       0.01362
  27     28.12        1.0629        0.0012        7.1541        7.1554       6.092504       0.01363
  26     33.73        1.0630        0.0015        7.1451        7.1466       6.083582       0.01341
  25     40.54        1.0632        0.0018        7.1343        7.1361       6.072871       0.01329
  24     48.69        1.0634        0.0021        7.1213        7.1235       6.060057       0.01326
  23     57.69        1.0636        0.0025        7.1073        7.1098       6.046107       0.01308
  22     68.43        1.0639        0.0030        7.0907        7.0936       6.029661       0.01293
  21     81.20        1.0643        0.0035        7.0711        7.0746       6.010305       0.01279
  20     96.49        1.0647        0.0041        7.0482        7.0523       5.987568       0.01255
  19     114.6        1.0653        0.0049        7.0213        7.0262       5.960948       0.01243
  18     136.5        1.0659        0.0058        6.9901        6.9959       5.930016       0.01189
  17     162.9        1.0667        0.0068        6.9538        6.9607       5.894006       0.01151
  16     196.4        1.0677        0.0082        6.9080        6.9162       5.848487       0.01146
  15     218.7        1.0684        0.0091        6.8786        6.8878       5.819331       0.01107
  14     243.0        1.0692        0.0101        6.8473        6.8574       5.788221       0.01079
  13     269.0        1.0701        0.0111        6.8141        6.8252       5.755142       0.01073
  12     297.5        1.0711        0.0123        6.7789        6.7912       5.720094       0.01039
  11     328.5        1.0722        0.0135        6.7416        6.7551       5.682899       0.01011
  10     361.9        1.0734        0.0148        6.7021        6.7169       5.643479       0.00997
   9     398.1        1.0747        0.0162        6.6603        6.6765       5.601753       0.00972
   8     437.6        1.0763        0.0177        6.6162        6.6339       5.557606       0.00944
   7     480.5        1.0780        0.0193        6.5695        6.5888       5.510747       0.00920
   6     533.0        1.0803        0.0212        6.5125        6.5337       5.453402       0.00922
   5     589.8        1.0830        0.0233        6.4513        6.4746       5.391653       0.00917
   4     651.6        1.0861        0.0256        6.3854        6.4110       5.324908       0.00913
   3     718.7        1.0898        0.0280        6.3144        6.3423       5.252536       0.00910
   2     792.3        1.0941        0.0305        6.2374        6.2679       5.173805       0.00903
   1     891.5        1.1007        0.0339        6.1317        6.1655       5.064853       0.00927
   0    1013.0        1.1098        0.0378        6.0004        6.0383       4.928469       0.00947



 Wavenumbers:  8050. - 12850. cm-1, ATM      1
 LEVEL PRESSURE   UPWARD FLUX   DIFDOWN FLUX  DIRDOWN FLUX  DOWNWARD FLUX   NET FLUX    HEATING RATE
          mb          W/m2          W/m2          W/m2        W/m2          W/m2       degree/day
  51    .06700       25.3020        0.0000      100.8135      100.8135      75.511489       0.00000
  50    .07753       25.3020        0.0000      100.8135      100.8135      75.511489       0.00000
  49    .09103       25.3020        0.0001      100.8134      100.8135      75.511489       0.00000
  48    0.1069       25.3020        0.0001      100.8134      100.8134      75.511489      -0.00000
  47    0.1255       25.3019        0.0001      100.8133      100.8134      75.511489       0.00000
  46    0.1487       25.3019        0.0002      100.8132      100.8134      75.511489      -0.00000
  45    0.1794       25.3018        0.0002      100.8131      100.8133      75.511489       0.00000
  44    0.2165       25.3018        0.0003      100.8129      100.8133      75.511489      -0.00000
  43    0.2613       25.3017        0.0004      100.8127      100.8132      75.511489       0.00000
  42    0.3336       25.3016        0.0006      100.8125      100.8130      75.511489      -0.00000
  41    0.4307       25.3014        0.0008      100.8121      100.8129      75.511489       0.00000
  40    0.5894       25.3011        0.0012      100.8115      100.8126      75.511489       0.00000
  39     1.339       25.2998        0.0028      100.8085      100.8113      75.511489       0.00000
  38     1.782       25.2990        0.0038      100.8068      100.8105      75.511489       0.00000
  37     2.292       25.2981        0.0049      100.8047      100.8096      75.511489       0.00000
  36     2.964       25.2962        0.0073      100.8003      100.8077      75.511489       0.00000
  35     3.853       25.2944        0.0097      100.7962      100.8059      75.511489      -0.00000
  34     5.035       25.2922        0.0124      100.7912      100.8037      75.511489       0.00000
  33     6.613       25.2894        0.0160      100.7849      100.8008      75.511489       0.00000
  32     8.786       25.2856        0.0207      100.7764      100.7971      75.511489      -0.00000
  31     11.80       25.2803        0.0274      100.7644      100.7918      75.511489      -0.00000
  30     15.07       25.2746        0.0346      100.7515      100.7861      75.511489      -0.00000
  29     18.79       25.2681        0.0427      100.7369      100.7796      75.511489       0.00000
  28     23.16       25.2606        0.0522      100.7199      100.7721      75.511489       0.00000
  27     28.12       25.2520        0.0631      100.7004      100.7635      75.511489      -0.00000
  26     33.73       25.2423        0.0753      100.6785      100.7538      75.511489      -0.00000
  25     40.54       25.2306        0.0900      100.6521      100.7421      75.511489       0.00000
  24     48.69       25.2165        0.1078      100.6202      100.7280      75.511489       0.00000
  23     57.69       25.2010        0.1273      100.5851      100.7125      75.511489       0.00000
  22     68.43       25.1824        0.1506      100.5433      100.6939      75.511489      -0.00000
  21     81.20       25.1603        0.1785      100.4934      100.6718      75.511489       0.00000
  20     96.49       25.1339        0.2116      100.4338      100.6454      75.511489      -0.00000
  19     114.6       25.1044        0.2510      100.2119      100.4629      75.358447       0.07146
  18     136.5       25.0689        0.2976      100.0000      100.2976      75.228722       0.04988
  17     162.9       25.0260        0.3533       99.7885      100.1418      75.115776       0.03610
  16     196.4       24.9695        0.4256       99.5512       99.9768      75.007321       0.02730
  15     218.7       24.9320        0.4732       99.4096       99.8827      74.950735       0.02148
  14     243.0       24.8912        0.5250       99.2638       99.7888      74.897621       0.01842
  13     269.0       24.8468        0.5812       99.1089       99.6901      74.843303       0.01762
  12     297.5       24.7989        0.6420       98.9317       99.5737      74.774836       0.02031
  11     328.5       24.7474        0.7077       98.7097       99.4174      74.669984       0.02851
  10     361.9       24.6928        0.7784       98.4191       99.1976      74.504776       0.04180
   9     398.1       24.6353        0.8543       98.0348       98.8892      74.253906       0.05845
   8     437.6       24.5757        0.9355       97.5240       98.4595      73.883724       0.07915
   7     480.5       24.5158        1.0218       96.8374       97.8591      73.343354       0.10613
   6     533.0       24.4500        1.1265       95.7703       96.8967      72.446720       0.14424
   5     589.8       24.3912        1.2372       94.4110       95.6482      71.256998       0.17659
   4     651.6       24.3451        1.3536       92.7651       94.1186      69.773527       0.20287
   3     718.7       24.3209        1.4750       90.8279       92.3029      67.981964       0.22515
   2     792.3       24.3333        1.6005       88.6061       90.2065      65.873276       0.24184
   1     891.5       24.4292        1.7629       85.5362       87.2991      62.869870       0.25558
   0    1013.0       24.7184        1.9477       81.8000       83.7478      59.029327       0.26667



 Wavenumbers: 12850. - 16000. cm-1, ATM      1
 LEVEL PRESSURE   UPWARD FLUX   DIFDOWN FLUX  DIRDOWN FLUX  DOWNWARD FLUX   NET FLUX    HEATING RATE
          mb          W/m2          W/m2          W/m2        W/m2          W/m2       degree/day
  51    .06700       33.6604        0.0000       63.1686       63.1686      29.508159       0.00000
  50    .07753       33.6604        0.0001       63.1677       63.1678      29.507379       0.62490
  49    .09103       33.6604        0.0001       63.1666       63.1668      29.506407       0.60725
  48    0.1069       33.6603        0.0002       63.1654       63.1656      29.505301       0.58881
  47    0.1255       33.6603        0.0003       63.1640       63.1643      29.504043       0.57032
  46    0.1487       33.6602        0.0004       63.1623       63.1627      29.502475       0.57182
  45    0.1794       33.6602        0.0006       63.1600       63.1606      29.500371       0.57745
  44    0.2165       33.6601        0.0008       63.1573       63.1581      29.497938       0.55344
  43    0.2613       33.6601        0.0010       63.1542       63.1552      29.495132       0.52889
  42    0.3336       33.6600        0.0014       63.1493       63.1507      29.490661       0.52133
  41    0.4307       33.6600        0.0019       63.1431       63.1450      29.485057       0.48727
  40    0.5894       33.6599        0.0027       63.1338       63.1365      29.476569       0.45139
  39     1.339       33.6612        0.0065       63.0955       63.1021      29.440897       0.40159
  38     1.782       33.6629        0.0088       63.0739       63.0827      29.419870       0.40033
  37     2.292       33.6657        0.0114       63.0475       63.0589      29.393159       0.44240
  36     2.964       33.6694        0.0172       63.0054       63.0226      29.353165       0.50204
  35     3.853       33.6776        0.0226       62.9476       62.9701      29.292529       0.57545
  34     5.035       33.6908        0.0290       62.8660       62.8949      29.204128       0.63150
  33     6.613       33.7097        0.0372       62.7550       62.7922      29.082577       0.64981
  32     8.786       33.7342        0.0481       62.6109       62.6590      28.924876       0.61245
  31     11.80       33.7655        0.0636       62.4208       62.4844      28.718881       0.57672
  30     15.07       33.7948        0.0801       62.2349       62.3150      28.520240       0.51285
  29     18.79       33.8239        0.0988       62.0414       62.1402      28.316280       0.46244
  28     23.16       33.8533        0.1204       61.8345       61.9549      28.101569       0.41518
  27     28.12       33.8817        0.1452       61.6198       61.7649      27.883236       0.37115
  26     33.73       33.9059        0.1728       61.4096       61.5824      27.676575       0.31072
  25     40.54       33.9262        0.2061       61.1903       61.3964      27.470200       0.25603
  24     48.69       33.9422        0.2462       60.9601       61.2063      27.264023       0.21336
  23     57.69       33.9516        0.2902       60.7400       61.0301      27.078556       0.17385
  22     68.43       33.9538        0.3425       60.5124       60.8549      26.901175       0.13945
  21     81.20       33.9441        0.4048       60.2862       60.6910      26.746865       0.10197
  20     96.49       33.9213        0.4790       60.0567       60.5357      26.614418       0.07310
  19     114.6       33.8929        0.5675       59.7979       60.3655      26.472582       0.06623
  18     136.5       33.8545        0.6722       59.5038       60.1760      26.321479       0.05810
  17     162.9       33.8045        0.7965       59.1632       59.9597      26.155178       0.05316
  16     196.4       33.7306        0.9573       58.7453       59.7026      25.971960       0.04612
  15     218.7       33.6788        1.0626       58.4798       59.5424      25.863626       0.04113
  14     243.0       33.6210        1.1768       58.1957       59.3725      25.751521       0.03888
  13     269.0       33.5569        1.3002       57.8935       59.1937      25.636842       0.03720
  12     297.5       33.4863        1.4333       57.5722       59.0055      25.519254       0.03488
  11     328.5       33.4096        1.5768       57.2283       58.8050      25.395492       0.03365
  10     361.9       33.3268        1.7308       56.8603       58.5910      25.264299       0.03319
   9     398.1       33.2377        1.8960       56.4659       58.3620      25.124262       0.03263
   8     437.6       33.1428        2.0729       56.0417       58.1146      24.971831       0.03259
   7     480.5       33.0423        2.2618       55.5842       57.8461      24.803786       0.03300
   6     533.0       32.9214        2.4933       55.0119       57.5053      24.583810       0.03539
   5     589.8       32.7958        2.7415       54.3836       57.1251      24.329381       0.03777
   4     651.6       32.6672        3.0066       53.6956       56.7021      24.034932       0.04027
   3     718.7       32.5386        3.2887       52.9436       56.2323      23.693698       0.04288
   2     792.3       32.4145        3.5875       52.1247       55.7122      23.297741       0.04541
   1     891.5       32.2741        3.9851       51.0046       54.9896      22.715547       0.04954
   0    1013.0       32.1581        4.4531       49.6411       54.0942      21.936049       0.05412



 Wavenumbers: 16000. - 22650. cm-1, ATM      1
 LEVEL PRESSURE   UPWARD FLUX   DIFDOWN FLUX  DIRDOWN FLUX  DOWNWARD FLUX   NET FLUX    HEATING RATE
          mb          W/m2          W/m2          W/m2        W/m2          W/m2       degree/day
  51    .06700       75.8004        0.0000      100.7153      100.7153      24.914869       0.00000
  50    .07753       75.8003        0.0003      100.7147      100.7151      24.914752       0.09419
  49    .09103       75.8002        0.0007      100.7140      100.7147      24.914581       0.10684
  48    0.1069       75.8000        0.0012      100.7131      100.7143      24.914352       0.12183
  47    0.1255       75.7998        0.0017      100.7121      100.7139      24.914046       0.13887
  46    0.1487       75.7996        0.0024      100.7108      100.7132      24.913594       0.16456
  45    0.1794       75.7994        0.0034      100.7089      100.7122      24.912888       0.19375
  44    0.2165       75.7991        0.0045      100.7066      100.7110      24.911931       0.21775
  43    0.2613       75.7988        0.0058      100.7037      100.7095      24.910633       0.24480
  42    0.3336       75.7985        0.0079      100.6987      100.7066      24.908163       0.28788
  41    0.4307       75.7981        0.0108      100.6918      100.7026      24.904442       0.32360
  40    0.5894       75.7979        0.0155      100.6797      100.6952      24.897344       0.37745
  39     1.339       75.8023        0.0377      100.6095      100.6472      24.844915       0.59025
  38     1.782       75.8089        0.0507      100.5585      100.6092      24.800266       0.85005
  37     2.292       75.8204        0.0658      100.4903      100.5561      24.735656       1.07011
  36     2.964       75.8348        0.0988      100.3671      100.4658      24.631041       1.31324
  35     3.853       75.8682        0.1298      100.2036      100.3334      24.465172       1.57413
  34     5.035       75.9227        0.1668       99.9739      100.1407      24.217982       1.76582
  33     6.613       76.0007        0.2141       99.6616       99.8757      23.874991       1.83363
  32     8.786       76.1020        0.2768       99.2549       99.5316      23.429599       1.72974
  31     11.80       76.2315        0.3656       98.7159       99.0815      22.850042       1.62258
  30     15.07       76.3521        0.4604       98.1860       98.6463      22.294209       1.43505
  29     18.79       76.4719        0.5669       97.6312       98.1982      21.726263       1.28771
  28     23.16       76.5928        0.6909       97.0333       97.7242      21.131406       1.15026
  27     28.12       76.7088        0.8321       96.4068       97.2389      20.530149       1.02210
  26     33.73       76.8065        0.9896       95.7842       96.7738      19.967292       0.84627
  25     40.54       76.8876        1.1792       95.1213       96.3005      19.412867       0.68783
  24     48.69       76.9495        1.4068       94.4086       95.8154      18.865911       0.56601
  23     57.69       76.9829        1.6559       93.7084       95.3643      18.381317       0.45423
  22     68.43       76.9856        1.9512       92.9623       94.9136      17.927987       0.35638
  21     81.20       76.9378        2.3018       92.1903       94.4921      17.554276       0.24694
  20     96.49       76.8339        2.7175       91.3784       94.0959      17.262003       0.16131
  19     114.6       76.6874        3.2077       90.4744       93.6821      16.994748       0.12479
  18     136.5       76.4987        3.7839       89.4476       93.2315      16.732833       0.10071
  17     162.9       76.2611        4.4631       88.2697       92.7327      16.471613       0.08350
  16     196.4       75.9242        5.3337       86.8284       92.1620      16.237821       0.05885
  15     218.7       75.6931        5.8991       85.9173       91.8164      16.123254       0.04350
  14     243.0       75.4383        6.5082       84.9476       91.4558      16.017499       0.03668
  13     269.0       75.1585        7.1617       83.9193       91.0810      15.922570       0.03079
  12     297.5       74.8529        7.8604       82.8315       90.6920      15.839040       0.02477
  11     328.5       74.5228        8.6069       81.6750       90.2819      15.759058       0.02175
  10     361.9       74.1680        9.4006       80.4504       89.8509      15.682937       0.01926
   9     398.1       73.7874       10.2435       79.1543       89.3979      15.610452       0.01689
   8     437.6       73.3812       11.1359       77.7853       88.9212      15.540024       0.01506
   7     480.5       72.9488       12.0780       76.3427       88.4207      15.471923       0.01337
   6     533.0       72.4217       13.2174       74.5993       87.8168      15.395083       0.01236
   5     589.8       71.8609       14.4212       72.7567       87.1779      15.316988       0.01159
   4     651.6       71.2672       15.6876       70.8155       86.5032      15.235920       0.01109
   3     718.7       70.6413       17.0148       68.7768       85.7915      15.150232       0.01077
   2     792.3       69.9851       18.3983       66.6447       85.0430      15.057927       0.01059
   1     891.5       69.1232       20.2055       63.8459       84.0514      14.928219       0.01104
   0    1013.0       68.1258       22.2851       60.6007       82.8858      14.759998       0.01168



 Wavenumbers: 22650. - 29000. cm-1, ATM      1
 LEVEL PRESSURE   UPWARD FLUX   DIFDOWN FLUX  DIRDOWN FLUX  DOWNWARD FLUX   NET FLUX    HEATING RATE
          mb          W/m2          W/m2          W/m2        W/m2          W/m2       degree/day
  51    .06700       34.3501        0.0000       38.0063       38.0063       3.656223       0.00000
  50    .07753       34.3499        0.0004       38.0057       38.0061       3.656223       0.00000
  49    .09103       34.3497        0.0009       38.0050       38.0059       3.656223       0.00000
  48    0.1069       34.3495        0.0014       38.0042       38.0057       3.656223       0.00000
  47    0.1255       34.3492        0.0021       38.0033       38.0054       3.656223      -0.00000
  46    0.1487       34.3488        0.0029       38.0022       38.0050       3.656223       0.00000
  45    0.1794       34.3483        0.0040       38.0006       38.0046       3.656223       0.00000
  44    0.2165       34.3478        0.0053       37.9987       38.0040       3.656223       0.00000
  43    0.2613       34.3471        0.0068       37.9965       38.0033       3.656223       0.00000
  42    0.3336       34.3460        0.0094       37.9928       38.0022       3.656223      -0.00000
  41    0.4307       34.3445        0.0128       37.9880       38.0008       3.656223       0.00000
  40    0.5894       34.3421        0.0183       37.9800       37.9984       3.656223       0.00000
  39     1.339       34.3308        0.0446       37.9425       37.9870       3.656223       0.00000
  38     1.782       34.3242        0.0600       37.9204       37.9804       3.656223      -0.00000
  37     2.292       34.3165        0.0778       37.8949       37.9727       3.656223       0.00000
  36     2.964       34.2996        0.1167       37.8391       37.9559       3.656223      -0.00000
  35     3.853       34.2838        0.1534       37.7866       37.9400       3.656223       0.00000
  34     5.035       34.2649        0.1971       37.7240       37.9211       3.656223       0.00000
  33     6.613       34.2407        0.2532       37.6437       37.8969       3.656223       0.00000
  32     8.786       34.2086        0.3274       37.5374       37.8648       3.656223       0.00000
  31     11.80       34.1631        0.4326       37.3867       37.8193       3.656223       0.00000
  30     15.07       34.1145        0.5449       37.2258       37.7707       3.656223       0.00000
  29     18.79       34.0598        0.6711       37.0449       37.7160       3.656223       0.00000
  28     23.16       33.9963        0.8178       36.8347       37.6525       3.656223      -0.00000
  27     28.12       33.9239        0.9846       36.5956       37.5802       3.656223       0.00000
  26     33.73       33.8435        1.1700       36.3297       37.4997       3.656223      -0.00000
  25     40.54       33.7469        1.3923       36.0108       37.4032       3.656223       0.00000
  24     48.69       33.6315        1.6579       35.6299       37.2877       3.656223      -0.00000
  23     57.69       33.5059        1.9464       35.2157       37.1621       3.656223      -0.00000
  22     68.43       33.3580        2.2858       34.7284       37.0142       3.656223       0.00000
  21     81.20       33.1840        2.6839       34.1563       36.8403       3.656223       0.00000
  20     96.49       32.9801        3.1498       33.4865       36.6363       3.656223      -0.00000
  19     114.6       32.7426        3.6909       32.7080       36.3989       3.656223       0.00000
  18     136.5       32.4676        4.3156       31.8082       36.1238       3.656223       0.00000
  17     162.9       32.1489        5.0366       30.7685       35.8051       3.656223       0.00000
  16     196.4       31.7493        5.9357       29.4698       35.4055       3.656223      -0.00000
  15     218.7       31.4952        6.5047       28.6468       35.1515       3.656223       0.00000
  14     243.0       31.2262        7.1045       27.7779       34.8824       3.656223       0.00000
  13     269.0       30.9428        7.7334       26.8656       34.5990       3.656223      -0.00000
  12     297.5       30.6457        8.3891       25.9129       34.3019       3.656223       0.00000
  11     328.5       30.3349        9.0709       24.9202       33.9912       3.656223      -0.00000
  10     361.9       30.0118        9.7751       23.8929       33.6680       3.656223      -0.00000
   9     398.1       29.6766       10.5000       22.8329       33.3329       3.656223       0.00000
   8     437.6       29.3310       11.2411       21.7461       32.9872       3.656223      -0.00000
   7     480.5       28.9760       11.9948       20.6375       32.6322       3.656223       0.00000
   6     533.0       28.5594       12.8690       19.3467       32.2156       3.656223       0.00000
   5     589.8       28.1343       13.7481       18.0424       31.7906       3.656223      -0.00000
   4     651.6       27.7031       14.6251       16.7343       31.3594       3.656223       0.00000
   3     718.7       27.2679       15.4934       15.4307       30.9241       3.656223       0.00000
   2     792.3       26.8317       16.3439       14.1441       30.4880       3.656223      -0.00000
   1     891.5       26.2877       17.3733       12.5707       29.9439       3.656223       0.00000
   0    1013.0       25.6951       18.4474       10.9039       29.3513       3.656223      -0.00000



 Wavenumbers: 29000. - 38000. cm-1, ATM      1
 LEVEL PRESSURE   UPWARD FLUX   DIFDOWN FLUX  DIRDOWN FLUX  DOWNWARD FLUX   NET FLUX    HEATING RATE
          mb          W/m2          W/m2          W/m2        W/m2          W/m2       degree/day
  51    .06700        4.8791        0.0000       13.4026       13.4026       8.523465       0.00000
  50    .07753        4.8789        0.0003       13.3983       13.3986       8.519675       3.03822
  49    .09103        4.8786        0.0007       13.3921       13.3928       8.514167       3.44263
  48    0.1069        4.8783        0.0011       13.3841       13.3851       8.506803       3.91976
  47    0.1255        4.8780        0.0016       13.3734       13.3750       8.496974       4.45605
  46    0.1487        4.8776        0.0022       13.3579       13.3601       8.482557       5.25502
  45    0.1794        4.8770        0.0030       13.3342       13.3372       8.460190       6.14033
  44    0.2165        4.8763        0.0040       13.3025       13.3065       8.430190       6.82451
  43    0.2613        4.8756        0.0052       13.2605       13.2657       8.390142       7.54887
  42    0.3336        4.8743        0.0070       13.1834       13.1905       8.316143       8.62750
  41    0.4307        4.8728        0.0095       13.0730       13.0825       8.209676       9.25708
  40    0.5894        4.8704        0.0134       12.8795       12.8929       8.022506       9.95346
  39     1.339        4.8621        0.0296       11.9153       11.9450       7.082916      10.57808
  38     1.782        4.8589        0.0379       11.4377       11.4757       6.616788       8.87432
  37     2.292        4.8566        0.0468       10.9754       11.0222       6.165588       7.47305
  36     2.964        4.8493        0.0663       10.4569       10.5232       5.673911       6.17203
  35     3.853        4.8480        0.0824        9.9153        9.9977       5.149672       4.97512
  34     5.035        4.8507        0.1001        9.3708        9.4709       4.620213       3.78224
  33     6.613        4.8566        0.1214        8.8449        8.9663       4.109681       2.72930
  32     8.786        4.8651        0.1486        8.3495        8.4981       3.633022       1.85117
  31     11.80        4.8755        0.1859        7.8619        8.0478       3.172273       1.28995
  30     15.07        4.8846        0.2244        7.4840        7.7084       2.823788       0.89972
  29     18.79        4.8930        0.2663        7.1515        7.4178       2.524840       0.67781
  28     23.16        4.9007        0.3136        6.8407        7.1543       2.253533       0.52462
  27     28.12        4.9070        0.3659        6.5529        6.9189       2.011879       0.41079
  26     33.73        4.9093        0.4231        6.2950        6.7181       1.808836       0.30528
  25     40.54        4.9064        0.4905        6.0426        6.5330       1.626616       0.22607
  24     48.69        4.8980        0.5695        5.7896        6.3591       1.461109       0.17127
  23     57.69        4.8840        0.6538        5.5547        6.2085       1.324522       0.12803
  22     68.43        4.8621        0.7515        5.3150        6.0665       1.204395       0.09444
  21     81.20        4.8281        0.8648        5.0739        5.9387       1.110626       0.06196
  20     96.49        4.7806        0.9957        4.8255        5.8212       1.040616       0.03864
  19     114.6        4.7228        1.1440        4.5584        5.7024       0.979581       0.02850
  18     136.5        4.6558        1.3097        4.2684        5.5781       0.922352       0.02201
  17     162.9        4.5790        1.4940        3.9527        5.4467       0.867761       0.01745
  16     196.4        4.4816        1.7145        3.5883        5.3028       0.821224       0.01171
  15     218.7        4.4203        1.8483        3.3713        5.2196       0.799326       0.00831
  14     243.0        4.3564        1.9847        3.1514        5.1361       0.779673       0.00682
  13     269.0        4.2903        2.1226        2.9302        5.0528       0.762493       0.00557
  12     297.5        4.2224        2.2608        2.7094        4.9702       0.747740       0.00438
  11     328.5        4.1536        2.3979        2.4896        4.8875       0.733893       0.00377
  10     361.9        4.0843        2.5325        2.2728        4.8053       0.720992       0.00326
   9     398.1        4.0149        2.6635        2.0603        4.7239       0.708988       0.00280
   8     437.6        3.9459        2.7897        1.8538        4.6435       0.697646       0.00242
   7     480.5        3.8777        2.9098        1.6550        4.5647       0.687071       0.00208
   6     533.0        3.8009        3.0387        1.4381        4.4767       0.675759       0.00182
   5     589.8        3.7264        3.1563        1.2352        4.3915       0.665027       0.00159
   4     651.6        3.6546        3.2616        1.0478        4.3093       0.654762       0.00140
   3     718.7        3.5856        3.3535        0.8770        4.2305       0.644918       0.00124
   2     792.3        3.5197        3.4314        0.7238        4.1552       0.635484       0.00108
   1     891.5        3.4417        3.5084        0.5573        4.0658       0.624057       0.00097
   0    1013.0        3.3613        3.5672        0.4058        3.9730       0.611674       0.00086



 Wavenumbers: 38000. - 50000. cm-1, ATM      1
 LEVEL PRESSURE   UPWARD FLUX   DIFDOWN FLUX  DIRDOWN FLUX  DOWNWARD FLUX   NET FLUX    HEATING RATE
          mb          W/m2          W/m2          W/m2        W/m2          W/m2       degree/day
  51    .06700        0.0053        0.0000        0.8267        0.8267       0.821374       0.00000
  50    .07753        0.0052        0.0001        0.8242        0.8243       0.819041       1.86949
  49    .09103        0.0052        0.0002        0.8207        0.8209       0.815718       2.07725
  48    0.1069        0.0051        0.0002        0.8162        0.8164       0.811359       2.32012
  47    0.1255        0.0050        0.0004        0.8103        0.8106       0.805645       2.59039
  46    0.1487        0.0049        0.0005        0.8018        0.8023       0.797410       3.00188
  45    0.1794        0.0047        0.0007        0.7889        0.7896       0.784854       3.44695
  44    0.2165        0.0045        0.0009        0.7720        0.7729       0.768347       3.75506
  43    0.2613        0.0043        0.0011        0.7500        0.7511       0.746794       4.06266
  42    0.3336        0.0040        0.0015        0.7106        0.7121       0.708104       4.51082
  41    0.4307        0.0036        0.0019        0.6566        0.6584       0.654808       4.63398
  40    0.5894        0.0031        0.0024        0.5680        0.5704       0.567298       4.65370
  39     1.339        0.0016        0.0030        0.2422        0.2452       0.243533       3.64501
  38     1.782        0.0012        0.0026        0.1493        0.1519       0.150693       1.76752
  37     2.292        0.0010        0.0022        0.0924        0.0946       0.093687       0.94417
  36     2.964        0.0005        0.0020        0.0536        0.0555       0.055012       0.48549
  35     3.853        0.0003        0.0015        0.0292        0.0307       0.030392       0.23365
  34     5.035        0.0002        0.0011        0.0152        0.0163       0.016139       0.10182
  33     6.613        0.0001        0.0008        0.0072        0.0080       0.007908       0.04400
  32     8.786        0.0000        0.0005        0.0030        0.0034       0.003399       0.01751
  31     11.80        0.0000        0.0003        0.0010        0.0012       0.001209       0.00613
  30     15.07        0.0000        0.0002        0.0003        0.0005       0.000470       0.00191
  29     18.79        0.0000        0.0001        0.0001        0.0002       0.000186       0.00064
  28     23.16        0.0000        0.0000        0.0000        0.0001       0.000073       0.00022
  27     28.12        0.0000        0.0000        0.0000        0.0000       0.000029       0.00007
  26     33.73        0.0000        0.0000        0.0000        0.0000       0.000012       0.00003
  25     40.54        0.0000        0.0000        0.0000        0.0000       0.000005       0.00001
  24     48.69        0.0000        0.0000        0.0000        0.0000       0.000002       0.00000
  23     57.69        0.0000        0.0000        0.0000        0.0000       0.000001       0.00000
  22     68.43        0.0000        0.0000        0.0000        0.0000       0.000000       0.00000
  21     81.20        0.0000        0.0000        0.0000        0.0000       0.000000       0.00000
  20     96.49        0.0000        0.0000        0.0000        0.0000       0.000000       0.00000
  19     114.6        0.0000        0.0000        0.0000        0.0000       0.000000       0.00000
  18     136.5        0.0000        0.0000        0.0000        0.0000       0.000000       0.00000
  17     162.9        0.0000        0.0000        0.0000        0.0000       0.000000       0.00000
  16     196.4        0.0000        0.0000        0.0000        0.0000       0.000000       0.00000
  15     218.7        0.0000        0.0000        0.0000        0.0000       0.000000       0.00000
  14     243.0        0.0000        0.0000        0.0000        0.0000       0.000000       0.00000
  13     269.0        0.0000        0.0000        0.0000        0.0000       0.000000       0.00000
  12     297.5        0.0000        0.0000        0.0000        0.0000       0.000000       0.00000
  11     328.5        0.0000        0.0000        0.0000        0.0000       0.000000       0.00000
  10     361.9        0.0000        0.0000        0.0000        0.0000       0.000000       0.00000
   9     398.1        0.0000        0.0000        0.0000        0.0000       0.000000       0.00000
   8     437.6        0.0000        0.0000        0.0000        0.0000       0.000000       0.00000
   7     480.5        0.0000        0.0000        0.0000        0.0000       0.000000       0.00000
   6     533.0        0.0000        0.0000        0.0000        0.0000       0.000000       0.00000
   5     589.8        0.0000        0.0000        0.0000        0.0000       0.000000       0.00000
   4     651.6        0.0000        0.0000        0.0000        0.0000       0.000000       0.00000
   3     718.7        0.0000        0.0000        0.0000        0.0000       0.000000       0.00000
   2     792.3        0.0000        0.0000        0.0000        0.0000       0.000000       0.00000
   1     891.5        0.0000        0.0000        0.0000        0.0000       0.000000       0.00000
   0    1013.0        0.0000        0.0000        0.0000        0.0000       0.000000       0.00000



 Wavenumbers:   820. -  2600. cm-1, ATM      1
 LEVEL PRESSURE   UPWARD FLUX   DIFDOWN FLUX  DIRDOWN FLUX  DOWNWARD FLUX   NET FLUX    HEATING RATE
          mb          W/m2          W/m2          W/m2        W/m2          W/m2       degree/day
  51    .06700        0.1261        0.0000        3.8670        3.8670       3.740963       0.00000
  50    .07753        0.1261        0.0000        3.8644        3.8644       3.738364       2.08287
  49    .09103        0.1261        0.0000        3.8638        3.8638       3.737694       0.41878
  48    0.1069        0.1261        0.0000        3.8630        3.8630       3.736945       0.39874
  47    0.1255        0.1261        0.0000        3.8622        3.8622       3.736132       0.36879
  46    0.1487        0.1261        0.0000        3.8613        3.8613       3.735205       0.33798
  45    0.1794        0.1261        0.0000        3.8602        3.8602       3.734096       0.30446
  44    0.2165        0.1261        0.0000        3.8590        3.8590       3.732961       0.25804
  43    0.2613        0.1261        0.0000        3.8579        3.8579       3.731802       0.21851
  42    0.3336        0.1261        0.0000        3.8562        3.8562       3.730117       0.19646
  41    0.4307        0.1261        0.0000        3.8540        3.8540       3.727952       0.18827
  40    0.5894        0.1261        0.0000        3.8505        3.8505       3.724463       0.18550
  39     1.339        0.1261        0.0000        3.8352        3.8352       3.709114       0.17281
  38     1.782        0.1261        0.0000        3.8267        3.8267       3.700635       0.16143
  37     2.292        0.1261        0.0000        3.8172        3.8172       3.691116       0.15766
  36     2.964        0.1350        0.0000        0.9449        0.9449       0.809908      36.16786
  35     3.853        0.1388        0.0000        0.8746        0.8746       0.735746       0.70382
  34     5.035        0.1408        0.0000        0.8476        0.8476       0.706795       0.20681
  33     6.613        0.1419        0.0000        0.8348        0.8348       0.692899       0.07429
  32     8.786        0.1425        0.0000        0.8280        0.8280       0.685576       0.02844
  31     11.80        0.1428        0.0000        0.8239        0.8239       0.681094       0.01255
  30     15.07        0.1430        0.0000        0.8217        0.8217       0.678687       0.00621
  29     18.79        0.1432        0.0000        0.8203        0.8203       0.677150       0.00348
  28     23.16        0.1433        0.0000        0.8193        0.8193       0.675998       0.00223
  27     28.12        0.1434        0.0000        0.8185        0.8185       0.675145       0.00145
  26     33.73        0.1434        0.0000        0.8179        0.8179       0.674505       0.00096
  25     40.54        0.1435        0.0000        0.8174        0.8174       0.673962       0.00067
  24     48.69        0.1435        0.0000        0.8169        0.8169       0.673442       0.00054
  23     57.69        0.1435        0.0000        0.8165        0.8165       0.672962       0.00045
  22     68.43        0.1436        0.0000        0.8161        0.8161       0.672478       0.00038
  21     81.20        0.1436        0.0000        0.8156        0.8156       0.671989       0.00032
  20     96.49        0.1437        0.0000        0.8152        0.8152       0.671494       0.00027
  19     114.6        0.1437        0.0000        0.8147        0.8147       0.671020       0.00022
  18     136.5        0.1438        0.0000        0.8143        0.8143       0.670524       0.00019
  17     162.9        0.1438        0.0000        0.8139        0.8139       0.670063       0.00015
  16     196.4        0.1438        0.0000        0.8135        0.8135       0.669681       0.00010
  15     218.7        0.1439        0.0000        0.8134        0.8134       0.669551       0.00005
  14     243.0        0.1439        0.0000        0.8133        0.8133       0.669452       0.00003
  13     269.0        0.1439        0.0000        0.8132        0.8132       0.669368       0.00003
  12     297.5        0.1439        0.0000        0.8131        0.8131       0.669273       0.00003
  11     328.5        0.1439        0.0000        0.8130        0.8130       0.669143       0.00004
  10     361.9        0.1439        0.0000        0.8128        0.8129       0.668951       0.00005
   9     398.1        0.1439        0.0000        0.8126        0.8126       0.668666       0.00007
   8     437.6        0.1440        0.0000        0.8122        0.8122       0.668248       0.00009
   7     480.5        0.1440        0.0000        0.8117        0.8117       0.667652       0.00012
   6     533.0        0.1441        0.0000        0.8107        0.8108       0.666640       0.00016
   5     589.8        0.1442        0.0000        0.8094        0.8094       0.665193       0.00021
   4     651.6        0.1445        0.0000        0.8072        0.8072       0.662704       0.00034
   3     718.7        0.1449        0.0000        0.8034        0.8034       0.658573       0.00052
   2     792.3        0.1455        0.0000        0.7975        0.7975       0.652003       0.00075
   1     891.5        0.1468        0.0000        0.7858        0.7858       0.639029       0.00110
   0    1013.0        0.1490        0.0000        0.7659        0.7659       0.616957       0.00153

  Modules and versions used in this calculation:

       rrtmg_sw.1col.f90:  $Revision$                    rrtmg_sw_init.f90:  $Revision$        
     rrtmgsw_cldprop.f90:  $Revision$                  rrtmgsw_cldprmc.f90:  NOT USED          
     rrtmg_sw_reftra.f90:  $Revision$                  rrtmg_sw_spcvrt.f90:  NOT USED          
     rrtmg_sw_spcvmc.f90:  NOT USED                    rrtmgsw_setcoef.f90:  NOT USED          
     rrtmg_sw_taumol.f90:  $Revision$                  rrtmg_sw_vrtqdr.f90:  NOT USED          
                rrtatm.f:  NOT USED                             util_xxx.f:  NOT USED          
                 extra.f:  NOT USED                       rrtmg_sw_k_g.f90:  $Revision$        

