

 Wavenumbers:   820. - 50000. cm-1, ATM      1
 LEVEL PRESSURE   UPWARD FLUX   DIFDOWN FLUX  DIRDOWN FLUX  DOWNWARD FLUX   NET FLUX    HEATING RATE
          mb          W/m2          W/m2          W/m2        W/m2          W/m2       degree/day
  51    .06700      182.7020        0.0000      397.8738      397.8738     215.171806       0.00000
  50    .07753      182.7014        0.0012      397.8579      397.8591     215.157751      11.26537
  49    .09103      182.7006        0.0026      397.8425      397.8451     215.144476       8.29721
  48    0.1069      182.6997        0.0043      397.8240      397.8283     215.128567       8.46879
  47    0.1255      182.6988        0.0062      397.8012      397.8073     215.108582       9.06016
  46    0.1487      182.6976        0.0086      397.7697      397.7783     215.080693      10.16587
  45    0.1794      182.6960        0.0119      397.7232      397.7351     215.039127      11.41070
  44    0.2165      182.6942        0.0158      397.6637      397.6795     214.985278      12.24977
  43    0.2613      182.6922        0.0204      397.5873      397.6076     214.915455      13.16143
  42    0.3336      182.6890        0.0279      397.4509      397.4788     214.789761      14.65464
  41    0.4307      182.6851        0.0377      397.2604      397.2981     214.613056      15.36405
  40    0.5894      182.6792        0.0536      396.9366      396.9902     214.310993      16.06338
  39     1.339      182.6624        0.1245      395.4503      395.5748     212.912486      15.74464
  38     1.782      182.6596        0.1642      394.7606      394.9248     212.265191      12.32345
  37     2.292      182.6629        0.2094      394.0955      394.3049     211.642058      10.32070
  36     2.964      182.6723        0.2953      384.8888      385.1842     202.511861     114.61157
  35     3.853      182.7023        0.3817      383.2320      383.6138     200.911479      15.18792
  34     5.035      182.7555        0.4869      381.8889      382.3758     199.620258       9.22394
  33     6.613      182.8338        0.6225      380.6037      381.2262     198.392436       6.56394
  32     8.786      182.9340        0.8019      379.2754      380.0773     197.143342       4.85103
  31     11.80      183.0559        1.0556      377.7603      378.8159     195.760020       3.87286
  30     15.07      183.1617        1.3254      376.3943      377.7198     194.558020       3.10333
  29     18.79      183.2590        1.6277      375.0330      376.6607     193.401670       2.62180
  28     23.16      183.3471        1.9778      373.6046      375.5824     192.235328       2.25533
  27     28.12      183.4177        2.3748      372.1309      374.5057     191.088097       1.95022
  26     33.73      183.4525        2.8158      370.6659      373.4817     190.029177       1.59211
  25     40.54      183.4437        3.3447      369.0873      372.4320     188.988309       1.29131
  24     48.69      183.3843        3.9766      367.3601      371.3367     187.952437       1.07196
  23     57.69      183.2725        4.6640      365.6252      370.2892     187.016680       0.87713
  22     68.43      183.0895        5.4743      363.7290      369.2033     186.113868       0.70973
  21     81.20      182.8023        6.4292      361.6888      368.1180     185.315795       0.52735
  20     96.49      182.3978        7.5524      359.4652      367.0177     184.619840       0.38412
  19     114.6      181.8973        8.8638      356.8323      365.6961     183.798748       0.38339
  18     136.5      181.2920       10.3864      353.8739      364.2603     182.968293       0.31933
  17     162.9      180.5654       12.1563      350.5202      362.6765     182.111100       0.27399
  16     196.4      179.6007       14.3868      346.4316      360.8184     181.217706       0.22488
  15     218.7      178.9648       15.8125      343.8658      359.6782     180.713419       0.19146
  14     243.0      178.2784       17.3288      341.1561      358.4848     180.206412       0.17585
  13     269.0      177.5407       18.9342      338.2949      357.2291     179.688363       0.16805
  12     297.5      176.7520       20.6265      335.2470      355.8736     179.121583       0.16810
  11     328.5      175.9148       22.4074      331.9318      354.3392     178.424436       0.18955
  10     361.9      175.0313       24.2714      328.2778      352.5492     177.517888       0.22937
   9     398.1      174.1017       26.2186      324.2041      350.4227     176.320999       0.27885
   8     437.6      173.1296       28.2440      319.6194      347.8634     174.733846       0.33934
   7     480.5      172.1184       30.3431      314.4187      344.7618     172.643362       0.41056
   6     533.0      170.9201       32.8317      307.6046      340.4363     169.516166       0.50307
   5     589.8      169.6883       35.4018      300.0428      335.4446     165.756306       0.55809
   4     651.6      168.4363       38.0435      291.9162      329.9597     161.523407       0.57886
   3     718.7      167.1818       40.7474      283.3628      324.1102     156.928430       0.57746
   2     792.3      165.9551       43.4982      274.4704      317.9686     152.013529       0.56368
   1     891.5      164.5135       46.9915      263.1060      310.0974     145.583919       0.54713
   0    1013.0      163.1985       50.8815      250.3045      301.1860     137.987437       0.52746



 Wavenumbers:  2600. -  3250. cm-1, ATM      1
 LEVEL PRESSURE   UPWARD FLUX   DIFDOWN FLUX  DIRDOWN FLUX  DOWNWARD FLUX   NET FLUX    HEATING RATE
          mb          W/m2          W/m2          W/m2        W/m2          W/m2       degree/day
  51    .06700        0.4336        0.0000        3.5066        3.5066       3.073018       0.00000
  50    .07753        0.4336        0.0000        3.5066        3.5066       3.073010       0.00640
  49    .09103        0.4336        0.0000        3.5066        3.5066       3.073000       0.00627
  48    0.1069        0.4336        0.0000        3.5066        3.5066       3.072988       0.00613
  47    0.1255        0.4336        0.0000        3.5066        3.5066       3.072975       0.00599
  46    0.1487        0.4336        0.0000        3.5066        3.5066       3.072958       0.00607
  45    0.1794        0.4336        0.0000        3.5065        3.5065       3.072935       0.00624
  44    0.2165        0.4336        0.0000        3.5065        3.5065       3.072909       0.00611
  43    0.2613        0.4336        0.0000        3.5065        3.5065       3.072877       0.00598
  42    0.3336        0.4336        0.0000        3.5064        3.5064       3.072824       0.00615
  41    0.4307        0.4336        0.0000        3.5064        3.5064       3.072753       0.00617
  40    0.5894        0.4336        0.0000        3.5062        3.5062       3.072634       0.00633
  39     1.339        0.4336        0.0000        3.5055        3.5055       3.071935       0.00787
  38     1.782        0.4336        0.0000        3.5050        3.5050       3.071404       0.01010
  37     2.292        0.4336        0.0000        3.5043        3.5043       3.070712       0.01147
  36     2.964        0.4336        0.0000        3.5033        3.5033       3.069722       0.01243
  35     3.853        0.4336        0.0000        3.5019        3.5019       3.068344       0.01307
  34     5.035        0.4336        0.0000        3.5001        3.5001       3.066481       0.01331
  33     6.613        0.4336        0.0000        3.4977        3.4977       3.064068       0.01290
  32     8.786        0.4336        0.0000        3.4947        3.4947       3.061089       0.01157
  31     11.80        0.4336        0.0000        3.4910        3.4910       3.057445       0.01020
  30     15.07        0.4336        0.0000        3.4878        3.4878       3.054215       0.00834
  29     18.79        0.4336        0.0000        3.4847        3.4847       3.051136       0.00698
  28     23.16        0.4336        0.0000        3.4815        3.4815       3.047893       0.00627
  27     28.12        0.4336        0.0000        3.4778        3.4779       3.044247       0.00620
  26     33.73        0.4336        0.0000        3.4733        3.4734       3.039749       0.00676
  25     40.54        0.4336        0.0000        3.4670        3.4670       3.033384       0.00790
  24     48.69        0.4336        0.0000        3.4580        3.4580       3.024422       0.00927
  23     57.69        0.4336        0.0000        3.4469        3.4469       3.013274       0.01045
  22     68.43        0.4336        0.0000        3.4324        3.4325       2.998829       0.01136
  21     81.20        0.4337        0.0000        3.4145        3.4146       2.980884       0.01186
  20     96.49        0.4337        0.0000        3.3932        3.3932       2.959515       0.01179
  19     114.6        0.4338        0.0000        3.3582        3.3582       2.924445       0.01637
  18     136.5        0.4339        0.0001        3.3239        3.3240       2.890043       0.01323
  17     162.9        0.4341        0.0001        3.2913        3.2914       2.857286       0.01047
  16     196.4        0.4343        0.0001        3.2582        3.2583       2.823930       0.00840
  15     218.7        0.4345        0.0001        3.2402        3.2402       2.805747       0.00690
  14     243.0        0.4347        0.0001        3.2227        3.2228       2.788121       0.00611
  13     269.0        0.4349        0.0001        3.2052        3.2053       2.770345       0.00577
  12     297.5        0.4352        0.0001        3.1859        3.1860       2.750851       0.00578
  11     328.5        0.4356        0.0001        3.1625        3.1626       2.727024       0.00648
  10     361.9        0.4361        0.0001        3.1329        3.1330       2.696886       0.00763
   9     398.1        0.4368        0.0001        3.0956        3.0958       2.658944       0.00884
   8     437.6        0.4378        0.0002        3.0476        3.0478       2.610025       0.01046
   7     480.5        0.4391        0.0002        2.9857        2.9859       2.546820       0.01241
   6     533.0        0.4412        0.0002        2.8937        2.8939       2.452710       0.01514
   5     589.8        0.4442        0.0002        2.7807        2.7809       2.336726       0.01722
   4     651.6        0.4483        0.0002        2.6515        2.6517       2.203373       0.01824
   3     718.7        0.4541        0.0002        2.5119        2.5121       2.058018       0.01827
   2     792.3        0.4621        0.0002        2.3665        2.3667       1.904608       0.01759
   1     891.5        0.4766        0.0002        2.1815        2.1818       1.705141       0.01697
   0    1013.0        0.5021        0.0003        1.9683        1.9686       1.466435       0.01657



 Wavenumbers:  3250. -  4000. cm-1, ATM      1
 LEVEL PRESSURE   UPWARD FLUX   DIFDOWN FLUX  DIRDOWN FLUX  DOWNWARD FLUX   NET FLUX    HEATING RATE
          mb          W/m2          W/m2          W/m2        W/m2          W/m2       degree/day
  51    .06700        0.1835        0.0000        5.9117        5.9117       5.728196       0.00000
  50    .07753        0.1835        0.0000        5.9075        5.9075       5.724034       3.33610
  49    .09103        0.1835        0.0000        5.9052        5.9052       5.721745       1.43069
  48    0.1069        0.1835        0.0000        5.9035        5.9035       5.720032       0.91190
  47    0.1255        0.1835        0.0000        5.9019        5.9019       5.718412       0.73437
  46    0.1487        0.1835        0.0000        5.9001        5.9001       5.716677       0.63248
  45    0.1794        0.1835        0.0000        5.8982        5.8982       5.714700       0.54263
  44    0.2165        0.1835        0.0000        5.8962        5.8962       5.712752       0.44316
  43    0.2613        0.1835        0.0000        5.8943        5.8943       5.710803       0.36742
  42    0.3336        0.1835        0.0000        5.8915        5.8915       5.708047       0.32131
  41    0.4307        0.1835        0.0000        5.8881        5.8881       5.704674       0.29332
  40    0.5894        0.1835        0.0000        5.8830        5.8830       5.699568       0.27154
  39     1.339        0.1835        0.0000        5.8641        5.8641       5.680648       0.21300
  38     1.782        0.1835        0.0000        5.8561        5.8561       5.672657       0.15212
  37     2.292        0.1835        0.0000        5.8483        5.8483       5.664871       0.12897
  36     2.964        0.1837        0.0000        4.1447        4.1447       3.960999      21.38874
  35     3.853        0.1838        0.0000        3.8723        3.8723       3.688534       2.58575
  34     5.035        0.1839        0.0000        3.7422        3.7423       3.558401       0.92961
  33     6.613        0.1839        0.0000        3.6667        3.6667       3.482769       0.40433
  32     8.786        0.1839        0.0000        3.6166        3.6166       3.432685       0.19451
  31     11.80        0.1840        0.0000        3.5766        3.5767       3.392707       0.11193
  30     15.07        0.1840        0.0000        3.5483        3.5483       3.364347       0.07322
  29     18.79        0.1840        0.0000        3.5243        3.5244       3.340374       0.05436
  28     23.16        0.1840        0.0000        3.5007        3.5007       3.316726       0.04573
  27     28.12        0.1840        0.0000        3.4773        3.4774       3.293376       0.03969
  26     33.73        0.1840        0.0000        3.4557        3.4558       3.271751       0.03251
  25     40.54        0.1840        0.0000        3.4329        3.4330       3.248954       0.02828
  24     48.69        0.1840        0.0000        3.4065        3.4065       3.222520       0.02736
  23     57.69        0.1840        0.0001        3.3780        3.3781       3.194056       0.02668
  22     68.43        0.1840        0.0001        3.3453        3.3454       3.161341       0.02572
  21     81.20        0.1840        0.0001        3.3080        3.3080       3.124009       0.02467
  20     96.49        0.1840        0.0001        3.2658        3.2658       3.081804       0.02329
  19     114.6        0.1841        0.0001        3.2182        3.2183       3.034266       0.02220
  18     136.5        0.1841        0.0001        3.1661        3.1662       2.982165       0.02003
  17     162.9        0.1841        0.0001        3.1092        3.1093       2.925245       0.01819
  16     196.4        0.1841        0.0002        3.0428        3.0429       2.858822       0.01672
  15     218.7        0.1841        0.0002        3.0027        3.0028       2.818699       0.01523
  14     243.0        0.1842        0.0002        2.9615        2.9617       2.777533       0.01428
  13     269.0        0.1842        0.0002        2.9171        2.9174       2.733165       0.01439
  12     297.5        0.1842        0.0002        2.8615        2.8617       2.677493       0.01651
  11     328.5        0.1843        0.0002        2.7807        2.7810       2.596671       0.02198
  10     361.9        0.1845        0.0003        2.6644        2.6647       2.480203       0.02947
   9     398.1        0.1848        0.0003        2.5089        2.5092       2.324427       0.03629
   8     437.6        0.1853        0.0003        2.3162        2.3165       2.131157       0.04132
   7     480.5        0.1862        0.0003        2.0924        2.0927       1.906472       0.04413
   6     533.0        0.1882        0.0003        1.8129        1.8132       1.625036       0.04527
   5     589.8        0.1915        0.0003        1.5383        1.5386       1.347147       0.04125
   4     651.6        0.1969        0.0003        1.2795        1.2797       1.082842       0.03614
   3     718.7        0.2057        0.0002        1.0399        1.0401       0.834440       0.03122
   2     792.3        0.2202        0.0002        0.8160        0.8162       0.595999       0.02735
   1     891.5        0.2517        0.0002        0.5655        0.5656       0.313990       0.02400
   0    1013.0        0.3238        0.0001        0.3414        0.3415       0.017718       0.02057



 Wavenumbers:  4000. -  4650. cm-1, ATM      1
 LEVEL PRESSURE   UPWARD FLUX   DIFDOWN FLUX  DIRDOWN FLUX  DOWNWARD FLUX   NET FLUX    HEATING RATE
          mb          W/m2          W/m2          W/m2        W/m2          W/m2       degree/day
  51    .06700        0.8042        0.0000        6.9421        6.9421       6.137898       0.00000
  50    .07753        0.8042        0.0000        6.9421        6.9421       6.137897       0.00082
  49    .09103        0.8042        0.0000        6.9421        6.9421       6.137896       0.00080
  48    0.1069        0.8042        0.0000        6.9421        6.9421       6.137895       0.00078
  47    0.1255        0.8042        0.0000        6.9421        6.9421       6.137893       0.00077
  46    0.1487        0.8042        0.0000        6.9421        6.9421       6.137891       0.00078
  45    0.1794        0.8042        0.0000        6.9421        6.9421       6.137888       0.00080
  44    0.2165        0.8042        0.0000        6.9421        6.9421       6.137884       0.00078
  43    0.2613        0.8042        0.0000        6.9420        6.9420       6.137880       0.00077
  42    0.3336        0.8042        0.0000        6.9420        6.9420       6.137874       0.00079
  41    0.4307        0.8042        0.0000        6.9420        6.9420       6.137864       0.00079
  40    0.5894        0.8042        0.0000        6.9420        6.9420       6.137849       0.00082
  39     1.339        0.8042        0.0000        6.9419        6.9419       6.137757       0.00103
  38     1.782        0.8042        0.0000        6.9418        6.9418       6.137686       0.00136
  37     2.292        0.8042        0.0000        6.9417        6.9418       6.137589       0.00160
  36     2.964        0.8042        0.0000        6.9416        6.9416       6.137446       0.00180
  35     3.853        0.8042        0.0000        6.9414        6.9414       6.137233       0.00202
  34     5.035        0.8042        0.0000        6.9411        6.9411       6.136919       0.00224
  33     6.613        0.8041        0.0000        6.9406        6.9406       6.136457       0.00247
  32     8.786        0.8041        0.0000        6.9399        6.9399       6.135777       0.00264
  31     11.80        0.8041        0.0000        6.9388        6.9388       6.134709       0.00299
  30     15.07        0.8041        0.0001        6.9375        6.9376       6.133461       0.00322
  29     18.79        0.8041        0.0001        6.9360        6.9361       6.131955       0.00341
  28     23.16        0.8041        0.0001        6.9341        6.9342       6.130093       0.00360
  27     28.12        0.8041        0.0001        6.9318        6.9319       6.127846       0.00382
  26     33.73        0.8041        0.0001        6.9290        6.9292       6.125087       0.00415
  25     40.54        0.8041        0.0002        6.9253        6.9254       6.121363       0.00462
  24     48.69        0.8041        0.0002        6.9203        6.9205       6.116431       0.00510
  23     57.69        0.8041        0.0002        6.9145        6.9147       6.110616       0.00545
  22     68.43        0.8041        0.0003        6.9072        6.9074       6.103380       0.00569
  21     81.20        0.8041        0.0003        6.8983        6.8986       6.094525       0.00585
  20     96.49        0.8041        0.0004        6.8875        6.8879       6.083814       0.00591
  19     114.6        0.8042        0.0004        6.8681        6.8685       6.064361       0.00908
  18     136.5        0.8043        0.0005        6.8471        6.8476       6.043260       0.00811
  17     162.9        0.8045        0.0006        6.8234        6.8240       6.019543       0.00758
  16     196.4        0.8048        0.0007        6.7940        6.7947       5.989900       0.00746
  15     218.7        0.8050        0.0008        6.7750        6.7758       5.970848       0.00723
  14     243.0        0.8052        0.0009        6.7547        6.7556       5.950347       0.00711
  13     269.0        0.8055        0.0010        6.7326        6.7335       5.928045       0.00723
  12     297.5        0.8058        0.0011        6.7078        6.7089       5.903051       0.00741
  11     328.5        0.8063        0.0012        6.6790        6.6802       5.873922       0.00792
  10     361.9        0.8069        0.0013        6.6450        6.6462       5.839352       0.00875
   9     398.1        0.8077        0.0014        6.6040        6.6055       5.797763       0.00969
   8     437.6        0.8088        0.0016        6.5540        6.5556       5.746836       0.01089
   7     480.5        0.8102        0.0017        6.4915        6.4932       5.682994       0.01254
   6     533.0        0.8124        0.0019        6.3999        6.4017       5.589329       0.01507
   5     589.8        0.8154        0.0020        6.2879        6.2899       5.474514       0.01704
   4     651.6        0.8194        0.0022        6.1610        6.1632       5.343800       0.01788
   3     718.7        0.8245        0.0024        6.0221        6.0245       5.199931       0.01808
   2     792.3        0.8315        0.0026        5.8689        5.8714       5.039923       0.01835
   1     891.5        0.8439        0.0028        5.6511        5.6539       4.810052       0.01956
   0    1013.0        0.8654        0.0031        5.3710        5.3740       4.508612       0.02093



 Wavenumbers:  4650. -  5150. cm-1, ATM      1
 LEVEL PRESSURE   UPWARD FLUX   DIFDOWN FLUX  DIRDOWN FLUX  DOWNWARD FLUX   NET FLUX    HEATING RATE
          mb          W/m2          W/m2          W/m2        W/m2          W/m2       degree/day
  51    .06700        0.5652        0.0000        6.5710        6.5710       6.005790       0.00000
  50    .07753        0.5652        0.0000        6.5708        6.5708       6.005560       0.18431
  49    .09103        0.5652        0.0000        6.5705        6.5705       6.005273       0.17917
  48    0.1069        0.5652        0.0000        6.5702        6.5702       6.004947       0.17374
  47    0.1255        0.5652        0.0000        6.5698        6.5698       6.004576       0.16820
  46    0.1487        0.5652        0.0000        6.5693        6.5693       6.004113       0.16848
  45    0.1794        0.5652        0.0000        6.5687        6.5687       6.003492       0.17048
  44    0.2165        0.5652        0.0000        6.5680        6.5680       6.002772       0.16381
  43    0.2613        0.5652        0.0000        6.5671        6.5671       6.001940       0.15692
  42    0.3336        0.5652        0.0000        6.5658        6.5658       6.000609       0.15515
  41    0.4307        0.5652        0.0000        6.5641        6.5641       5.998923       0.14658
  40    0.5894        0.5652        0.0000        6.5616        6.5616       5.996362       0.13620
  39     1.339        0.5652        0.0000        6.5520        6.5520       5.986786       0.10780
  38     1.782        0.5652        0.0000        6.5478        6.5478       5.982636       0.07901
  37     2.292        0.5652        0.0000        6.5440        6.5440       5.978780       0.06386
  36     2.964        0.5652        0.0000        6.5400        6.5400       5.974820       0.04971
  35     3.853        0.5652        0.0000        6.5360        6.5360       5.970840       0.03777
  34     5.035        0.5652        0.0000        6.5319        6.5320       5.966787       0.02896
  33     6.613        0.5652        0.0000        6.5275        6.5275       5.962347       0.02374
  32     8.786        0.5652        0.0001        6.5219        6.5220       5.956828       0.02143
  31     11.80        0.5651        0.0001        6.5138        6.5139       5.948732       0.02267
  30     15.07        0.5651        0.0001        6.5044        6.5045       5.939354       0.02421
  29     18.79        0.5651        0.0001        6.4929        6.4930       5.927835       0.02612
  28     23.16        0.5651        0.0001        6.4782        6.4784       5.913238       0.02822
  27     28.12        0.5651        0.0002        6.4602        6.4604       5.895305       0.03049
  26     33.73        0.5651        0.0002        6.4389        6.4390       5.873961       0.03209
  25     40.54        0.5651        0.0002        6.4118        6.4121       5.846987       0.03346
  24     48.69        0.5651        0.0003        6.3784        6.3786       5.813555       0.03460
  23     57.69        0.5651        0.0003        6.3414        6.3417       5.776677       0.03457
  22     68.43        0.5651        0.0004        6.2984        6.2988       5.733709       0.03378
  21     81.20        0.5651        0.0004        6.2497        6.2502       5.685084       0.03213
  20     96.49        0.5651        0.0005        6.1965        6.1970       5.631842       0.02939
  19     114.6        0.5652        0.0006        6.1377        6.1383       5.573044       0.02745
  18     136.5        0.5654        0.0007        6.0766        6.0774       5.511982       0.02348
  17     162.9        0.5656        0.0009        6.0119        6.0128       5.447189       0.02071
  16     196.4        0.5659        0.0010        5.9344        5.9355       5.369534       0.01955
  15     218.7        0.5662        0.0011        5.8848        5.8860       5.319778       0.01889
  14     243.0        0.5665        0.0013        5.8307        5.8319       5.265446       0.01884
  13     269.0        0.5669        0.0014        5.7712        5.7726       5.205700       0.01938
  12     297.5        0.5673        0.0015        5.7051        5.7066       5.139247       0.01971
  11     328.5        0.5679        0.0016        5.6309        5.6325       5.064587       0.02030
  10     361.9        0.5687        0.0018        5.5472        5.5490       4.980292       0.02133
   9     398.1        0.5696        0.0020        5.4533        5.4552       4.885573       0.02207
   8     437.6        0.5709        0.0021        5.3474        5.3495       4.778562       0.02288
   7     480.5        0.5726        0.0023        5.2278        5.2300       4.657409       0.02379
   6     533.0        0.5752        0.0025        5.0738        5.0762       4.501016       0.02516
   5     589.8        0.5787        0.0027        4.9049        4.9076       4.328870       0.02555
   4     651.6        0.5833        0.0028        4.7227        4.7256       4.142323       0.02551
   3     718.7        0.5892        0.0030        4.5323        4.5353       3.946076       0.02466
   2     792.3        0.5972        0.0032        4.3337        4.3369       3.739775       0.02366
   1     891.5        0.6108        0.0034        4.0804        4.0839       3.473066       0.02270
   0    1013.0        0.6330        0.0037        3.7961        3.7998       3.166775       0.02127



 Wavenumbers:  5150. -  6150. cm-1, ATM      1
 LEVEL PRESSURE   UPWARD FLUX   DIFDOWN FLUX  DIRDOWN FLUX  DOWNWARD FLUX   NET FLUX    HEATING RATE
          mb          W/m2          W/m2          W/m2        W/m2          W/m2       degree/day
  51    .06700        1.5302        0.0000       16.4735       16.4735      14.943352       0.00000
  50    .07753        1.5302        0.0000       16.4735       16.4735      14.943351       0.00019
  49    .09103        1.5302        0.0000       16.4735       16.4735      14.943351       0.00018
  48    0.1069        1.5302        0.0000       16.4735       16.4735      14.943351       0.00018
  47    0.1255        1.5302        0.0000       16.4735       16.4735      14.943350       0.00017
  46    0.1487        1.5302        0.0000       16.4735       16.4735      14.943350       0.00018
  45    0.1794        1.5302        0.0000       16.4735       16.4735      14.943349       0.00018
  44    0.2165        1.5302        0.0000       16.4735       16.4735      14.943348       0.00018
  43    0.2613        1.5302        0.0000       16.4735       16.4735      14.943348       0.00018
  42    0.3336        1.5301        0.0000       16.4735       16.4735      14.943346       0.00018
  41    0.4307        1.5301        0.0000       16.4735       16.4735      14.943344       0.00018
  40    0.5894        1.5301        0.0000       16.4735       16.4735      14.943340       0.00019
  39     1.339        1.5301        0.0000       16.4734       16.4734      14.943319       0.00024
  38     1.782        1.5301        0.0000       16.4734       16.4734      14.943303       0.00031
  37     2.292        1.5301        0.0001       16.4733       16.4734      14.943281       0.00037
  36     2.964        1.5306        0.0001       15.0252       15.0253      13.494667      18.18448
  35     3.853        1.5309        0.0001       14.8226       14.8227      13.291817       1.92508
  34     5.035        1.5310        0.0001       14.7174       14.7175      13.186538       0.75207
  33     6.613        1.5311        0.0002       14.6549       14.6551      13.123990       0.33438
  32     8.786        1.5311        0.0002       14.6140       14.6142      13.083091       0.15884
  31     11.80        1.5311        0.0003       14.5826       14.5829      13.051761       0.08771
  30     15.07        1.5311        0.0004       14.5616       14.5620      13.030882       0.05390
  29     18.79        1.5311        0.0004       14.5453       14.5458      13.014660       0.03678
  28     23.16        1.5311        0.0005       14.5306       14.5311      13.000043       0.02826
  27     28.12        1.5310        0.0007       14.5175       14.5181      12.987094       0.02201
  26     33.73        1.5310        0.0008       14.5057       14.5065      12.975477       0.01747
  25     40.54        1.5309        0.0009       14.4936       14.4945      12.963572       0.01477
  24     48.69        1.5309        0.0011       14.4797       14.4808      12.949903       0.01415
  23     57.69        1.5308        0.0013       14.4645       14.4658      12.935012       0.01396
  22     68.43        1.5308        0.0016       14.4467       14.4483      12.917516       0.01375
  21     81.20        1.5307        0.0019       14.4260       14.4278      12.897110       0.01348
  20     96.49        1.5307        0.0022       14.4020       14.4042      12.873540       0.01301
  19     114.6        1.5306        0.0026       14.3746       14.3772      12.846602       0.01258
  18     136.5        1.5305        0.0031       14.3439       14.3470      12.816444       0.01160
  17     162.9        1.5304        0.0037       14.3102       14.3139      12.783441       0.01055
  16     196.4        1.5303        0.0044       14.2707       14.2751      12.744862       0.00971
  15     218.7        1.5301        0.0049       14.2469       14.2519      12.721729       0.00878
  14     243.0        1.5300        0.0055       14.2219       14.2274      12.697374       0.00845
  13     269.0        1.5299        0.0060       14.1939       14.2000      12.670071       0.00886
  12     297.5        1.5298        0.0067       14.1567       14.1633      12.633592       0.01082
  11     328.5        1.5296        0.0073       14.0979       14.1052      12.575560       0.01578
  10     361.9        1.5296        0.0081       14.0004       14.0085      12.478898       0.02446
   9     398.1        1.5296        0.0088       13.8444       13.8531      12.323576       0.03619
   8     437.6        1.5297        0.0095       13.6069       13.6164      12.086695       0.05065
   7     480.5        1.5301        0.0103       13.2654       13.2756      11.745588       0.06699
   6     533.0        1.5309        0.0111       12.7354       12.7464      11.215530       0.08527
   5     589.8        1.5324        0.0118       12.1115       12.1233      10.590849       0.09272
   4     651.6        1.5350        0.0124       11.4575       11.4699       9.934917       0.08970
   3     718.7        1.5392        0.0130       10.8304       10.8434       9.304196       0.07926
   2     792.3        1.5461        0.0136       10.2657       10.2793       8.733253       0.06548
   1     891.5        1.5604        0.0145        9.6894        9.7038       8.143436       0.05019
   0    1013.0        1.5908        0.0155        9.1900        9.2056       7.614761       0.03671



 Wavenumbers:  6150. -  7700. cm-1, ATM      1
 LEVEL PRESSURE   UPWARD FLUX   DIFDOWN FLUX  DIRDOWN FLUX  DOWNWARD FLUX   NET FLUX    HEATING RATE
          mb          W/m2          W/m2          W/m2        W/m2          W/m2       degree/day
  51    .06700        2.7251        0.0000       30.4684       30.4684      27.743272       0.00000
  50    .07753        2.7251        0.0000       30.4684       30.4684      27.743256       0.01303
  49    .09103        2.7251        0.0000       30.4683       30.4683      27.743236       0.01277
  48    0.1069        2.7251        0.0000       30.4683       30.4683      27.743212       0.01250
  47    0.1255        2.7251        0.0000       30.4683       30.4683      27.743185       0.01223
  46    0.1487        2.7251        0.0000       30.4682       30.4682      27.743151       0.01241
  45    0.1794        2.7251        0.0000       30.4682       30.4682      27.743105       0.01276
  44    0.2165        2.7251        0.0000       30.4681       30.4681      27.743050       0.01252
  43    0.2613        2.7251        0.0000       30.4680       30.4681      27.742984       0.01228
  42    0.3336        2.7251        0.0000       30.4679       30.4680      27.742877       0.01256
  41    0.4307        2.7251        0.0000       30.4678       30.4678      27.742734       0.01241
  40    0.5894        2.7251        0.0001       30.4675       30.4676      27.742501       0.01239
  39     1.339        2.7250        0.0001       30.4662       30.4664      27.741401       0.01238
  38     1.782        2.7249        0.0002       30.4655       30.4657      27.740757       0.01227
  37     2.292        2.7249        0.0002       30.4646       30.4649      27.740012       0.01234
  36     2.964        2.7257        0.0003       27.9562       27.9565      25.230784      31.49839
  35     3.853        2.7261        0.0004       27.6927       27.6931      24.966989       2.50347
  34     5.035        2.7263        0.0005       27.5551       27.5557      24.829392       0.98293
  33     6.613        2.7263        0.0007       27.4737       27.4744      24.748081       0.43469
  32     8.786        2.7262        0.0009       27.4207       27.4216      24.695394       0.20462
  31     11.80        2.7260        0.0012       27.3803       27.3815      24.655460       0.11180
  30     15.07        2.7258        0.0015       27.3535       27.3550      24.629183       0.06784
  29     18.79        2.7255        0.0019       27.3326       27.3345      24.609008       0.04574
  28     23.16        2.7252        0.0023       27.3139       27.3162      24.591007       0.03481
  27     28.12        2.7248        0.0028       27.2972       27.3000      24.575263       0.02676
  26     33.73        2.7243        0.0034       27.2824       27.2858      24.561455       0.02076
  25     40.54        2.7237        0.0040       27.2675       27.2715      24.547751       0.01700
  24     48.69        2.7230        0.0048       27.2506       27.2554      24.532403       0.01588
  23     57.69        2.7223        0.0057       27.2325       27.2382      24.515924       0.01545
  22     68.43        2.7214        0.0067       27.2113       27.2181      24.496701       0.01511
  21     81.20        2.7203        0.0080       27.1865       27.1945      24.474247       0.01484
  20     96.49        2.7190        0.0095       27.1576       27.1670      24.448039       0.01447
  19     114.6        2.7175        0.0112       27.1228       27.1340      24.416567       0.01469
  18     136.5        2.7157        0.0133       27.0822       27.0956      24.379912       0.01409
  17     162.9        2.7135        0.0158       27.0347       27.0505      24.337031       0.01371
  16     196.4        2.7107        0.0191       26.9741       26.9931      24.282426       0.01374
  15     218.7        2.7089        0.0212       26.9347       26.9560      24.247070       0.01342
  14     243.0        2.7069        0.0235       26.8923       26.9159      24.208975       0.01321
  13     269.0        2.7047        0.0260       26.8444       26.8704      24.165661       0.01405
  12     297.5        2.7024        0.0287       26.7812       26.8099      24.107489       0.01725
  11     328.5        2.7000        0.0316       26.6831       26.7148      24.014742       0.02522
  10     361.9        2.6976        0.0347       26.5226       26.5574      23.859727       0.03922
   9     398.1        2.6953        0.0379       26.2661       26.3040      23.608677       0.05849
   8     437.6        2.6933        0.0412       25.8704       25.9116      23.218279       0.08347
   7     480.5        2.6919        0.0445       25.2876       25.3321      22.640212       0.11353
   6     533.0        2.6918        0.0480       24.3517       24.3998      21.707935       0.14997
   5     589.8        2.6941        0.0513       23.2099       23.2611      20.567026       0.16935
   4     651.6        2.7001        0.0542       21.9524       22.0065      19.306417       0.17239
   3     718.7        2.7119        0.0568       20.6508       20.7076      17.995723       0.16472
   2     792.3        2.7328        0.0591       19.3585       19.4175      16.684759       0.15035
   1     891.5        2.7790        0.0618       17.8497       17.9116      15.132535       0.13209
   0    1013.0        2.8796        0.0647       16.3195       16.3843      13.504647       0.11303



 Wavenumbers:  7700. -  8050. cm-1, ATM      1
 LEVEL PRESSURE   UPWARD FLUX   DIFDOWN FLUX  DIRDOWN FLUX  DOWNWARD FLUX   NET FLUX    HEATING RATE
          mb          W/m2          W/m2          W/m2        W/m2          W/m2       degree/day
  51    .06700        1.0670        0.0000        7.2006        7.2006       6.133560       0.00000
  50    .07753        1.0670        0.0000        7.2006        7.2006       6.133542       0.01480
  49    .09103        1.0670        0.0000        7.2005        7.2005       6.133518       0.01450
  48    0.1069        1.0670        0.0000        7.2005        7.2005       6.133492       0.01420
  47    0.1255        1.0670        0.0000        7.2005        7.2005       6.133461       0.01389
  46    0.1487        1.0670        0.0000        7.2004        7.2005       6.133422       0.01410
  45    0.1794        1.0670        0.0000        7.2004        7.2004       6.133370       0.01451
  44    0.2165        1.0670        0.0000        7.2003        7.2003       6.133307       0.01423
  43    0.2613        1.0670        0.0000        7.2003        7.2003       6.133233       0.01396
  42    0.3336        1.0670        0.0000        7.2001        7.2001       6.133110       0.01429
  41    0.4307        1.0670        0.0000        7.2000        7.2000       6.132948       0.01413
  40    0.5894        1.0670        0.0000        7.1997        7.1997       6.132683       0.01411
  39     1.339        1.0671        0.0001        7.1984        7.1985       6.131428       0.01413
  38     1.782        1.0671        0.0001        7.1977        7.1978       6.130691       0.01403
  37     2.292        1.0671        0.0001        7.1968        7.1969       6.129838       0.01412
  36     2.964        1.0671        0.0001        7.1957        7.1958       6.128719       0.01405
  35     3.853        1.0671        0.0002        7.1942        7.1944       6.127242       0.01402
  34     5.035        1.0671        0.0002        7.1922        7.1924       6.125280       0.01401
  33     6.613        1.0672        0.0003        7.1895        7.1898       6.122663       0.01399
  32     8.786        1.0672        0.0004        7.1860        7.1864       6.119142       0.01368
  31     11.80        1.0673        0.0005        7.1809        7.1814       6.114117       0.01407
  30     15.07        1.0674        0.0007        7.1755        7.1761       6.108737       0.01389
  29     18.79        1.0675        0.0008        7.1693        7.1702       6.102681       0.01373
  28     23.16        1.0676        0.0010        7.1622        7.1632       6.095635       0.01362
  27     28.12        1.0677        0.0012        7.1541        7.1554       6.087615       0.01363
  26     33.73        1.0679        0.0015        7.1451        7.1466       6.078688       0.01342
  25     40.54        1.0681        0.0018        7.1343        7.1361       6.067971       0.01330
  24     48.69        1.0683        0.0021        7.1213        7.1235       6.055151       0.01327
  23     57.69        1.0685        0.0025        7.1073        7.1097       6.041194       0.01308
  22     68.43        1.0688        0.0029        7.0906        7.0936       6.024740       0.01294
  21     81.20        1.0692        0.0035        7.0711        7.0746       6.005374       0.01280
  20     96.49        1.0696        0.0041        7.0481        7.0523       5.982625       0.01256
  19     114.6        1.0702        0.0049        7.0213        7.0262       5.956016       0.01242
  18     136.5        1.0708        0.0058        6.9901        6.9959       5.925092       0.01189
  17     162.9        1.0716        0.0068        6.9539        6.9607       5.889086       0.01151
  16     196.4        1.0727        0.0082        6.9081        6.9163       5.843657       0.01143
  15     218.7        1.0734        0.0091        6.8788        6.8879       5.814495       0.01107
  14     243.0        1.0742        0.0101        6.8475        6.8576       5.783375       0.01079
  13     269.0        1.0751        0.0111        6.8142        6.8254       5.750286       0.01073
  12     297.5        1.0761        0.0123        6.7790        6.7913       5.715228       0.01040
  11     328.5        1.0772        0.0135        6.7417        6.7552       5.678033       0.01011
  10     361.9        1.0784        0.0148        6.7023        6.7171       5.638706       0.00995
   9     398.1        1.0798        0.0162        6.6607        6.6769       5.597102       0.00969
   8     437.6        1.0813        0.0177        6.6167        6.6344       5.553075       0.00941
   7     480.5        1.0831        0.0193        6.5703        6.5896       5.506507       0.00915
   6     533.0        1.0853        0.0212        6.5138        6.5350       5.449721       0.00914
   5     589.8        1.0879        0.0233        6.4535        6.4768       5.388888       0.00903
   4     651.6        1.0910        0.0256        6.3890        6.4146       5.323601       0.00893
   3     718.7        1.0945        0.0280        6.3197        6.3477       5.253197       0.00885
   2     792.3        1.0987        0.0305        6.2451        6.2756       5.176983       0.00874
   1     891.5        1.1048        0.0339        6.1435        6.1774       5.072592       0.00888
   0    1013.0        1.1132        0.0379        6.0190        6.0569       4.943703       0.00895



 Wavenumbers:  8050. - 12850. cm-1, ATM      1
 LEVEL PRESSURE   UPWARD FLUX   DIFDOWN FLUX  DIRDOWN FLUX  DOWNWARD FLUX   NET FLUX    HEATING RATE
          mb          W/m2          W/m2          W/m2        W/m2          W/m2       degree/day
  51    .06700       26.2406        0.0000      100.8135      100.8135      74.572908       0.00000
  50    .07753       26.2406        0.0000      100.8135      100.8135      74.572908       0.00000
  49    .09103       26.2406        0.0001      100.8134      100.8135      74.572908       0.00000
  48    0.1069       26.2405        0.0001      100.8134      100.8134      74.572908      -0.00000
  47    0.1255       26.2405        0.0001      100.8133      100.8134      74.572908       0.00000
  46    0.1487       26.2405        0.0002      100.8132      100.8134      74.572908       0.00000
  45    0.1794       26.2404        0.0003      100.8131      100.8133      74.572908       0.00000
  44    0.2165       26.2403        0.0003      100.8129      100.8133      74.572908       0.00000
  43    0.2613       26.2403        0.0004      100.8127      100.8132      74.572908      -0.00000
  42    0.3336       26.2401        0.0006      100.8125      100.8130      74.572908      -0.00000
  41    0.4307       26.2400        0.0008      100.8121      100.8129      74.572908       0.00000
  40    0.5894       26.2397        0.0012      100.8115      100.8126      74.572908      -0.00000
  39     1.339       26.2384        0.0028      100.8085      100.8113      74.572908       0.00000
  38     1.782       26.2376        0.0038      100.8068      100.8105      74.572908       0.00000
  37     2.292       26.2367        0.0049      100.8047      100.8097      74.572908       0.00000
  36     2.964       26.2351        0.0070      100.8009      100.8080      74.572908       0.00000
  35     3.853       26.2333        0.0092      100.7970      100.8062      74.572908      -0.00000
  34     5.035       26.2312        0.0120      100.7921      100.8041      74.572908       0.00000
  33     6.613       26.2284        0.0155      100.7858      100.8013      74.572908       0.00000
  32     8.786       26.2247        0.0202      100.7774      100.7976      74.572908      -0.00000
  31     11.80       26.2194        0.0269      100.7654      100.7923      74.572908       0.00000
  30     15.07       26.2137        0.0341      100.7525      100.7866      74.572908      -0.00000
  29     18.79       26.2073        0.0423      100.7379      100.7802      74.572908       0.00000
  28     23.16       26.1998        0.0518      100.7209      100.7727      74.572908      -0.00000
  27     28.12       26.1912        0.0627      100.7014      100.7641      74.572908       0.00000
  26     33.73       26.1816        0.0749      100.6796      100.7545      74.572908       0.00000
  25     40.54       26.1699        0.0897      100.6531      100.7428      74.572908       0.00000
  24     48.69       26.1559        0.1075      100.6213      100.7288      74.572908      -0.00000
  23     57.69       26.1404        0.1271      100.5862      100.7133      74.572908       0.00000
  22     68.43       26.1219        0.1505      100.5443      100.6949      74.572908       0.00000
  21     81.20       26.0999        0.1784      100.4944      100.6728      74.572908      -0.00000
  20     96.49       26.0736        0.2117      100.4348      100.6465      74.572908       0.00000
  19     114.6       26.0438        0.2512      100.2602      100.5114      74.467686       0.04913
  18     136.5       26.0079        0.2981      100.0837      100.3818      74.373815       0.03610
  17     162.9       25.9648        0.3540       99.8996      100.2536      74.288788       0.02718
  16     196.4       25.9082        0.4266       99.6862      100.1128      74.204579       0.02120
  15     218.7       25.8708        0.4744       99.5562      100.0306      74.159818       0.01699
  14     243.0       25.8300        0.5264       99.4211       99.9475      74.117510       0.01467
  13     269.0       25.7857        0.5829       99.2770       99.8598      74.074146       0.01407
  12     297.5       25.7378        0.6440       99.1133       99.7573      74.019447       0.01622
  11     328.5       25.6864        0.7101       98.9121       99.6222      73.935766       0.02275
  10     361.9       25.6316        0.7812       98.6550       99.4362      73.804598       0.03319
   9     398.1       25.5738        0.8577       98.3238       99.1815      73.607648       0.04588
   8     437.6       25.5137        0.9396       97.8957       98.8353      73.321551       0.06117
   7     480.5       25.4527        1.0270       97.3346       98.3616      72.908865       0.08105
   6     533.0       25.3847        1.1335       96.4706       97.6041      72.219422       0.11091
   5     589.8       25.3221        1.2469       95.3623       96.6092      71.287084       0.13839
   4     651.6       25.2699        1.3667       94.0078       95.3745      70.104605       0.16171
   3     718.7       25.2362        1.4927       92.3916       93.8843      68.648190       0.18303
   2     792.3       25.2336        1.6239       90.4991       92.1230      66.889417       0.20171
   1     891.5       25.2990        1.7950       87.8154       89.6104      64.311394       0.21938
   0    1013.0       25.5283        1.9912       84.4947       86.4859      60.957607       0.23287



 Wavenumbers: 12850. - 16000. cm-1, ATM      1
 LEVEL PRESSURE   UPWARD FLUX   DIFDOWN FLUX  DIRDOWN FLUX  DOWNWARD FLUX   NET FLUX    HEATING RATE
          mb          W/m2          W/m2          W/m2        W/m2          W/m2       degree/day
  51    .06700       33.9059        0.0000       63.1686       63.1686      29.262726       0.00000
  50    .07753       33.9058        0.0001       63.1677       63.1678      29.261946       0.62501
  49    .09103       33.9058        0.0001       63.1666       63.1668      29.260974       0.60738
  48    0.1069       33.9058        0.0002       63.1654       63.1656      29.259868       0.58895
  47    0.1255       33.9057        0.0003       63.1640       63.1643      29.258609       0.57048
  46    0.1487       33.9057        0.0004       63.1623       63.1627      29.257040       0.57200
  45    0.1794       33.9056        0.0006       63.1600       63.1606      29.254936       0.57767
  44    0.2165       33.9056        0.0008       63.1573       63.1581      29.252502       0.55369
  43    0.2613       33.9055        0.0010       63.1542       63.1552      29.249695       0.52917
  42    0.3336       33.9055        0.0014       63.1493       63.1507      29.245220       0.52165
  41    0.4307       33.9054        0.0019       63.1431       63.1450      29.239612       0.48763
  40    0.5894       33.9054        0.0027       63.1338       63.1365      29.231116       0.45182
  39     1.339       33.9067        0.0066       63.0955       63.1021      29.195385       0.40227
  38     1.782       33.9084        0.0088       63.0739       63.0828      29.174306       0.40130
  37     2.292       33.9114        0.0114       63.0475       63.0589      29.147522       0.44362
  36     2.964       33.9157        0.0164       63.0067       63.0231      29.107408       0.50355
  35     3.853       33.9242        0.0215       62.9493       62.9708      29.046581       0.57726
  34     5.035       33.9379        0.0278       62.8679       62.8958      28.957894       0.63354
  33     6.613       33.9572        0.0360       62.7571       62.7931      28.835945       0.65194
  32     8.786       33.9822        0.0469       62.6131       62.6600      28.677725       0.61447
  31     11.80       34.0143        0.0624       62.4230       62.4854      28.471048       0.57863
  30     15.07       34.0443        0.0790       62.2371       62.3160      28.271748       0.51455
  29     18.79       34.0741        0.0976       62.0436       62.1412      28.067109       0.46398
  28     23.16       34.1044        0.1193       61.8367       61.9560      27.851682       0.41657
  27     28.12       34.1335        0.1441       61.6221       61.7661      27.632617       0.37240
  26     33.73       34.1584        0.1718       61.4119       61.5837      27.425265       0.31176
  25     40.54       34.1796        0.2051       61.1926       61.3978      27.218201       0.25689
  24     48.69       34.1964        0.2453       60.9624       61.2077      27.011334       0.21408
  23     57.69       34.2064        0.2894       60.7423       61.0316      26.825242       0.17443
  22     68.43       34.2093        0.3418       60.5148       60.8566      26.647259       0.13992
  21     81.20       34.2003        0.4042       60.2885       60.6927      26.492428       0.10231
  20     96.49       34.1781        0.4786       60.0590       60.5376      26.359539       0.07335
  19     114.6       34.1500        0.5672       59.8010       60.3683      26.218312       0.06594
  18     136.5       34.1120        0.6721       59.5076       60.1798      26.067771       0.05789
  17     162.9       34.0625        0.7967       59.1678       59.9644      25.901957       0.05300
  16     196.4       33.9892        0.9577       58.7506       59.7083      25.719147       0.04602
  15     218.7       33.9378        1.0632       58.4855       59.5487      25.610957       0.04108
  14     243.0       33.8805        1.1776       58.2018       59.3794      25.498929       0.03886
  13     269.0       33.8169        1.3013       57.8999       59.2012      25.384290       0.03719
  12     297.5       33.7469        1.4347       57.5791       59.0137      25.266829       0.03484
  11     328.5       33.6708        1.5784       57.2360       58.8144      25.143562       0.03352
  10     361.9       33.5887        1.7327       56.8695       58.6022      25.013546       0.03290
   9     398.1       33.5003        1.8983       56.4778       58.3761      24.875812       0.03209
   8     437.6       33.4058        2.0756       56.0577       58.1333      24.727429       0.03173
   7     480.5       33.3055        2.2649       55.6066       57.8716      24.566003       0.03170
   6     533.0       33.1843        2.4971       55.0466       57.5436      24.359276       0.03326
   5     589.8       33.0573        2.7461       54.4361       57.1822      24.124911       0.03479
   4     651.6       32.9258        3.0123       53.7722       56.7844      23.858648       0.03641
   3     718.7       32.7920        3.2959       53.0524       56.3483      23.556283       0.03800
   2     792.3       32.6595        3.5969       52.2746       55.8715      23.211987       0.03949
   1     891.5       32.5019        3.9981       51.2201       55.2182      22.716341       0.04218
   0    1013.0       32.3537        4.4721       49.9503       54.4225      22.068782       0.04496



 Wavenumbers: 16000. - 22650. cm-1, ATM      1
 LEVEL PRESSURE   UPWARD FLUX   DIFDOWN FLUX  DIRDOWN FLUX  DOWNWARD FLUX   NET FLUX    HEATING RATE
          mb          W/m2          W/m2          W/m2        W/m2          W/m2       degree/day
  51    .06700       75.8676        0.0000      100.7153      100.7153      24.847742       0.00000
  50    .07753       75.8674        0.0003      100.7147      100.7151      24.847624       0.09425
  49    .09103       75.8673        0.0007      100.7140      100.7147      24.847453       0.10690
  48    0.1069       75.8671        0.0012      100.7131      100.7143      24.847224       0.12190
  47    0.1255       75.8669        0.0017      100.7121      100.7139      24.846918       0.13895
  46    0.1487       75.8667        0.0024      100.7108      100.7132      24.846466       0.16465
  45    0.1794       75.8665        0.0034      100.7089      100.7122      24.845760       0.19386
  44    0.2165       75.8662        0.0045      100.7066      100.7110      24.844802       0.21788
  43    0.2613       75.8660        0.0058      100.7037      100.7095      24.843503       0.24494
  42    0.3336       75.8656        0.0079      100.6987      100.7066      24.841032       0.28805
  41    0.4307       75.8653        0.0108      100.6918      100.7026      24.837308       0.32379
  40    0.5894       75.8650        0.0155      100.6797      100.6953      24.830206       0.37767
  39     1.339       75.8695        0.0377      100.6095      100.6472      24.777747       0.59059
  38     1.782       75.8761        0.0507      100.5585      100.6092      24.733072       0.85054
  37     2.292       75.8876        0.0658      100.4903      100.5561      24.668425       1.07073
  36     2.964       75.9043        0.0944      100.3736      100.4680      24.563747       1.31402
  35     3.853       75.9386        0.1238      100.2126      100.3364      24.397776       1.57510
  34     5.035       75.9937        0.1600       99.9841      100.1441      24.150431       1.76693
  33     6.613       76.0720        0.2069       99.6723       99.8793      23.807222       1.83479
  32     8.786       76.1738        0.2694       99.2659       99.5353      23.361545       1.73085
  31     11.80       76.3036        0.3581       98.7272       99.0852      22.781613       1.62363
  30     15.07       76.4247        0.4528       98.1973       98.6501      22.225418       1.43599
  29     18.79       76.5449        0.5594       97.6425       98.2020      21.657098       1.28856
  28     23.16       76.6661        0.6834       97.0446       97.7280      21.061846       1.15102
  27     28.12       76.7825        0.8246       96.4180       97.2427      20.460185       1.02278
  26     33.73       76.8806        0.9821       95.7954       96.7776      19.896946       0.84684
  25     40.54       76.9621        1.1718       95.1325       96.3042      19.342143       0.68830
  24     48.69       77.0244        1.3995       94.4197       95.8192      18.794809       0.56640
  23     57.69       77.0582        1.6486       93.7195       95.3681      18.309878       0.45455
  22     68.43       77.0612        1.9441       92.9734       94.9174      17.856230       0.35663
  21     81.20       77.0137        2.2947       92.2013       94.4960      17.482253       0.24712
  20     96.49       76.9101        2.7106       91.3893       94.0998      17.189771       0.16143
  19     114.6       76.7637        3.2009       90.4853       93.6862      16.922541       0.12478
  18     136.5       76.5751        3.7773       89.4585       93.2358      16.660651       0.10070
  17     162.9       76.3378        4.4567       88.2806       92.7372      16.399454       0.08349
  16     196.4       76.0010        5.3275       86.8392       92.1667      16.165712       0.05884
  15     218.7       75.7701        5.8932       85.9281       91.8212      16.051183       0.04348
  14     243.0       75.5153        6.5024       84.9584       91.4608      15.945468       0.03667
  13     269.0       75.2356        7.1561       83.9301       91.0862      15.850590       0.03078
  12     297.5       74.9301        7.8551       82.8422       90.6973      15.767149       0.02475
  11     328.5       74.6001        8.6018       81.6857       90.2875      15.687343       0.02170
  10     361.9       74.2454        9.3957       80.4612       89.8569      15.611545       0.01918
   9     398.1       73.8648       10.2389       79.1654       89.4044      15.539615       0.01676
   8     437.6       73.4584       11.1316       77.7969       88.9285      15.470092       0.01486
   7     480.5       73.0258       12.0739       76.3553       88.4292      15.403439       0.01309
   6     533.0       72.4982       13.2137       74.6137       87.8275      15.329276       0.01193
   5     589.8       71.9365       14.4179       72.7738       87.1917      15.255230       0.01099
   4     651.6       71.3414       15.6848       70.8366       86.5214      15.179936       0.01030
   3     718.7       70.7134       17.0124       68.8032       85.8156      15.102249       0.00976
   2     792.3       70.0541       18.3966       66.6783       85.0749      15.020842       0.00934
   1     891.5       69.1871       20.2033       63.8939       84.0972      14.910108       0.00942
   0    1013.0       68.1812       22.2820       60.6707       82.9527      14.771431       0.00963



 Wavenumbers: 22650. - 29000. cm-1, ATM      1
 LEVEL PRESSURE   UPWARD FLUX   DIFDOWN FLUX  DIRDOWN FLUX  DOWNWARD FLUX   NET FLUX    HEATING RATE
          mb          W/m2          W/m2          W/m2        W/m2          W/m2       degree/day
  51    .06700       34.3499        0.0000       38.0063       38.0063       3.656408       0.00000
  50    .07753       34.3497        0.0004       38.0057       38.0061       3.656408       0.00000
  49    .09103       34.3495        0.0009       38.0050       38.0059       3.656408      -0.00000
  48    0.1069       34.3493        0.0014       38.0042       38.0057       3.656408      -0.00000
  47    0.1255       34.3490        0.0021       38.0033       38.0054       3.656408       0.00000
  46    0.1487       34.3486        0.0029       38.0022       38.0050       3.656408      -0.00000
  45    0.1794       34.3482        0.0040       38.0006       38.0046       3.656408       0.00000
  44    0.2165       34.3476        0.0053       37.9987       38.0040       3.656408      -0.00000
  43    0.2613       34.3469        0.0068       37.9965       38.0033       3.656408      -0.00000
  42    0.3336       34.3458        0.0094       37.9928       38.0022       3.656408       0.00000
  41    0.4307       34.3444        0.0128       37.9880       38.0008       3.656408      -0.00000
  40    0.5894       34.3420        0.0183       37.9800       37.9984       3.656408       0.00000
  39     1.339       34.3306        0.0446       37.9425       37.9870       3.656408       0.00000
  38     1.782       34.3240        0.0600       37.9204       37.9804       3.656408       0.00000
  37     2.292       34.3163        0.0778       37.8949       37.9727       3.656408       0.00000
  36     2.964       34.3017        0.1115       37.8466       37.9581       3.656408       0.00000
  35     3.853       34.2867        0.1463       37.7968       37.9431       3.656408      -0.00000
  34     5.035       34.2682        0.1891       37.7355       37.9246       3.656408      -0.00000
  33     6.613       34.2442        0.2447       37.6559       37.9006       3.656408       0.00000
  32     8.786       34.2122        0.3186       37.5500       37.8686       3.656408       0.00000
  31     11.80       34.1667        0.4237       37.3994       37.8231       3.656408       0.00000
  30     15.07       34.1181        0.5360       37.2386       37.7745       3.656408      -0.00000
  29     18.79       34.0635        0.6622       37.0577       37.7199       3.656408       0.00000
  28     23.16       33.9999        0.8089       36.8474       37.6563       3.656408       0.00000
  27     28.12       33.9276        0.9757       36.6083       37.5840       3.656408       0.00000
  26     33.73       33.8471        1.1612       36.3424       37.5035       3.656408      -0.00000
  25     40.54       33.7506        1.3836       36.0234       37.4070       3.656408      -0.00000
  24     48.69       33.6351        1.6492       35.6423       37.2915       3.656408       0.00000
  23     57.69       33.5095        1.9378       35.2280       37.1659       3.656408       0.00000
  22     68.43       33.3615        2.2773       34.7406       37.0179       3.656408      -0.00000
  21     81.20       33.1875        2.6756       34.1683       36.8439       3.656408      -0.00000
  20     96.49       32.9835        3.1416       33.4983       36.6399       3.656408       0.00000
  19     114.6       32.7460        3.6829       32.7194       36.4024       3.656408       0.00000
  18     136.5       32.4708        4.3079       31.8193       36.1272       3.656408       0.00000
  17     162.9       32.1520        5.0291       30.7793       35.8084       3.656408       0.00000
  16     196.4       31.7523        5.9286       29.4801       35.4087       3.656408      -0.00000
  15     218.7       31.4981        6.4978       28.6568       35.1545       3.656408       0.00000
  14     243.0       31.2290        7.0978       27.7876       34.8854       3.656408      -0.00000
  13     269.0       30.9455        7.7270       26.8749       34.6019       3.656408       0.00000
  12     297.5       30.6483        8.3829       25.9219       34.3047       3.656408       0.00000
  11     328.5       30.3374        9.0650       24.9289       33.9938       3.656408       0.00000
  10     361.9       30.0142        9.7694       23.9012       33.6706       3.656408       0.00000
   9     398.1       29.6789       10.4945       22.8408       33.3353       3.656408      -0.00000
   8     437.6       29.3332       11.2359       21.7537       32.9896       3.656408      -0.00000
   7     480.5       28.9781       11.9898       20.6447       32.6345       3.656408       0.00000
   6     533.0       28.5614       12.8643       19.3535       32.2178       3.656408      -0.00000
   5     589.8       28.1363       13.7437       18.0489       31.7927       3.656408       0.00000
   4     651.6       27.7050       14.6210       16.7404       31.3614       3.656408      -0.00000
   3     718.7       27.2696       15.4896       15.4364       30.9260       3.656408       0.00000
   2     792.3       26.8334       16.3405       14.1492       30.4898       3.656408      -0.00000
   1     891.5       26.2893       17.3702       12.5755       29.9457       3.656408       0.00000
   0    1013.0       25.6970       18.4440       10.9094       29.3534       3.656408      -0.00000



 Wavenumbers: 29000. - 38000. cm-1, ATM      1
 LEVEL PRESSURE   UPWARD FLUX   DIFDOWN FLUX  DIRDOWN FLUX  DOWNWARD FLUX   NET FLUX    HEATING RATE
          mb          W/m2          W/m2          W/m2        W/m2          W/m2       degree/day
  51    .06700        4.8771        0.0000       13.4026       13.4026       8.525471       0.00000
  50    .07753        4.8769        0.0003       13.3983       13.3986       8.521681       3.03815
  49    .09103        4.8766        0.0007       13.3921       13.3928       8.516173       3.44255
  48    0.1069        4.8763        0.0011       13.3841       13.3851       8.508809       3.91968
  47    0.1255        4.8760        0.0016       13.3734       13.3750       8.498980       4.45595
  46    0.1487        4.8756        0.0022       13.3579       13.3601       8.484564       5.25490
  45    0.1794        4.8750        0.0030       13.3342       13.3372       8.462197       6.14019
  44    0.2165        4.8743        0.0040       13.3025       13.3065       8.432198       6.82435
  43    0.2613        4.8735        0.0052       13.2605       13.2657       8.392151       7.54869
  42    0.3336        4.8723        0.0070       13.1834       13.1905       8.318154       8.62729
  41    0.4307        4.8708        0.0095       13.0730       13.0825       8.211690       9.25684
  40    0.5894        4.8684        0.0134       12.8795       12.8929       8.024525       9.95317
  39     1.339        4.8600        0.0296       11.9153       11.9450       7.084977      10.57761
  38     1.782        4.8568        0.0379       11.4377       11.4757       6.618888       8.87358
  37     2.292        4.8545        0.0468       10.9754       11.0222       6.167750       7.47202
  36     2.964        4.8492        0.0635       10.4619       10.5254       5.676223       6.17015
  35     3.853        4.8486        0.0787        9.9214       10.0001       5.151497       4.97974
  34     5.035        4.8515        0.0960        9.3769        9.4730       4.621478       3.78624
  33     6.613        4.8576        0.1174        8.8508        8.9682       4.110599       2.73116
  32     8.786        4.8661        0.1447        8.3552        8.4998       3.633717       1.85204
  31     11.80        4.8766        0.1821        7.8673        8.0494       3.172810       1.29039
  30     15.07        4.8856        0.2207        7.4892        7.7099       2.824230       0.89997
  29     18.79        4.8941        0.2627        7.1565        7.4193       2.525210       0.67797
  28     23.16        4.9018        0.3102        6.8455        7.1557       2.253840       0.52474
  27     28.12        4.9080        0.3626        6.5576        6.9202       2.012132       0.41089
  26     33.73        4.9103        0.4198        6.2995        6.7194       1.809045       0.30535
  25     40.54        4.9075        0.4874        6.0469        6.5342       1.626785       0.22611
  24     48.69        4.8990        0.5665        5.7937        6.3602       1.461244       0.17131
  23     57.69        4.8850        0.6510        5.5587        6.2096       1.324630       0.12805
  22     68.43        4.8631        0.7487        5.3189        6.0676       1.204480       0.09445
  21     81.20        4.8290        0.8621        5.0776        5.9397       1.110693       0.06197
  20     96.49        4.7815        0.9931        4.8290        5.8222       1.040671       0.03865
  19     114.6        4.7237        1.1416        4.5617        5.7033       0.979626       0.02850
  18     136.5        4.6566        1.3075        4.2715        5.5790       0.922388       0.02201
  17     162.9        4.5797        1.4919        3.9556        5.4475       0.867790       0.01745
  16     196.4        4.4823        1.7126        3.5909        5.3035       0.821248       0.01172
  15     218.7        4.4209        1.8465        3.3738        5.2203       0.799349       0.00831
  14     243.0        4.3570        1.9830        3.1537        5.1367       0.779694       0.00682
  13     269.0        4.2909        2.1210        2.9324        5.0534       0.762513       0.00557
  12     297.5        4.2229        2.2594        2.7113        4.9707       0.747759       0.00438
  11     328.5        4.1540        2.3966        2.4914        4.8880       0.733912       0.00377
  10     361.9        4.0847        2.5313        2.2744        4.8057       0.721011       0.00326
   9     398.1        4.0153        2.6624        2.0618        4.7243       0.709006       0.00280
   8     437.6        3.9462        2.7887        1.8551        4.6439       0.697665       0.00242
   7     480.5        3.8780        2.9089        1.6562        4.5651       0.687090       0.00208
   6     533.0        3.8012        3.0379        1.4391        4.4770       0.675779       0.00182
   5     589.8        3.7267        3.1556        1.2361        4.3917       0.665047       0.00159
   4     651.6        3.6547        3.2610        1.0485        4.3095       0.654783       0.00140
   3     718.7        3.5857        3.3530        0.8776        4.2307       0.644939       0.00124
   2     792.3        3.5199        3.4308        0.7245        4.1554       0.635507       0.00108
   1     891.5        3.4419        3.5080        0.5580        4.0660       0.624081       0.00097
   0    1013.0        3.3615        3.5669        0.4063        3.9732       0.611699       0.00086



 Wavenumbers: 38000. - 50000. cm-1, ATM      1
 LEVEL PRESSURE   UPWARD FLUX   DIFDOWN FLUX  DIRDOWN FLUX  DOWNWARD FLUX   NET FLUX    HEATING RATE
          mb          W/m2          W/m2          W/m2        W/m2          W/m2       degree/day
  51    .06700        0.0052        0.0000        0.8267        0.8267       0.821425       0.00000
  50    .07753        0.0052        0.0001        0.8242        0.8243       0.819093       1.86945
  49    .09103        0.0051        0.0002        0.8207        0.8209       0.815769       2.07722
  48    0.1069        0.0050        0.0002        0.8162        0.8164       0.811411       2.32009
  47    0.1255        0.0049        0.0004        0.8103        0.8106       0.805697       2.59036
  46    0.1487        0.0048        0.0005        0.8018        0.8023       0.797462       3.00184
  45    0.1794        0.0047        0.0007        0.7889        0.7896       0.784906       3.44691
  44    0.2165        0.0045        0.0009        0.7720        0.7729       0.768399       3.75502
  43    0.2613        0.0043        0.0011        0.7500        0.7511       0.746846       4.06261
  42    0.3336        0.0040        0.0015        0.7106        0.7121       0.708157       4.51077
  41    0.4307        0.0036        0.0019        0.6566        0.6584       0.654861       4.63393
  40    0.5894        0.0030        0.0024        0.5680        0.5704       0.567352       4.65364
  39     1.339        0.0016        0.0030        0.2422        0.2452       0.243595       3.64492
  38     1.782        0.0012        0.0026        0.1493        0.1519       0.150763       1.76738
  37     2.292        0.0009        0.0022        0.0924        0.0946       0.093770       0.94396
  36     2.964        0.0005        0.0019        0.0537        0.0556       0.055078       0.48570
  35     3.853        0.0003        0.0014        0.0293        0.0307       0.030425       0.23396
  34     5.035        0.0002        0.0011        0.0153        0.0163       0.016149       0.10199
  33     6.613        0.0001        0.0007        0.0073        0.0080       0.007908       0.04406
  32     8.786        0.0000        0.0005        0.0030        0.0034       0.003395       0.01753
  31     11.80        0.0000        0.0003        0.0010        0.0012       0.001205       0.00613
  30     15.07        0.0000        0.0001        0.0003        0.0005       0.000468       0.00190
  29     18.79        0.0000        0.0001        0.0001        0.0002       0.000185       0.00064
  28     23.16        0.0000        0.0000        0.0000        0.0001       0.000072       0.00022
  27     28.12        0.0000        0.0000        0.0000        0.0000       0.000028       0.00007
  26     33.73        0.0000        0.0000        0.0000        0.0000       0.000012       0.00003
  25     40.54        0.0000        0.0000        0.0000        0.0000       0.000005       0.00001
  24     48.69        0.0000        0.0000        0.0000        0.0000       0.000002       0.00000
  23     57.69        0.0000        0.0000        0.0000        0.0000       0.000001       0.00000
  22     68.43        0.0000        0.0000        0.0000        0.0000       0.000000       0.00000
  21     81.20        0.0000        0.0000        0.0000        0.0000       0.000000       0.00000
  20     96.49        0.0000        0.0000        0.0000        0.0000       0.000000       0.00000
  19     114.6        0.0000        0.0000        0.0000        0.0000       0.000000       0.00000
  18     136.5        0.0000        0.0000        0.0000        0.0000       0.000000       0.00000
  17     162.9        0.0000        0.0000        0.0000        0.0000       0.000000       0.00000
  16     196.4        0.0000        0.0000        0.0000        0.0000       0.000000       0.00000
  15     218.7        0.0000        0.0000        0.0000        0.0000       0.000000       0.00000
  14     243.0        0.0000        0.0000        0.0000        0.0000       0.000000       0.00000
  13     269.0        0.0000        0.0000        0.0000        0.0000       0.000000       0.00000
  12     297.5        0.0000        0.0000        0.0000        0.0000       0.000000       0.00000
  11     328.5        0.0000        0.0000        0.0000        0.0000       0.000000       0.00000
  10     361.9        0.0000        0.0000        0.0000        0.0000       0.000000       0.00000
   9     398.1        0.0000        0.0000        0.0000        0.0000       0.000000       0.00000
   8     437.6        0.0000        0.0000        0.0000        0.0000       0.000000       0.00000
   7     480.5        0.0000        0.0000        0.0000        0.0000       0.000000       0.00000
   6     533.0        0.0000        0.0000        0.0000        0.0000       0.000000       0.00000
   5     589.8        0.0000        0.0000        0.0000        0.0000       0.000000       0.00000
   4     651.6        0.0000        0.0000        0.0000        0.0000       0.000000       0.00000
   3     718.7        0.0000        0.0000        0.0000        0.0000       0.000000       0.00000
   2     792.3        0.0000        0.0000        0.0000        0.0000       0.000000       0.00000
   1     891.5        0.0000        0.0000        0.0000        0.0000       0.000000       0.00000
   0    1013.0        0.0000        0.0000        0.0000        0.0000       0.000000       0.00000



 Wavenumbers:   820. -  2600. cm-1, ATM      1
 LEVEL PRESSURE   UPWARD FLUX   DIFDOWN FLUX  DIRDOWN FLUX  DOWNWARD FLUX   NET FLUX    HEATING RATE
          mb          W/m2          W/m2          W/m2        W/m2          W/m2       degree/day
  51    .06700        0.1470        0.0000        3.8670        3.8670       3.720041       0.00000
  50    .07753        0.1470        0.0000        3.8644        3.8644       3.717442       2.08287
  49    .09103        0.1470        0.0000        3.8638        3.8638       3.716772       0.41878
  48    0.1069        0.1470        0.0000        3.8630        3.8630       3.716023       0.39874
  47    0.1255        0.1470        0.0000        3.8622        3.8622       3.715209       0.36879
  46    0.1487        0.1470        0.0000        3.8613        3.8613       3.714282       0.33798
  45    0.1794        0.1470        0.0000        3.8602        3.8602       3.713173       0.30446
  44    0.2165        0.1470        0.0000        3.8590        3.8590       3.712039       0.25804
  43    0.2613        0.1470        0.0000        3.8579        3.8579       3.710880       0.21851
  42    0.3336        0.1470        0.0000        3.8562        3.8562       3.709195       0.19646
  41    0.4307        0.1470        0.0000        3.8540        3.8540       3.707029       0.18827
  40    0.5894        0.1470        0.0000        3.8505        3.8505       3.703541       0.18550
  39     1.339        0.1470        0.0000        3.8352        3.8352       3.688191       0.17281
  38     1.782        0.1470        0.0000        3.8267        3.8267       3.679712       0.16143
  37     2.292        0.1470        0.0000        3.8172        3.8172       3.670193       0.15766
  36     2.964        0.1559        0.0000        1.0388        1.0388       0.882932      34.98855
  35     3.853        0.1598        0.0000        0.9647        0.9647       0.804884       0.74069
  34     5.035        0.1618        0.0000        0.9370        0.9370       0.775192       0.21211
  33     6.613        0.1629        0.0000        0.9240        0.9240       0.761071       0.07549
  32     8.786        0.1635        0.0000        0.9172        0.9172       0.753640       0.02886
  31     11.80        0.1639        0.0000        0.9130        0.9130       0.749097       0.01272
  30     15.07        0.1641        0.0000        0.9108        0.9108       0.746659       0.00629
  29     18.79        0.1643        0.0000        0.9094        0.9094       0.745104       0.00353
  28     23.16        0.1644        0.0000        0.9083        0.9083       0.743938       0.00225
  27     28.12        0.1644        0.0000        0.9075        0.9075       0.743073       0.00147
  26     33.73        0.1645        0.0000        0.9069        0.9069       0.742425       0.00097
  25     40.54        0.1645        0.0000        0.9064        0.9064       0.741875       0.00068
  24     48.69        0.1646        0.0000        0.9059        0.9059       0.741347       0.00055
  23     57.69        0.1646        0.0000        0.9055        0.9055       0.740860       0.00046
  22     68.43        0.1647        0.0000        0.9050        0.9050       0.740367       0.00039
  21     81.20        0.1647        0.0000        0.9046        0.9046       0.739869       0.00033
  20     96.49        0.1648        0.0000        0.9041        0.9041       0.739364       0.00028
  19     114.6        0.1648        0.0000        0.9037        0.9037       0.738873       0.00023
  18     136.5        0.1649        0.0000        0.9032        0.9032       0.738360       0.00020
  17     162.9        0.1649        0.0000        0.9028        0.9028       0.737881       0.00015
  16     196.4        0.1649        0.0000        0.9024        0.9024       0.737480       0.00010
  15     218.7        0.1650        0.0000        0.9023        0.9023       0.737340       0.00005
  14     243.0        0.1650        0.0000        0.9022        0.9022       0.737233       0.00004
  13     269.0        0.1650        0.0000        0.9021        0.9021       0.737141       0.00003
  12     297.5        0.1650        0.0000        0.9020        0.9020       0.737039       0.00003
  11     328.5        0.1650        0.0000        0.9019        0.9019       0.736905       0.00004
  10     361.9        0.1650        0.0000        0.9017        0.9017       0.736716       0.00005
   9     398.1        0.1650        0.0000        0.9015        0.9015       0.736448       0.00006
   8     437.6        0.1651        0.0000        0.9011        0.9011       0.736072       0.00008
   7     480.5        0.1651        0.0000        0.9007        0.9007       0.735556       0.00010
   6     533.0        0.1652        0.0000        0.8999        0.8999       0.734729       0.00013
   5     589.8        0.1653        0.0000        0.8989        0.8989       0.733605       0.00017
   4     651.6        0.1655        0.0000        0.8972        0.8972       0.731755       0.00025
   3     718.7        0.1658        0.0000        0.8945        0.8945       0.728778       0.00037
   2     792.3        0.1662        0.0000        0.8903        0.8903       0.724070       0.00054
   1     891.5        0.1671        0.0000        0.8819        0.8819       0.714775       0.00079
   0    1013.0        0.1687        0.0000        0.8676        0.8676       0.698858       0.00111

  Modules and versions used in this calculation:

       rrtmg_sw.1col.f90:  $Revision$                    rrtmg_sw_init.f90:  $Revision$        
     rrtmgsw_cldprop.f90:  $Revision$                  rrtmgsw_cldprmc.f90:  NOT USED          
     rrtmg_sw_reftra.f90:  $Revision$                  rrtmg_sw_spcvrt.f90:  NOT USED          
     rrtmg_sw_spcvmc.f90:  NOT USED                    rrtmgsw_setcoef.f90:  NOT USED          
     rrtmg_sw_taumol.f90:  $Revision$                  rrtmg_sw_vrtqdr.f90:  NOT USED          
                rrtatm.f:  NOT USED                             util_xxx.f:  NOT USED          
                 extra.f:  NOT USED                       rrtmg_sw_k_g.f90:  $Revision$        

