

 Wavenumbers:   820. - 50000. cm-1, ATM      1
 LEVEL PRESSURE   UPWARD FLUX   DIFDOWN FLUX  DIRDOWN FLUX  DOWNWARD FLUX   NET FLUX    HEATING RATE
          mb          W/m2          W/m2          W/m2        W/m2          W/m2       degree/day
  51    .06700      185.2282        0.0000      397.8738      397.8738     212.645526       0.00000
  50    .07753      185.2276        0.0012      397.8579      397.8591     212.631472      11.26467
  49    .09103      185.2269        0.0026      397.8425      397.8451     212.618198       8.29655
  48    0.1069      185.2260        0.0043      397.8240      397.8283     212.602290       8.46817
  47    0.1255      185.2250        0.0062      397.8012      397.8073     212.582306       9.05959
  46    0.1487      185.2239        0.0086      397.7697      397.7783     212.554419      10.16532
  45    0.1794      185.2223        0.0119      397.7232      397.7351     212.512855      11.41017
  44    0.2165      185.2205        0.0158      397.6637      397.6795     212.459008      12.24930
  43    0.2613      185.2185        0.0204      397.5873      397.6077     212.389187      13.16101
  42    0.3336      185.2153        0.0279      397.4509      397.4788     212.263496      14.65427
  41    0.4307      185.2113        0.0378      397.2604      397.2981     212.086795      15.36375
  40    0.5894      185.2055        0.0536      396.9366      396.9902     211.784735      16.06317
  39     1.339      185.1887        0.1245      395.4504      395.5749     210.386221      15.74473
  38     1.782      185.1861        0.1643      394.7607      394.9250     209.738907      12.32382
  37     2.292      185.1893        0.2095      394.0956      394.3051     209.115745      10.32118
  36     2.964      185.2067        0.2818      386.1843      386.4661     201.259335      98.62168
  35     3.853      185.2400        0.3633      384.7075      385.0708     199.830791      13.55714
  34     5.035      185.2951        0.4663      383.4664      383.9327     198.637549       8.52403
  33     6.613      185.3747        0.6009      382.2405      382.8414     197.466653       6.25961
  32     8.786      185.4762        0.7800      380.9484      381.7284     196.252175       4.71660
  31     11.80      185.5995        1.0337      379.4586      380.4922     194.892708       3.80608
  30     15.07      185.7066        1.3036      378.1070      379.4106     193.704018       3.06896
  29     18.79      185.8051        1.6061      376.7543      378.3603     192.555221       2.60468
  28     23.16      185.8944        1.9564      375.3326      377.2891     191.394666       2.24414
  27     28.12      185.9663        2.3537      373.8648      376.2185     190.252189       1.94213
  26     33.73      186.0024        2.7951      372.4026      375.1977     189.195312       1.58904
  25     40.54      185.9948        3.3244      370.8260      374.1503     188.155540       1.28995
  24     48.69      185.9367        3.9567      369.1004      373.0571     187.120428       1.07118
  23     57.69      185.8261        4.6446      367.3665      372.0112     186.185071       0.87676
  22     68.43      185.6442        5.4555      365.4708      370.9263     185.282097       0.70986
  21     81.20      185.3581        6.4110      363.4309      369.8419     184.483801       0.52750
  20     96.49      184.9547        7.5350      361.2103      368.7454     183.790657       0.38257
  19     114.6      184.4543        8.8474      358.6408      367.4882     183.033875       0.35336
  18     136.5      183.8492       10.3710      355.7385      366.1095     182.260309       0.29745
  17     162.9      183.1231       12.1422      352.4371      364.5793     181.456199       0.25703
  16     196.4      182.1593       14.3744      348.4048      362.7792     180.619898       0.21051
  15     218.7      181.5242       15.8012      345.8731      361.6743     180.150094       0.17837
  14     243.0      180.8386       17.3187      343.1990      360.5177     179.679069       0.16337
  13     269.0      180.1019       18.9254      340.3775      359.3029     179.201010       0.15508
  12     297.5      179.3142       20.6192      337.3822      358.0014     178.687228       0.15238
  11     328.5      178.4780       22.4016      334.1532      356.5548     178.076761       0.16598
  10     361.9      177.5955       24.2673      330.6409      354.9081     177.312625       0.19333
   9     398.1      176.6668       26.2160      326.7812      352.9972     176.330385       0.22884
   8     437.6      175.6948       28.2438      322.5045      350.7484     175.053581       0.27299
   7     480.5      174.6827       30.3459      317.7279      348.0737     173.391019       0.32652
   6     533.0      173.4812       32.8386      311.5430      344.3817     170.900435       0.40066
   5     589.8      172.2427       35.4146      304.6788      340.0934     167.850671       0.45269
   4     651.6      170.9790       38.0639      297.2509      335.3148     164.335789       0.48067
   3     718.7      169.7061       40.7763      289.3553      330.1315     160.425369       0.49143
   2     792.3      168.4495       43.5391      281.0708      324.6099     156.160349       0.48915
   1     891.5      166.9476       47.0501      270.3973      317.4475     150.499839       0.48168
   0    1013.0      165.5150       50.9681      258.3132      309.2813     143.766240       0.46755



 Wavenumbers:  2600. -  3250. cm-1, ATM      1
 LEVEL PRESSURE   UPWARD FLUX   DIFDOWN FLUX  DIRDOWN FLUX  DOWNWARD FLUX   NET FLUX    HEATING RATE
          mb          W/m2          W/m2          W/m2        W/m2          W/m2       degree/day
  51    .06700        0.4963        0.0000        3.5066        3.5066       3.010324       0.00000
  50    .07753        0.4963        0.0000        3.5066        3.5066       3.010316       0.00640
  49    .09103        0.4963        0.0000        3.5066        3.5066       3.010306       0.00627
  48    0.1069        0.4963        0.0000        3.5066        3.5066       3.010295       0.00613
  47    0.1255        0.4963        0.0000        3.5066        3.5066       3.010281       0.00599
  46    0.1487        0.4963        0.0000        3.5066        3.5066       3.010265       0.00607
  45    0.1794        0.4963        0.0000        3.5065        3.5065       3.010242       0.00624
  44    0.2165        0.4963        0.0000        3.5065        3.5065       3.010215       0.00611
  43    0.2613        0.4963        0.0000        3.5065        3.5065       3.010183       0.00598
  42    0.3336        0.4963        0.0000        3.5064        3.5064       3.010131       0.00615
  41    0.4307        0.4963        0.0000        3.5064        3.5064       3.010060       0.00617
  40    0.5894        0.4963        0.0000        3.5062        3.5062       3.009941       0.00633
  39     1.339        0.4963        0.0000        3.5055        3.5055       3.009242       0.00787
  38     1.782        0.4963        0.0000        3.5050        3.5050       3.008711       0.01010
  37     2.292        0.4963        0.0000        3.5043        3.5043       3.008019       0.01147
  36     2.964        0.4963        0.0000        3.5033        3.5033       3.007029       0.01243
  35     3.853        0.4963        0.0000        3.5019        3.5019       3.005651       0.01307
  34     5.035        0.4963        0.0000        3.5001        3.5001       3.003788       0.01331
  33     6.613        0.4963        0.0000        3.4977        3.4977       3.001374       0.01290
  32     8.786        0.4963        0.0000        3.4947        3.4947       2.998395       0.01157
  31     11.80        0.4963        0.0000        3.4910        3.4910       2.994751       0.01020
  30     15.07        0.4963        0.0000        3.4878        3.4878       2.991520       0.00834
  29     18.79        0.4963        0.0000        3.4847        3.4847       2.988441       0.00698
  28     23.16        0.4963        0.0000        3.4815        3.4815       2.985196       0.00627
  27     28.12        0.4963        0.0000        3.4778        3.4779       2.981549       0.00620
  26     33.73        0.4963        0.0000        3.4733        3.4734       2.977049       0.00677
  25     40.54        0.4963        0.0000        3.4670        3.4670       2.970681       0.00790
  24     48.69        0.4963        0.0000        3.4580        3.4580       2.961714       0.00928
  23     57.69        0.4963        0.0000        3.4469        3.4469       2.950558       0.01046
  22     68.43        0.4964        0.0000        3.4324        3.4325       2.936104       0.01136
  21     81.20        0.4964        0.0000        3.4145        3.4146       2.918147       0.01187
  20     96.49        0.4965        0.0000        3.3932        3.3932       2.896759       0.01180
  19     114.6        0.4966        0.0000        3.3633        3.3633       2.866747       0.01401
  18     136.5        0.4967        0.0001        3.3328        3.3329       2.836153       0.01176
  17     162.9        0.4969        0.0001        3.3026        3.3027       2.805795       0.00970
  16     196.4        0.4972        0.0001        3.2712        3.2713       2.774124       0.00797
  15     218.7        0.4974        0.0001        3.2540        3.2541       2.756765       0.00659
  14     243.0        0.4976        0.0001        3.2375        3.2376       2.740003       0.00581
  13     269.0        0.4978        0.0001        3.2211        3.2212       2.723346       0.00540
  12     297.5        0.4982        0.0001        3.2038        3.2039       2.705782       0.00521
  11     328.5        0.4986        0.0001        3.1842        3.1843       2.685711       0.00546
  10     361.9        0.4991        0.0001        3.1603        3.1604       2.661279       0.00618
   9     398.1        0.4999        0.0001        3.1299        3.1301       2.630163       0.00725
   8     437.6        0.5010        0.0002        3.0921        3.0923       2.591311       0.00831
   7     480.5        0.5023        0.0002        3.0444        3.0446       2.542296       0.00963
   6     533.0        0.5045        0.0002        2.9745        2.9747       2.470179       0.01160
   5     589.8        0.5074        0.0002        2.8874        2.8876       2.380185       0.01336
   4     651.6        0.5114        0.0002        2.7848        2.7850       2.273552       0.01458
   3     718.7        0.5169        0.0002        2.6682        2.6685       2.151584       0.01533
   2     792.3        0.5242        0.0002        2.5420        2.5423       2.018023       0.01532
   1     891.5        0.5373        0.0003        2.3783        2.3786       1.841273       0.01504
   0    1013.0        0.5595        0.0003        2.1931        2.1934       1.633923       0.01440



 Wavenumbers:  3250. -  4000. cm-1, ATM      1
 LEVEL PRESSURE   UPWARD FLUX   DIFDOWN FLUX  DIRDOWN FLUX  DOWNWARD FLUX   NET FLUX    HEATING RATE
          mb          W/m2          W/m2          W/m2        W/m2          W/m2       degree/day
  51    .06700        0.4051        0.0000        5.9117        5.9117       5.506569       0.00000
  50    .07753        0.4051        0.0000        5.9075        5.9075       5.502406       3.33607
  49    .09103        0.4051        0.0000        5.9052        5.9052       5.500117       1.43068
  48    0.1069        0.4051        0.0000        5.9035        5.9035       5.498404       0.91188
  47    0.1255        0.4051        0.0000        5.9019        5.9019       5.496784       0.73436
  46    0.1487        0.4051        0.0000        5.9001        5.9001       5.495049       0.63247
  45    0.1794        0.4051        0.0000        5.8982        5.8982       5.493073       0.54262
  44    0.2165        0.4051        0.0000        5.8962        5.8962       5.491125       0.44316
  43    0.2613        0.4051        0.0000        5.8943        5.8943       5.489175       0.36742
  42    0.3336        0.4051        0.0000        5.8915        5.8915       5.486419       0.32131
  41    0.4307        0.4051        0.0000        5.8881        5.8881       5.483046       0.29332
  40    0.5894        0.4051        0.0000        5.8830        5.8830       5.477940       0.27154
  39     1.339        0.4051        0.0000        5.8641        5.8641       5.459020       0.21300
  38     1.782        0.4051        0.0000        5.8561        5.8561       5.451030       0.15212
  37     2.292        0.4051        0.0000        5.8483        5.8483       5.443243       0.12897
  36     2.964        0.4054        0.0000        4.5648        4.5648       4.159385      16.11630
  35     3.853        0.4056        0.0000        4.3415        4.3415       3.935937       2.12056
  34     5.035        0.4057        0.0000        4.2288        4.2288       3.823164       0.80560
  33     6.613        0.4057        0.0000        4.1606        4.1606       3.754882       0.36504
  32     8.786        0.4058        0.0000        4.1135        4.1135       3.707676       0.18333
  31     11.80        0.4058        0.0000        4.0735        4.0735       3.667692       0.11194
  30     15.07        0.4059        0.0000        4.0430        4.0430       3.637150       0.07885
  29     18.79        0.4059        0.0000        4.0149        4.0149       3.609046       0.06372
  28     23.16        0.4059        0.0000        3.9868        3.9868       3.580905       0.05442
  27     28.12        0.4059        0.0000        3.9593        3.9594       3.553468       0.04664
  26     33.73        0.4059        0.0000        3.9321        3.9321       3.526196       0.04100
  25     40.54        0.4059        0.0000        3.9027        3.9028       3.496847       0.03641
  24     48.69        0.4059        0.0001        3.8683        3.8684       3.462436       0.03561
  23     57.69        0.4059        0.0001        3.8307        3.8307       3.424792       0.03529
  22     68.43        0.4059        0.0001        3.7865        3.7865       3.380579       0.03476
  21     81.20        0.4060        0.0001        3.7355        3.7356       3.329619       0.03367
  20     96.49        0.4060        0.0001        3.6805        3.6806       3.274584       0.03038
  19     114.6        0.4060        0.0001        3.6183        3.6184       3.212402       0.02903
  18     136.5        0.4060        0.0001        3.5525        3.5527       3.146623       0.02529
  17     162.9        0.4061        0.0002        3.4843        3.4844       3.078323       0.02183
  16     196.4        0.4061        0.0002        3.4099        3.4101       3.003960       0.01872
  15     218.7        0.4062        0.0002        3.3689        3.3691       2.962919       0.01558
  14     243.0        0.4062        0.0002        3.3292        3.3294       2.923216       0.01377
  13     269.0        0.4063        0.0002        3.2880        3.2882       2.881972       0.01338
  12     297.5        0.4063        0.0003        3.2358        3.2361       2.829731       0.01549
  11     328.5        0.4065        0.0003        3.1606        3.1609       2.754405       0.02048
  10     361.9        0.4067        0.0003        3.0520        3.0523       2.645567       0.02754
   9     398.1        0.4072        0.0003        2.9029        2.9033       2.496071       0.03483
   8     437.6        0.4080        0.0003        2.7127        2.7130       2.304986       0.04086
   7     480.5        0.4094        0.0003        2.4866        2.4869       2.077532       0.04467
   6     533.0        0.4122        0.0003        2.1985        2.1988       1.786646       0.04679
   5     589.8        0.4169        0.0003        1.9117        1.9121       1.495167       0.04327
   4     651.6        0.4245        0.0003        1.6406        1.6410       1.216415       0.03812
   3     718.7        0.4368        0.0003        1.3868        1.3871       0.950307       0.03344
   2     792.3        0.4566        0.0003        1.1510        1.1513       0.694671       0.02932
   1     891.5        0.4989        0.0003        0.8865        0.8867       0.387872       0.02611
   0    1013.0        0.5920        0.0002        0.6241        0.6244       0.032376       0.02468



 Wavenumbers:  4000. -  4650. cm-1, ATM      1
 LEVEL PRESSURE   UPWARD FLUX   DIFDOWN FLUX  DIRDOWN FLUX  DOWNWARD FLUX   NET FLUX    HEATING RATE
          mb          W/m2          W/m2          W/m2        W/m2          W/m2       degree/day
  51    .06700        0.8487        0.0000        6.9421        6.9421       6.093352       0.00000
  50    .07753        0.8487        0.0000        6.9421        6.9421       6.093351       0.00083
  49    .09103        0.8487        0.0000        6.9421        6.9421       6.093350       0.00082
  48    0.1069        0.8487        0.0000        6.9421        6.9421       6.093349       0.00080
  47    0.1255        0.8487        0.0000        6.9421        6.9421       6.093347       0.00078
  46    0.1487        0.8487        0.0000        6.9421        6.9421       6.093345       0.00079
  45    0.1794        0.8487        0.0000        6.9421        6.9421       6.093342       0.00081
  44    0.2165        0.8487        0.0000        6.9421        6.9421       6.093338       0.00080
  43    0.2613        0.8487        0.0000        6.9420        6.9421       6.093334       0.00078
  42    0.3336        0.8487        0.0000        6.9420        6.9420       6.093327       0.00080
  41    0.4307        0.8487        0.0000        6.9420        6.9420       6.093318       0.00081
  40    0.5894        0.8487        0.0000        6.9420        6.9420       6.093302       0.00083
  39     1.339        0.8487        0.0000        6.9419        6.9419       6.093209       0.00105
  38     1.782        0.8487        0.0000        6.9418        6.9418       6.093136       0.00139
  37     2.292        0.8487        0.0000        6.9417        6.9417       6.093038       0.00162
  36     2.964        0.8487        0.0000        6.9416        6.9416       6.092892       0.00183
  35     3.853        0.8487        0.0000        6.9414        6.9414       6.092676       0.00205
  34     5.035        0.8487        0.0000        6.9410        6.9411       6.092357       0.00228
  33     6.613        0.8487        0.0000        6.9406        6.9406       6.091887       0.00251
  32     8.786        0.8487        0.0000        6.9399        6.9399       6.091195       0.00269
  31     11.80        0.8487        0.0000        6.9387        6.9388       6.090110       0.00304
  30     15.07        0.8487        0.0001        6.9375        6.9375       6.088841       0.00328
  29     18.79        0.8487        0.0001        6.9359        6.9360       6.087310       0.00347
  28     23.16        0.8487        0.0001        6.9340        6.9341       6.085416       0.00366
  27     28.12        0.8487        0.0001        6.9317        6.9318       6.083132       0.00388
  26     33.73        0.8486        0.0001        6.9288        6.9290       6.080328       0.00422
  25     40.54        0.8486        0.0002        6.9250        6.9252       6.076543       0.00469
  24     48.69        0.8486        0.0002        6.9200        6.9202       6.071531       0.00519
  23     57.69        0.8487        0.0002        6.9141        6.9143       6.065624       0.00554
  22     68.43        0.8487        0.0003        6.9067        6.9069       6.058273       0.00578
  21     81.20        0.8487        0.0003        6.8977        6.8980       6.049280       0.00594
  20     96.49        0.8488        0.0004        6.8868        6.8872       6.038404       0.00600
  19     114.6        0.8489        0.0004        6.8701        6.8705       6.021588       0.00785
  18     136.5        0.8491        0.0005        6.8511        6.8516       6.002498       0.00734
  17     162.9        0.8493        0.0006        6.8291        6.8297       5.980429       0.00705
  16     196.4        0.8497        0.0007        6.8014        6.8021       5.952437       0.00705
  15     218.7        0.8499        0.0008        6.7834        6.7842       5.934293       0.00689
  14     243.0        0.8503        0.0009        6.7640        6.7649       5.914675       0.00680
  13     269.0        0.8506        0.0010        6.7430        6.7439       5.893317       0.00693
  12     297.5        0.8511        0.0011        6.7196        6.7207       5.869601       0.00703
  11     328.5        0.8516        0.0012        6.6929        6.6941       5.842487       0.00737
  10     361.9        0.8523        0.0013        6.6622        6.6635       5.811204       0.00791
   9     398.1        0.8532        0.0014        6.6266        6.6281       5.774843       0.00847
   8     437.6        0.8544        0.0016        6.5849        6.5864       5.732051       0.00915
   7     480.5        0.8559        0.0017        6.5348        6.5365       5.680606       0.01010
   6     533.0        0.8581        0.0019        6.4638        6.4657       5.607530       0.01176
   5     589.8        0.8611        0.0020        6.3769        6.3790       5.517876       0.01331
   4     651.6        0.8650        0.0022        6.2742        6.2765       5.411485       0.01455
   3     718.7        0.8701        0.0024        6.1559        6.1583       5.288235       0.01549
   2     792.3        0.8768        0.0026        6.0243        6.0270       5.150210       0.01583
   1     891.5        0.8879        0.0029        5.8453        5.8482       4.960242       0.01617
   0    1013.0        0.9059        0.0032        5.6221        5.6253       4.719414       0.01672



 Wavenumbers:  4650. -  5150. cm-1, ATM      1
 LEVEL PRESSURE   UPWARD FLUX   DIFDOWN FLUX  DIRDOWN FLUX  DOWNWARD FLUX   NET FLUX    HEATING RATE
          mb          W/m2          W/m2          W/m2        W/m2          W/m2       degree/day
  51    .06700        0.5933        0.0000        6.5710        6.5710       5.977730       0.00000
  50    .07753        0.5933        0.0000        6.5708        6.5708       5.977501       0.18353
  49    .09103        0.5933        0.0000        6.5705        6.5705       5.977216       0.17842
  48    0.1069        0.5933        0.0000        6.5702        6.5702       5.976891       0.17302
  47    0.1255        0.5933        0.0000        6.5698        6.5698       5.976521       0.16750
  46    0.1487        0.5933        0.0000        6.5693        6.5693       5.976061       0.16778
  45    0.1794        0.5933        0.0000        6.5687        6.5687       5.975442       0.16977
  44    0.2165        0.5933        0.0000        6.5680        6.5680       5.974725       0.16313
  43    0.2613        0.5933        0.0000        6.5672        6.5672       5.973896       0.15627
  42    0.3336        0.5933        0.0000        6.5658        6.5658       5.972571       0.15450
  41    0.4307        0.5933        0.0000        6.5642        6.5642       5.970892       0.14597
  40    0.5894        0.5933        0.0000        6.5616        6.5616       5.968342       0.13563
  39     1.339        0.5933        0.0000        6.5521        6.5521       5.958806       0.10736
  38     1.782        0.5933        0.0000        6.5479        6.5479       5.954672       0.07869
  37     2.292        0.5933        0.0000        6.5441        6.5441       5.950832       0.06361
  36     2.964        0.5932        0.0000        6.5401        6.5401       5.946888       0.04951
  35     3.853        0.5932        0.0000        6.5361        6.5362       5.942923       0.03762
  34     5.035        0.5932        0.0000        6.5321        6.5321       5.938885       0.02885
  33     6.613        0.5932        0.0000        6.5277        6.5277       5.934461       0.02365
  32     8.786        0.5932        0.0001        6.5221        6.5222       5.928962       0.02136
  31     11.80        0.5932        0.0001        6.5140        6.5141       5.920894       0.02259
  30     15.07        0.5932        0.0001        6.5047        6.5047       5.911548       0.02413
  29     18.79        0.5932        0.0001        6.4931        6.4933       5.900067       0.02603
  28     23.16        0.5932        0.0001        6.4786        6.4787       5.885519       0.02813
  27     28.12        0.5932        0.0002        6.4607        6.4608       5.867644       0.03039
  26     33.73        0.5932        0.0002        6.4393        6.4395       5.846369       0.03199
  25     40.54        0.5932        0.0002        6.4124        6.4126       5.819480       0.03336
  24     48.69        0.5932        0.0003        6.3790        6.3793       5.786151       0.03449
  23     57.69        0.5932        0.0003        6.3422        6.3425       5.749383       0.03446
  22     68.43        0.5932        0.0004        6.2993        6.2997       5.706536       0.03368
  21     81.20        0.5932        0.0004        6.2508        6.2513       5.658039       0.03205
  20     96.49        0.5933        0.0005        6.1977        6.1982       5.604922       0.02932
  19     114.6        0.5934        0.0006        6.1402        6.1408       5.547403       0.02686
  18     136.5        0.5936        0.0007        6.0802        6.0810       5.487383       0.02308
  17     162.9        0.5939        0.0009        6.0165        6.0173       5.423484       0.02042
  16     196.4        0.5943        0.0010        5.9400        5.9410       5.346745       0.01932
  15     218.7        0.5946        0.0011        5.8910        5.8921       5.297502       0.01870
  14     243.0        0.5950        0.0013        5.8374        5.8386       5.243658       0.01868
  13     269.0        0.5954        0.0014        5.7785        5.7799       5.184420       0.01922
  12     297.5        0.5960        0.0015        5.7132        5.7147       5.118656       0.01950
  11     328.5        0.5967        0.0017        5.6402        5.6419       5.045150       0.01999
  10     361.9        0.5976        0.0018        5.5591        5.5609       4.963336       0.02070
   9     398.1        0.5987        0.0020        5.4691        5.4711       4.872395       0.02119
   8     437.6        0.6001        0.0021        5.3699        5.3720       4.771920       0.02148
   7     480.5        0.6019        0.0023        5.2605        5.2628       4.660942       0.02180
   6     533.0        0.6045        0.0025        5.1215        5.1240       4.519456       0.02276
   5     589.8        0.6081        0.0027        4.9685        4.9712       4.363131       0.02320
   4     651.6        0.6127        0.0029        4.8045        4.8074       4.194720       0.02303
   3     718.7        0.6186        0.0031        4.6324        4.6355       4.016848       0.02235
   2     792.3        0.6264        0.0033        4.4529        4.4562       3.829814       0.02145
   1     891.5        0.6395        0.0035        4.2210        4.2246       3.585061       0.02083
   0    1013.0        0.6603        0.0038        3.9597        3.9635       3.303198       0.01957



 Wavenumbers:  5150. -  6150. cm-1, ATM      1
 LEVEL PRESSURE   UPWARD FLUX   DIFDOWN FLUX  DIRDOWN FLUX  DOWNWARD FLUX   NET FLUX    HEATING RATE
          mb          W/m2          W/m2          W/m2        W/m2          W/m2       degree/day
  51    .06700        1.6263        0.0000       16.4735       16.4735      14.847218       0.00000
  50    .07753        1.6263        0.0000       16.4735       16.4735      14.847218       0.00019
  49    .09103        1.6263        0.0000       16.4735       16.4735      14.847218       0.00018
  48    0.1069        1.6263        0.0000       16.4735       16.4735      14.847217       0.00018
  47    0.1255        1.6263        0.0000       16.4735       16.4735      14.847217       0.00018
  46    0.1487        1.6263        0.0000       16.4735       16.4735      14.847216       0.00018
  45    0.1794        1.6263        0.0000       16.4735       16.4735      14.847216       0.00018
  44    0.2165        1.6263        0.0000       16.4735       16.4735      14.847215       0.00018
  43    0.2613        1.6263        0.0000       16.4735       16.4735      14.847214       0.00018
  42    0.3336        1.6263        0.0000       16.4735       16.4735      14.847212       0.00018
  41    0.4307        1.6263        0.0000       16.4735       16.4735      14.847210       0.00018
  40    0.5894        1.6263        0.0000       16.4735       16.4735      14.847207       0.00019
  39     1.339        1.6263        0.0000       16.4734       16.4734      14.847185       0.00024
  38     1.782        1.6263        0.0000       16.4734       16.4734      14.847169       0.00032
  37     2.292        1.6262        0.0001       16.4733       16.4734      14.847146       0.00037
  36     2.964        1.6267        0.0001       15.3148       15.3149      13.688205      14.54822
  35     3.853        1.6269        0.0001       15.1694       15.1695      13.542679       1.38107
  34     5.035        1.6270        0.0001       15.0983       15.0984      13.471481       0.50861
  33     6.613        1.6270        0.0002       15.0564       15.0565      13.429513       0.22436
  32     8.786        1.6270        0.0002       15.0290       15.0292      13.402139       0.10631
  31     11.80        1.6270        0.0003       15.0079       15.0082      13.381187       0.05866
  30     15.07        1.6270        0.0004       14.9939       14.9942      13.367218       0.03607
  29     18.79        1.6270        0.0005       14.9829       14.9834      13.356349       0.02464
  28     23.16        1.6270        0.0006       14.9730       14.9735      13.346539       0.01897
  27     28.12        1.6269        0.0007       14.9641       14.9647      13.337820       0.01482
  26     33.73        1.6269        0.0008       14.9560       14.9568      13.329949       0.01183
  25     40.54        1.6268        0.0010       14.9477       14.9486      13.321816       0.01009
  24     48.69        1.6268        0.0012       14.9380       14.9392      13.312433       0.00971
  23     57.69        1.6267        0.0014       14.9275       14.9289      13.302185       0.00961
  22     68.43        1.6267        0.0016       14.9152       14.9168      13.290122       0.00948
  21     81.20        1.6266        0.0019       14.9007       14.9026      13.276027       0.00931
  20     96.49        1.6265        0.0023       14.8840       14.8862      13.259700       0.00901
  19     114.6        1.6265        0.0027       14.8647       14.8674      13.240953       0.00875
  18     136.5        1.6264        0.0032       14.8430       14.8462      13.219777       0.00814
  17     162.9        1.6263        0.0038       14.8187       14.8225      13.196243       0.00752
  16     196.4        1.6262        0.0046       14.7897       14.7943      13.168086       0.00709
  15     218.7        1.6261        0.0051       14.7718       14.7769      13.150784       0.00657
  14     243.0        1.6260        0.0057       14.7527       14.7584      13.132377       0.00638
  13     269.0        1.6259        0.0063       14.7313       14.7376      13.111673       0.00672
  12     297.5        1.6258        0.0069       14.7032       14.7101      13.084336       0.00811
  11     328.5        1.6257        0.0076       14.6596       14.6673      13.041560       0.01163
  10     361.9        1.6257        0.0084       14.5881       14.5964      12.970764       0.01791
   9     398.1        1.6257        0.0092       14.4725       14.4817      12.855957       0.02675
   8     437.6        1.6259        0.0100       14.2922       14.3022      12.676269       0.03842
   7     480.5        1.6264        0.0108       14.0225       14.0333      12.406916       0.05290
   6     533.0        1.6273        0.0117       13.5817       13.5934      11.966046       0.07092
   5     589.8        1.6291        0.0126       13.0348       13.0474      11.418303       0.08130
   4     651.6        1.6321        0.0134       12.4249       12.4383      10.806218       0.08370
   3     718.7        1.6369        0.0141       11.7875       11.8016      10.164749       0.08061
   2     792.3        1.6448        0.0148       11.1587       11.1736       9.528783       0.07294
   1     891.5        1.6617        0.0157       10.4571       10.4728       8.811142       0.06107
   0    1013.0        1.6994        0.0167        9.8171        9.8338       8.134456       0.04699



 Wavenumbers:  6150. -  7700. cm-1, ATM      1
 LEVEL PRESSURE   UPWARD FLUX   DIFDOWN FLUX  DIRDOWN FLUX  DOWNWARD FLUX   NET FLUX    HEATING RATE
          mb          W/m2          W/m2          W/m2        W/m2          W/m2       degree/day
  51    .06700        3.0727        0.0000       30.4684       30.4684      27.395706       0.00000
  50    .07753        3.0727        0.0000       30.4684       30.4684      27.395689       0.01303
  49    .09103        3.0727        0.0000       30.4683       30.4683      27.395669       0.01277
  48    0.1069        3.0727        0.0000       30.4683       30.4683      27.395645       0.01250
  47    0.1255        3.0727        0.0000       30.4683       30.4683      27.395618       0.01223
  46    0.1487        3.0727        0.0000       30.4682       30.4682      27.395584       0.01241
  45    0.1794        3.0727        0.0000       30.4682       30.4682      27.395538       0.01276
  44    0.2165        3.0727        0.0000       30.4681       30.4681      27.395483       0.01252
  43    0.2613        3.0726        0.0000       30.4680       30.4681      27.395418       0.01228
  42    0.3336        3.0726        0.0000       30.4679       30.4680      27.395310       0.01256
  41    0.4307        3.0726        0.0000       30.4678       30.4678      27.395167       0.01241
  40    0.5894        3.0726        0.0001       30.4675       30.4675      27.394934       0.01239
  39     1.339        3.0725        0.0001       30.4662       30.4664      27.393835       0.01238
  38     1.782        3.0725        0.0002       30.4655       30.4657      27.393190       0.01227
  37     2.292        3.0724        0.0002       30.4646       30.4649      27.392445       0.01234
  36     2.964        3.0733        0.0003       28.3301       28.3305      25.257187      26.80394
  35     3.853        3.0736        0.0004       28.1531       28.1535      25.079912       1.68237
  34     5.035        3.0738        0.0005       28.0682       28.0687      24.994966       0.60682
  33     6.613        3.0738        0.0007       28.0184       28.0191      24.945365       0.26517
  32     8.786        3.0737        0.0009       27.9861       27.9870      24.913323       0.12444
  31     11.80        3.0735        0.0012       27.9613       27.9625      24.889049       0.06796
  30     15.07        3.0732        0.0015       27.9448       27.9463      24.873060       0.04128
  29     18.79        3.0730        0.0019       27.9318       27.9337      24.860762       0.02788
  28     23.16        3.0726        0.0024       27.9200       27.9224      24.849758       0.02128
  27     28.12        3.0722        0.0029       27.9094       27.9123      24.840091       0.01643
  26     33.73        3.0717        0.0034       27.8998       27.9033      24.831561       0.01283
  25     40.54        3.0711        0.0041       27.8900       27.8942      24.823029       0.01059
  24     48.69        3.0704        0.0049       27.8789       27.8838      24.813409       0.00996
  23     57.69        3.0696        0.0058       27.8668       27.8727      24.803017       0.00974
  22     68.43        3.0687        0.0069       27.8526       27.8595      24.790809       0.00960
  21     81.20        3.0676        0.0082       27.8359       27.8440      24.776433       0.00950
  20     96.49        3.0663        0.0097       27.8161       27.8258      24.759492       0.00935
  19     114.6        3.0647        0.0115       27.7916       27.8032      24.738410       0.00984
  18     136.5        3.0629        0.0137       27.7627       27.7764      24.713478       0.00959
  17     162.9        3.0607        0.0163       27.7283       27.7445      24.683801       0.00949
  16     196.4        3.0579        0.0196       27.6836       27.7032      24.645259       0.00970
  15     218.7        3.0561        0.0218       27.6541       27.6759      24.619873       0.00964
  14     243.0        3.0541        0.0242       27.6220       27.6462      24.592158       0.00961
  13     269.0        3.0519        0.0268       27.5856       27.6124      24.560509       0.01027
  12     297.5        3.0496        0.0296       27.5388       27.5684      24.518860       0.01235
  11     328.5        3.0472        0.0326       27.4693       27.5019      24.454739       0.01743
  10     361.9        3.0448        0.0359       27.3591       27.3950      24.350224       0.02644
   9     398.1        3.0425        0.0393       27.1851       27.2244      24.181883       0.03922
   8     437.6        3.0405        0.0428       26.9140       26.9569      23.916378       0.05677
   7     480.5        3.0391        0.0465       26.5015       26.5480      23.508874       0.08003
   6     533.0        3.0391        0.0506       25.7992       25.8498      22.810669       0.11232
   5     589.8        3.0416        0.0546       24.8762       24.9308      21.889168       0.13678
   4     651.6        3.0479        0.0583       23.7958       23.8541      20.806110       0.14811
   3     718.7        3.0602        0.0617       22.6201       22.6819      19.621617       0.14886
   2     792.3        3.0820        0.0649       21.3920       21.4568      18.374788       0.14300
   1     891.5        3.1300        0.0685       19.8901       19.9586      16.828667       0.13157
   0    1013.0        3.2334        0.0723       18.3249       18.3972      15.163711       0.11561



 Wavenumbers:  7700. -  8050. cm-1, ATM      1
 LEVEL PRESSURE   UPWARD FLUX   DIFDOWN FLUX  DIRDOWN FLUX  DOWNWARD FLUX   NET FLUX    HEATING RATE
          mb          W/m2          W/m2          W/m2        W/m2          W/m2       degree/day
  51    .06700        1.0725        0.0000        7.2006        7.2006       6.128060       0.00000
  50    .07753        1.0725        0.0000        7.2006        7.2006       6.128042       0.01480
  49    .09103        1.0725        0.0000        7.2005        7.2005       6.128019       0.01451
  48    0.1069        1.0725        0.0000        7.2005        7.2005       6.127992       0.01420
  47    0.1255        1.0725        0.0000        7.2005        7.2005       6.127961       0.01390
  46    0.1487        1.0725        0.0000        7.2004        7.2005       6.127923       0.01410
  45    0.1794        1.0725        0.0000        7.2004        7.2004       6.127870       0.01451
  44    0.2165        1.0725        0.0000        7.2003        7.2003       6.127807       0.01423
  43    0.2613        1.0725        0.0000        7.2003        7.2003       6.127733       0.01397
  42    0.3336        1.0725        0.0000        7.2001        7.2001       6.127610       0.01429
  41    0.4307        1.0725        0.0000        7.2000        7.2000       6.127448       0.01413
  40    0.5894        1.0725        0.0000        7.1997        7.1997       6.127182       0.01412
  39     1.339        1.0726        0.0001        7.1984        7.1985       6.125927       0.01413
  38     1.782        1.0726        0.0001        7.1977        7.1978       6.125190       0.01403
  37     2.292        1.0726        0.0001        7.1968        7.1969       6.124337       0.01413
  36     2.964        1.0726        0.0001        7.1957        7.1958       6.123218       0.01405
  35     3.853        1.0726        0.0002        7.1942        7.1944       6.121740       0.01403
  34     5.035        1.0726        0.0002        7.1922        7.1924       6.119778       0.01402
  33     6.613        1.0727        0.0003        7.1896        7.1899       6.117160       0.01400
  32     8.786        1.0727        0.0004        7.1860        7.1864       6.113637       0.01368
  31     11.80        1.0728        0.0005        7.1809        7.1814       6.108610       0.01407
  30     15.07        1.0729        0.0007        7.1755        7.1761       6.103229       0.01389
  29     18.79        1.0730        0.0008        7.1694        7.1702       6.097170       0.01374
  28     23.16        1.0731        0.0010        7.1622        7.1633       6.090121       0.01363
  27     28.12        1.0733        0.0012        7.1541        7.1554       6.082098       0.01364
  26     33.73        1.0734        0.0015        7.1451        7.1466       6.073168       0.01343
  25     40.54        1.0736        0.0017        7.1343        7.1361       6.062448       0.01330
  24     48.69        1.0738        0.0021        7.1214        7.1235       6.049623       0.01327
  23     57.69        1.0741        0.0025        7.1073        7.1097       6.035661       0.01309
  22     68.43        1.0744        0.0029        7.0907        7.0936       6.019200       0.01294
  21     81.20        1.0748        0.0035        7.0711        7.0746       5.999827       0.01280
  20     96.49        1.0752        0.0041        7.0482        7.0523       5.977069       0.01256
  19     114.6        1.0757        0.0049        7.0213        7.0262       5.950474       0.01242
  18     136.5        1.0764        0.0058        6.9902        6.9960       5.919562       0.01189
  17     162.9        1.0772        0.0068        6.9539        6.9608       5.883564       0.01151
  16     196.4        1.0783        0.0082        6.9082        6.9164       5.838130       0.01144
  15     218.7        1.0790        0.0091        6.8789        6.8880       5.808969       0.01107
  14     243.0        1.0798        0.0101        6.8476        6.8576       5.777848       0.01079
  13     269.0        1.0807        0.0111        6.8143        6.8255       5.744759       0.01073
  12     297.5        1.0817        0.0123        6.7791        6.7914       5.709698       0.01040
  11     328.5        1.0828        0.0135        6.7419        6.7553       5.672513       0.01011
  10     361.9        1.0841        0.0148        6.7025        6.7173       5.633217       0.00994
   9     398.1        1.0854        0.0162        6.6610        6.6771       5.591684       0.00968
   8     437.6        1.0870        0.0177        6.6171        6.6348       5.547795       0.00938
   7     480.5        1.0887        0.0193        6.5709        6.5902       5.501482       0.00910
   6     533.0        1.0910        0.0212        6.5150        6.5363       5.445282       0.00904
   5     589.8        1.0935        0.0233        6.4556        6.4790       5.385435       0.00888
   4     651.6        1.0965        0.0256        6.3925        6.4181       5.321621       0.00873
   3     718.7        1.0998        0.0280        6.3253        6.3533       5.253427       0.00857
   2     792.3        1.1037        0.0305        6.2536        6.2841       5.180404       0.00837
   1     891.5        1.1094        0.0339        6.1568        6.1907       5.081339       0.00843
   0    1013.0        1.1170        0.0380        6.0397        6.0776       4.960592       0.00838



 Wavenumbers:  8050. - 12850. cm-1, ATM      1
 LEVEL PRESSURE   UPWARD FLUX   DIFDOWN FLUX  DIRDOWN FLUX  DOWNWARD FLUX   NET FLUX    HEATING RATE
          mb          W/m2          W/m2          W/m2        W/m2          W/m2       degree/day
  51    .06700       27.6026        0.0000      100.8135      100.8135      73.210877       0.00000
  50    .07753       27.6026        0.0000      100.8135      100.8135      73.210877       0.00000
  49    .09103       27.6026        0.0001      100.8134      100.8135      73.210877      -0.00000
  48    0.1069       27.6026        0.0001      100.8134      100.8134      73.210877       0.00000
  47    0.1255       27.6025        0.0001      100.8133      100.8134      73.210877      -0.00000
  46    0.1487       27.6025        0.0002      100.8132      100.8134      73.210877       0.00000
  45    0.1794       27.6024        0.0003      100.8131      100.8133      73.210877       0.00000
  44    0.2165       27.6024        0.0003      100.8129      100.8133      73.210877      -0.00000
  43    0.2613       27.6023        0.0004      100.8127      100.8132      73.210877       0.00000
  42    0.3336       27.6022        0.0006      100.8125      100.8131      73.210877      -0.00000
  41    0.4307       27.6020        0.0008      100.8121      100.8129      73.210877      -0.00000
  40    0.5894       27.6017        0.0012      100.8115      100.8126      73.210877      -0.00000
  39     1.339       27.6004        0.0028      100.8085      100.8113      73.210877       0.00000
  38     1.782       27.5997        0.0038      100.8068      100.8106      73.210877       0.00000
  37     2.292       27.5988        0.0049      100.8047      100.8097      73.210877       0.00000
  36     2.964       27.5974        0.0067      100.8015      100.8083      73.210877      -0.00000
  35     3.853       27.5958        0.0088      100.7978      100.8066      73.210877       0.00000
  34     5.035       27.5937        0.0115      100.7931      100.8046      73.210877       0.00000
  33     6.613       27.5909        0.0150      100.7868      100.8018      73.210877       0.00000
  32     8.786       27.5873        0.0197      100.7784      100.7981      73.210877      -0.00000
  31     11.80       27.5820        0.0265      100.7664      100.7929      73.210877       0.00000
  30     15.07       27.5763        0.0337      100.7535      100.7872      73.210877       0.00000
  29     18.79       27.5700        0.0419      100.7390      100.7808      73.210877       0.00000
  28     23.16       27.5625        0.0514      100.7219      100.7734      73.210877       0.00000
  27     28.12       27.5540        0.0624      100.7024      100.7648      73.210877      -0.00000
  26     33.73       27.5444        0.0747      100.6806      100.7553      73.210877       0.00000
  25     40.54       27.5328        0.0895      100.6542      100.7437      73.210877       0.00000
  24     48.69       27.5188        0.1074      100.6223      100.7297      73.210877      -0.00000
  23     57.69       27.5034        0.1271      100.5872      100.7143      73.210877       0.00000
  22     68.43       27.4851        0.1506      100.5454      100.6960      73.210877      -0.00000
  21     81.20       27.4632        0.1786      100.4955      100.6741      73.210877       0.00000
  20     96.49       27.4370        0.2120      100.4359      100.6479      73.210877       0.00000
  19     114.6       27.4068        0.2517      100.3116      100.5633      73.156553       0.02537
  18     136.5       27.3707        0.2989      100.1770      100.4759      73.105238       0.01973
  17     162.9       27.3274        0.3551      100.0289      100.3840      73.056613       0.01554
  16     196.4       27.2708        0.4282       99.8490      100.2772      73.006439       0.01263
  15     218.7       27.2334        0.4762       99.7361      100.2124      72.978949       0.01044
  14     243.0       27.1927        0.5286       99.6167      100.1453      72.952590       0.00914
  13     269.0       27.1485        0.5854       99.4884      100.0738      72.925281       0.00886
  12     297.5       27.1007        0.6469       99.3443       99.9912      72.890456       0.01033
  11     328.5       27.0493        0.7135       99.1724       99.8859      72.836612       0.01464
  10     361.9       26.9944        0.7852       98.9601       99.7454      72.750969       0.02167
   9     398.1       26.9362        0.8624       98.6943       99.5567      72.620530       0.03039
   8     437.6       26.8752        0.9454       98.3607       99.3060      72.430770       0.04057
   7     480.5       26.8126        1.0341       97.9397       98.9738      72.161184       0.05295
   6     533.0       26.7412        1.1428       97.3188       98.4616      71.720355       0.07092
   5     589.8       26.6727        1.2594       96.5361       97.7955      71.122741       0.08871
   4     651.6       26.6111        1.3838       95.5723       96.9560      70.344955       0.10636
   3     718.7       26.5625        1.5157       94.4083       95.9240      69.361541       0.12359
   2     792.3       26.5368        1.6547       93.0216       94.6763      68.139517       0.14015
   1     891.5       26.5550        1.8383       90.9895       92.8277      66.272682       0.15886
   0    1013.0       26.6904        2.0518       88.3626       90.4144      63.724035       0.17697



 Wavenumbers: 12850. - 16000. cm-1, ATM      1
 LEVEL PRESSURE   UPWARD FLUX   DIFDOWN FLUX  DIRDOWN FLUX  DOWNWARD FLUX   NET FLUX    HEATING RATE
          mb          W/m2          W/m2          W/m2        W/m2          W/m2       degree/day
  51    .06700       34.1636        0.0000       63.1686       63.1686      29.004982       0.00000
  50    .07753       34.1636        0.0001       63.1677       63.1678      29.004202       0.62512
  49    .09103       34.1635        0.0001       63.1666       63.1668      29.003230       0.60750
  48    0.1069       34.1635        0.0002       63.1654       63.1656      29.002124       0.58910
  47    0.1255       34.1635        0.0003       63.1640       63.1643      29.000865       0.57065
  46    0.1487       34.1634        0.0004       63.1623       63.1627      28.999295       0.57220
  45    0.1794       34.1634        0.0006       63.1600       63.1606      28.997190       0.57791
  44    0.2165       34.1633        0.0008       63.1573       63.1581      28.994755       0.55395
  43    0.2613       34.1633        0.0010       63.1542       63.1552      28.991946       0.52946
  42    0.3336       34.1632        0.0014       63.1493       63.1507      28.987469       0.52200
  41    0.4307       34.1632        0.0019       63.1431       63.1450      28.981856       0.48803
  40    0.5894       34.1632        0.0027       63.1338       63.1365      28.973351       0.45228
  39     1.339       34.1645        0.0066       63.0955       63.1021      28.937557       0.40298
  38     1.782       34.1664        0.0088       63.0739       63.0828      28.916424       0.40233
  37     2.292       34.1694        0.0115       63.0475       63.0589      28.889562       0.44491
  36     2.964       34.1743        0.0157       63.0079       63.0236      28.849321       0.50514
  35     3.853       34.1832        0.0205       62.9510       62.9715      28.788292       0.57918
  34     5.035       34.1973        0.0267       62.8699       62.8966      28.699302       0.63570
  33     6.613       34.2171        0.0348       62.7592       62.7940      28.576931       0.65420
  32     8.786       34.2427        0.0457       62.6152       62.6609      28.418160       0.61661
  31     11.80       34.2756        0.0612       62.4252       62.4863      28.210761       0.58065
  30     15.07       34.3063        0.0778       62.2393       62.3171      28.010763       0.51636
  29     18.79       34.3369        0.0964       62.0459       62.1423      27.805405       0.46561
  28     23.16       34.3680        0.1182       61.8390       61.9572      27.589218       0.41804
  27     28.12       34.3980        0.1430       61.6243       61.7673      27.369378       0.37371
  26     33.73       34.4237        0.1707       61.4142       61.5850      27.161292       0.31286
  25     40.54       34.4456        0.2042       61.1949       61.3991      26.953498       0.25779
  24     48.69       34.4632        0.2444       60.9647       61.2091      26.745899       0.21483
  23     57.69       34.4740        0.2886       60.7446       61.0332      26.559144       0.17506
  22     68.43       34.4777        0.3411       60.5171       60.8582      26.380520       0.14042
  21     81.20       34.4694        0.4037       60.2908       60.6945      26.225132       0.10268
  20     96.49       34.4478        0.4782       60.0614       60.5395      26.091766       0.07361
  19     114.6       34.4200        0.5670       59.8042       60.3712      25.951132       0.06567
  18     136.5       34.3825        0.6721       59.5115       60.1836      25.801131       0.05768
  17     162.9       34.3335        0.7968       59.1725       59.9693      25.635862       0.05283
  16     196.4       34.2609        0.9582       58.7560       59.7142      25.453389       0.04593
  15     218.7       34.2099        1.0639       58.4913       59.5552      25.345293       0.04104
  14     243.0       34.1532        1.1785       58.2079       59.3865      25.233280       0.03885
  13     269.0       34.0902        1.3025       57.9064       59.2088      25.118609       0.03720
  12     297.5       34.0209        1.4361       57.5860       59.0221      25.001229       0.03481
  11     328.5       33.9455        1.5801       57.2438       58.8239      24.878361       0.03341
  10     361.9       33.8642        1.7347       56.8789       58.6136      24.749443       0.03262
   9     398.1       33.7765        1.9007       56.4897       58.3904      24.613910       0.03158
   8     437.6       33.6827        2.0784       56.0738       58.1521      24.469495       0.03088
   7     480.5       33.5827        2.2682       55.6293       57.8975      24.314851       0.03037
   6     533.0       33.4611        2.5010       55.0816       57.5826      24.121447       0.03111
   5     589.8       33.3326        2.7509       54.4891       57.2400      23.907447       0.03176
   4     651.6       33.1980        3.0182       53.8503       56.8686      23.670558       0.03240
   3     718.7       33.0587        3.3035       53.1635       56.4670      23.408297       0.03296
   2     792.3       32.9171        3.6067       52.4285       56.0352      23.118100       0.03328
   1     891.5       32.7407        4.0120       51.4427       55.4547      22.713971       0.03439
   0    1013.0       32.5577        4.4926       50.2724       54.7650      22.207304       0.03518



 Wavenumbers: 16000. - 22650. cm-1, ATM      1
 LEVEL PRESSURE   UPWARD FLUX   DIFDOWN FLUX  DIRDOWN FLUX  DOWNWARD FLUX   NET FLUX    HEATING RATE
          mb          W/m2          W/m2          W/m2        W/m2          W/m2       degree/day
  51    .06700       75.9373        0.0000      100.7153      100.7153      24.777980       0.00000
  50    .07753       75.9372        0.0003      100.7147      100.7151      24.777863       0.09431
  49    .09103       75.9370        0.0007      100.7140      100.7147      24.777692       0.10696
  48    0.1069       75.9369        0.0012      100.7131      100.7143      24.777463       0.12197
  47    0.1255       75.9367        0.0017      100.7121      100.7139      24.777156       0.13903
  46    0.1487       75.9365        0.0024      100.7108      100.7132      24.776704       0.16475
  45    0.1794       75.9362        0.0034      100.7089      100.7122      24.775997       0.19398
  44    0.2165       75.9360        0.0045      100.7066      100.7110      24.775039       0.21801
  43    0.2613       75.9357        0.0058      100.7037      100.7095      24.773739       0.24509
  42    0.3336       75.9354        0.0079      100.6987      100.7066      24.771267       0.28822
  41    0.4307       75.9351        0.0108      100.6918      100.7026      24.767540       0.32398
  40    0.5894       75.9348        0.0155      100.6797      100.6953      24.760434       0.37789
  39     1.339       75.9393        0.0377      100.6095      100.6472      24.707944       0.59095
  38     1.782       75.9460        0.0507      100.5585      100.6092      24.663242       0.85105
  37     2.292       75.9575        0.0658      100.4903      100.5561      24.598555       1.07137
  36     2.964       75.9764        0.0900      100.3802      100.4702      24.493813       1.31483
  35     3.853       76.0116        0.1178      100.2216      100.3394      24.327736       1.57611
  34     5.035       76.0672        0.1532       99.9943      100.1475      24.080230       1.76808
  33     6.613       76.1460        0.1997       99.6831       99.8828      23.736796       1.83600
  32     8.786       76.2482        0.2620       99.2770       99.5390      23.290824       1.73200
  31     11.80       76.3785        0.3506       98.7384       99.0890      22.710505       1.62471
  30     15.07       76.4999        0.4453       98.2085       98.6538      22.153934       1.43696
  29     18.79       76.6205        0.5519       97.6538       98.2057      21.585227       1.28943
  28     23.16       76.7422        0.6759       97.0559       97.7317      20.989566       1.15182
  27     28.12       76.8590        0.8172       96.4293       97.2465      20.387488       1.02349
  26     33.73       76.9575        0.9747       95.8067       96.7814      19.823855       0.84744
  25     40.54       77.0394        1.1644       95.1437       96.3080      19.268660       0.68878
  24     48.69       77.1021        1.3922       94.4308       95.8230      18.720936       0.56681
  23     57.69       77.1362        1.6413       93.7305       95.3719      18.235655       0.45488
  22     68.43       77.1396        1.9369       92.9844       94.9212      17.781677       0.35689
  21     81.20       77.0924        2.2876       92.2122       94.4998      17.407427       0.24730
  20     96.49       76.9890        2.7036       91.4002       94.1038      17.114728       0.16155
  19     114.6       76.8428        3.1941       90.4962       93.6903      16.847517       0.12477
  18     136.5       76.6544        3.7706       89.4694       93.2401      16.585647       0.10070
  17     162.9       76.4172        4.4503       88.2914       92.7417      16.324467       0.08348
  16     196.4       76.0807        5.3214       86.8501       92.1714      16.090773       0.05882
  15     218.7       75.8498        5.8872       85.9389       91.8261      15.976281       0.04347
  14     243.0       75.5952        6.4967       84.9692       91.4658      15.870605       0.03665
  13     269.0       75.3156        7.1506       83.9408       91.0914      15.775778       0.03076
  12     297.5       75.0102        7.8498       82.8529       90.7027      15.692428       0.02472
  11     328.5       74.6803        8.5967       81.6964       90.2931      15.612800       0.02165
  10     361.9       74.3256        9.3909       80.4720       89.8629      15.537334       0.01909
   9     398.1       73.9450       10.2344       79.1766       89.4110      15.465973       0.01663
   8     437.6       73.5386       11.1274       77.8086       88.9360      15.397377       0.01467
   7     480.5       73.1057       12.0700       76.3679       88.4379      15.332208       0.01280
   6     533.0       72.5775       13.2102       74.6281       87.8383      15.260792       0.01149
   5     589.8       72.0148       14.4148       72.7910       87.2057      15.190906       0.01037
   4     651.6       71.4182       15.6820       70.8577       86.5397      15.121552       0.00948
   3     718.7       70.7879       17.0102       68.8298       85.8400      15.052112       0.00873
   2     792.3       70.1253       18.3950       66.7122       85.1072      14.981964       0.00805
   1     891.5       69.2521       20.2032       63.9398       84.1430      14.890879       0.00775
   0    1013.0       68.2360       22.2846       60.7343       83.0189      14.782877       0.00750



 Wavenumbers: 22650. - 29000. cm-1, ATM      1
 LEVEL PRESSURE   UPWARD FLUX   DIFDOWN FLUX  DIRDOWN FLUX  DOWNWARD FLUX   NET FLUX    HEATING RATE
          mb          W/m2          W/m2          W/m2        W/m2          W/m2       degree/day
  51    .06700       34.3496        0.0000       38.0063       38.0063       3.656663       0.00000
  50    .07753       34.3495        0.0004       38.0057       38.0061       3.656663       0.00000
  49    .09103       34.3493        0.0009       38.0050       38.0059       3.656663       0.00000
  48    0.1069       34.3490        0.0014       38.0042       38.0057       3.656663       0.00000
  47    0.1255       34.3487        0.0021       38.0033       38.0054       3.656663      -0.00000
  46    0.1487       34.3484        0.0029       38.0022       38.0050       3.656663       0.00000
  45    0.1794       34.3479        0.0040       38.0006       38.0046       3.656663      -0.00000
  44    0.2165       34.3473        0.0053       37.9987       38.0040       3.656663       0.00000
  43    0.2613       34.3467        0.0068       37.9965       38.0033       3.656663      -0.00000
  42    0.3336       34.3456        0.0094       37.9928       38.0022       3.656663      -0.00000
  41    0.4307       34.3441        0.0128       37.9880       38.0008       3.656663       0.00000
  40    0.5894       34.3417        0.0183       37.9800       37.9984       3.656663      -0.00000
  39     1.339       34.3304        0.0446       37.9425       37.9870       3.656663       0.00000
  38     1.782       34.3237        0.0600       37.9204       37.9804       3.656663       0.00000
  37     2.292       34.3160        0.0778       37.8949       37.9727       3.656663       0.00000
  36     2.964       34.3037        0.1064       37.8540       37.9603       3.656663       0.00000
  35     3.853       34.2895        0.1391       37.8070       37.9462       3.656663      -0.00000
  34     5.035       34.2714        0.1810       37.7470       37.9281       3.656663       0.00000
  33     6.613       34.2476        0.2361       37.6681       37.9043       3.656663       0.00000
  32     8.786       34.2157        0.3099       37.5625       37.8724       3.656663       0.00000
  31     11.80       34.1703        0.4148       37.4121       37.8270       3.656663       0.00000
  30     15.07       34.1217        0.5270       37.2514       37.7784       3.656663       0.00000
  29     18.79       34.0671        0.6533       37.0705       37.7238       3.656663      -0.00000
  28     23.16       34.0035        0.8000       36.8602       37.6602       3.656663      -0.00000
  27     28.12       33.9312        0.9668       36.6210       37.5879       3.656663       0.00000
  26     33.73       33.8507        1.1524       36.3550       37.5074       3.656663      -0.00000
  25     40.54       33.7541        1.3748       36.0360       37.4108       3.656663       0.00000
  24     48.69       33.6386        1.6405       35.6548       37.2953       3.656663      -0.00000
  23     57.69       33.5129        1.9292       35.2404       37.1696       3.656663       0.00000
  22     68.43       33.3649        2.2688       34.7528       37.0216       3.656663       0.00000
  21     81.20       33.1909        2.6673       34.1803       36.8475       3.656663      -0.00000
  20     96.49       32.9868        3.1335       33.5100       36.6435       3.656663       0.00000
  19     114.6       32.7492        3.6750       32.7309       36.4059       3.656663       0.00000
  18     136.5       32.4739        4.3001       31.8305       36.1306       3.656663      -0.00000
  17     162.9       32.1550        5.0216       30.7901       35.8117       3.656663       0.00000
  16     196.4       31.7552        5.9215       29.4904       35.4119       3.656663      -0.00000
  15     218.7       31.5009        6.4908       28.6668       35.1576       3.656663      -0.00000
  14     243.0       31.2317        7.0912       27.7972       34.8884       3.656663      -0.00000
  13     269.0       30.9481        7.7205       26.8843       34.6048       3.656663       0.00000
  12     297.5       30.6509        8.3766       25.9309       34.3075       3.656663       0.00000
  11     328.5       30.3399        9.0590       24.9375       33.9965       3.656663      -0.00000
  10     361.9       30.0165        9.7637       23.9095       33.6732       3.656663       0.00000
   9     398.1       29.6814       10.4886       22.8495       33.3380       3.656663       0.00000
   8     437.6       29.3355       11.2302       21.7619       32.9922       3.656663      -0.00000
   7     480.5       28.9803       11.9844       20.6526       32.6370       3.656663       0.00000
   6     533.0       28.5635       12.8593       19.3609       32.2202       3.656663       0.00000
   5     589.8       28.1382       13.7390       18.0559       31.7949       3.656663       0.00000
   4     651.6       27.7068       14.6166       16.7469       31.3635       3.656663       0.00000
   3     718.7       27.2718       15.4846       15.4439       30.9284       3.656663       0.00000
   2     792.3       26.8355       16.3357       14.1564       30.4922       3.656663      -0.00000
   1     891.5       26.2921       17.3641       12.5846       29.9487       3.656663       0.00000
   0    1013.0       25.6998       18.4381       10.9184       29.3565       3.656663      -0.00000



 Wavenumbers: 29000. - 38000. cm-1, ATM      1
 LEVEL PRESSURE   UPWARD FLUX   DIFDOWN FLUX  DIRDOWN FLUX  DOWNWARD FLUX   NET FLUX    HEATING RATE
          mb          W/m2          W/m2          W/m2        W/m2          W/m2       degree/day
  51    .06700        4.8751        0.0000       13.4026       13.4026       8.527467       0.00000
  50    .07753        4.8749        0.0003       13.3983       13.3986       8.523676       3.03809
  49    .09103        4.8746        0.0007       13.3921       13.3928       8.518169       3.44248
  48    0.1069        4.8743        0.0011       13.3841       13.3851       8.510805       3.91959
  47    0.1255        4.8740        0.0016       13.3734       13.3750       8.500976       4.45585
  46    0.1487        4.8736        0.0022       13.3579       13.3601       8.486560       5.25479
  45    0.1794        4.8730        0.0030       13.3342       13.3372       8.464194       6.14006
  44    0.2165        4.8723        0.0040       13.3025       13.3065       8.434196       6.82419
  43    0.2613        4.8715        0.0052       13.2605       13.2657       8.394150       7.54851
  42    0.3336        4.8703        0.0070       13.1834       13.1905       8.320155       8.62708
  41    0.4307        4.8688        0.0095       13.0730       13.0825       8.213693       9.25660
  40    0.5894        4.8664        0.0134       12.8795       12.8929       8.026534       9.95289
  39     1.339        4.8580        0.0296       11.9153       11.9450       7.087027      10.57714
  38     1.782        4.8547        0.0379       11.4377       11.4757       6.620977       8.87285
  37     2.292        4.8523        0.0468       10.9754       11.0222       6.169901       7.47100
  36     2.964        4.8490        0.0606       10.4669       10.5275       5.678515       6.16838
  35     3.853        4.8491        0.0749        9.9278       10.0027       5.153609       4.98145
  34     5.035        4.8524        0.0920        9.3841        9.4761       4.623706       3.78541
  33     6.613        4.8586        0.1132        8.8585        8.9717       4.113101       2.72969
  32     8.786        4.8672        0.1406        8.3623        8.5029       3.635747       1.85387
  31     11.80        4.8777        0.1782        7.8739        8.0521       3.174418       1.29158
  30     15.07        4.8868        0.2169        7.4954        7.7123       2.825538       0.90074
  29     18.79        4.8952        0.2591        7.1623        7.4215       2.526279       0.67851
  28     23.16        4.9029        0.3067        6.8509        7.1576       2.254700       0.52515
  27     28.12        4.9091        0.3593        6.5627        6.9220       2.012819       0.41118
  26     33.73        4.9114        0.4166        6.3044        6.7210       1.809597       0.30555
  25     40.54        4.9085        0.4842        6.0515        6.5358       1.627225       0.22625
  24     48.69        4.9001        0.5635        5.7982        6.3617       1.461590       0.17141
  23     57.69        4.8860        0.6481        5.5629        6.2109       1.324905       0.12812
  22     68.43        4.8641        0.7459        5.3229        6.0688       1.204697       0.09450
  21     81.20        4.8300        0.8595        5.0814        5.9409       1.110868       0.06200
  20     96.49        4.7824        0.9906        4.8326        5.8232       1.040815       0.03866
  19     114.6        4.7246        1.1392        4.5651        5.7043       0.979746       0.02851
  18     136.5        4.6574        1.3052        4.2747        5.5799       0.922488       0.02202
  17     162.9        4.5805        1.4898        3.9585        5.4484       0.867872       0.01746
  16     196.4        4.4830        1.7108        3.5935        5.3043       0.821316       0.01172
  15     218.7        4.4216        1.8448        3.3762        5.2210       0.799410       0.00832
  14     243.0        4.3576        1.9814        3.1560        5.1374       0.779751       0.00682
  13     269.0        4.2915        2.1195        2.9345        5.0540       0.762565       0.00557
  12     297.5        4.2235        2.2580        2.7133        4.9713       0.747809       0.00438
  11     328.5        4.1545        2.3953        2.4932        4.8885       0.733959       0.00377
  10     361.9        4.0851        2.5301        2.2761        4.8062       0.721056       0.00326
   9     398.1        4.0157        2.6614        2.0633        4.7247       0.709050       0.00280
   8     437.6        3.9466        2.7878        1.8565        4.6443       0.697706       0.00243
   7     480.5        3.8783        2.9081        1.6574        4.5654       0.687130       0.00208
   6     533.0        3.8016        3.0369        1.4405        4.4774       0.675819       0.00182
   5     589.8        3.7270        3.1548        1.2373        4.3921       0.665087       0.00159
   4     651.6        3.6550        3.2603        1.0496        4.3099       0.654821       0.00140
   3     718.7        3.5860        3.3524        0.8786        4.2310       0.644978       0.00124
   2     792.3        3.5201        3.4303        0.7253        4.1557       0.635545       0.00108
   1     891.5        3.4422        3.5075        0.5588        4.0663       0.624119       0.00097
   0    1013.0        3.3618        3.5665        0.4070        3.9735       0.611736       0.00086



 Wavenumbers: 38000. - 50000. cm-1, ATM      1
 LEVEL PRESSURE   UPWARD FLUX   DIFDOWN FLUX  DIRDOWN FLUX  DOWNWARD FLUX   NET FLUX    HEATING RATE
          mb          W/m2          W/m2          W/m2        W/m2          W/m2       degree/day
  51    .06700        0.0052        0.0000        0.8267        0.8267       0.821476       0.00000
  50    .07753        0.0051        0.0001        0.8242        0.8243       0.819144       1.86942
  49    .09103        0.0051        0.0002        0.8207        0.8209       0.815821       2.07718
  48    0.1069        0.0050        0.0002        0.8162        0.8164       0.811462       2.32005
  47    0.1255        0.0049        0.0004        0.8103        0.8106       0.805748       2.59032
  46    0.1487        0.0048        0.0005        0.8018        0.8023       0.797513       3.00180
  45    0.1794        0.0046        0.0007        0.7889        0.7896       0.784957       3.44687
  44    0.2165        0.0044        0.0009        0.7720        0.7729       0.768451       3.75497
  43    0.2613        0.0042        0.0011        0.7500        0.7511       0.746898       4.06256
  42    0.3336        0.0039        0.0015        0.7106        0.7121       0.708210       4.51072
  41    0.4307        0.0035        0.0019        0.6566        0.6584       0.654915       4.63387
  40    0.5894        0.0030        0.0024        0.5680        0.5704       0.567406       4.65358
  39     1.339        0.0015        0.0030        0.2422        0.2452       0.243657       3.64483
  38     1.782        0.0011        0.0026        0.1493        0.1519       0.150833       1.76724
  37     2.292        0.0008        0.0022        0.0924        0.0946       0.093852       0.94374
  36     2.964        0.0005        0.0018        0.0538        0.0556       0.055158       0.48573
  35     3.853        0.0003        0.0014        0.0294        0.0308       0.030468       0.23431
  34     5.035        0.0002        0.0010        0.0153        0.0163       0.016167       0.10216
  33     6.613        0.0001        0.0007        0.0073        0.0080       0.007910       0.04414
  32     8.786        0.0000        0.0005        0.0030        0.0034       0.003392       0.01755
  31     11.80        0.0000        0.0003        0.0010        0.0012       0.001202       0.00613
  30     15.07        0.0000        0.0001        0.0003        0.0005       0.000466       0.00190
  29     18.79        0.0000        0.0001        0.0001        0.0002       0.000184       0.00064
  28     23.16        0.0000        0.0000        0.0000        0.0001       0.000071       0.00022
  27     28.12        0.0000        0.0000        0.0000        0.0000       0.000028       0.00007
  26     33.73        0.0000        0.0000        0.0000        0.0000       0.000012       0.00002
  25     40.54        0.0000        0.0000        0.0000        0.0000       0.000005       0.00001
  24     48.69        0.0000        0.0000        0.0000        0.0000       0.000002       0.00000
  23     57.69        0.0000        0.0000        0.0000        0.0000       0.000001       0.00000
  22     68.43        0.0000        0.0000        0.0000        0.0000       0.000000       0.00000
  21     81.20        0.0000        0.0000        0.0000        0.0000       0.000000       0.00000
  20     96.49        0.0000        0.0000        0.0000        0.0000       0.000000       0.00000
  19     114.6        0.0000        0.0000        0.0000        0.0000       0.000000       0.00000
  18     136.5        0.0000        0.0000        0.0000        0.0000       0.000000       0.00000
  17     162.9        0.0000        0.0000        0.0000        0.0000       0.000000       0.00000
  16     196.4        0.0000        0.0000        0.0000        0.0000       0.000000       0.00000
  15     218.7        0.0000        0.0000        0.0000        0.0000       0.000000       0.00000
  14     243.0        0.0000        0.0000        0.0000        0.0000       0.000000       0.00000
  13     269.0        0.0000        0.0000        0.0000        0.0000       0.000000       0.00000
  12     297.5        0.0000        0.0000        0.0000        0.0000       0.000000       0.00000
  11     328.5        0.0000        0.0000        0.0000        0.0000       0.000000       0.00000
  10     361.9        0.0000        0.0000        0.0000        0.0000       0.000000       0.00000
   9     398.1        0.0000        0.0000        0.0000        0.0000       0.000000       0.00000
   8     437.6        0.0000        0.0000        0.0000        0.0000       0.000000       0.00000
   7     480.5        0.0000        0.0000        0.0000        0.0000       0.000000       0.00000
   6     533.0        0.0000        0.0000        0.0000        0.0000       0.000000       0.00000
   5     589.8        0.0000        0.0000        0.0000        0.0000       0.000000       0.00000
   4     651.6        0.0000        0.0000        0.0000        0.0000       0.000000       0.00000
   3     718.7        0.0000        0.0000        0.0000        0.0000       0.000000       0.00000
   2     792.3        0.0000        0.0000        0.0000        0.0000       0.000000       0.00000
   1     891.5        0.0000        0.0000        0.0000        0.0000       0.000000       0.00000
   0    1013.0        0.0000        0.0000        0.0000        0.0000       0.000000       0.00000



 Wavenumbers:   820. -  2600. cm-1, ATM      1
 LEVEL PRESSURE   UPWARD FLUX   DIFDOWN FLUX  DIRDOWN FLUX  DOWNWARD FLUX   NET FLUX    HEATING RATE
          mb          W/m2          W/m2          W/m2        W/m2          W/m2       degree/day
  51    .06700        0.1799        0.0000        3.8670        3.8670       3.687120       0.00000
  50    .07753        0.1799        0.0000        3.8644        3.8644       3.684522       2.08287
  49    .09103        0.1799        0.0000        3.8638        3.8638       3.683852       0.41878
  48    0.1069        0.1799        0.0000        3.8630        3.8630       3.683103       0.39874
  47    0.1255        0.1799        0.0000        3.8622        3.8622       3.682289       0.36879
  46    0.1487        0.1799        0.0000        3.8613        3.8613       3.681362       0.33798
  45    0.1794        0.1799        0.0000        3.8602        3.8602       3.680253       0.30446
  44    0.2165        0.1799        0.0000        3.8590        3.8590       3.679118       0.25804
  43    0.2613        0.1799        0.0000        3.8579        3.8579       3.677959       0.21851
  42    0.3336        0.1799        0.0000        3.8562        3.8562       3.676274       0.19646
  41    0.4307        0.1799        0.0000        3.8540        3.8540       3.674109       0.18827
  40    0.5894        0.1799        0.0000        3.8505        3.8505       3.670621       0.18550
  39     1.339        0.1799        0.0000        3.8352        3.8352       3.655271       0.17281
  38     1.782        0.1799        0.0000        3.8267        3.8267       3.646792       0.16143
  37     2.292        0.1799        0.0000        3.8172        3.8172       3.637273       0.15766
  36     2.964        0.1893        0.0000        1.2295        1.2295       1.040184      32.60132
  35     3.853        0.1935        0.0000        1.1352        1.1352       0.941629       0.93531
  34     5.035        0.1957        0.0000        1.1019        1.1019       0.906185       0.25319
  33     6.613        0.1970        0.0000        1.0867        1.0867       0.889732       0.08796
  32     8.786        0.1976        0.0000        1.0788        1.0788       0.881184       0.03320
  31     11.80        0.1981        0.0000        1.0741        1.0741       0.875989       0.01454
  30     15.07        0.1983        0.0000        1.0715        1.0715       0.873211       0.00717
  29     18.79        0.1985        0.0000        1.0699        1.0699       0.871441       0.00401
  28     23.16        0.1986        0.0000        1.0687        1.0687       0.870115       0.00256
  27     28.12        0.1987        0.0000        1.0678        1.0678       0.869132       0.00167
  26     33.73        0.1987        0.0000        1.0671        1.0671       0.868394       0.00111
  25     40.54        0.1988        0.0000        1.0665        1.0665       0.867767       0.00078
  24     48.69        0.1988        0.0000        1.0660        1.0660       0.867164       0.00062
  23     57.69        0.1989        0.0000        1.0655        1.0655       0.866605       0.00052
  22     68.43        0.1989        0.0000        1.0650        1.0650       0.866038       0.00045
  21     81.20        0.1990        0.0000        1.0644        1.0644       0.865462       0.00038
  20     96.49        0.1990        0.0000        1.0639        1.0639       0.864875       0.00032
  19     114.6        0.1991        0.0000        1.0634        1.0634       0.864286       0.00027
  18     136.5        0.1991        0.0000        1.0628        1.0628       0.863667       0.00024
  17     162.9        0.1992        0.0000        1.0623        1.0623       0.863082       0.00019
  16     196.4        0.1992        0.0000        1.0618        1.0618       0.862577       0.00013
  15     218.7        0.1993        0.0000        1.0616        1.0617       0.862393       0.00007
  14     243.0        0.1993        0.0000        1.0615        1.0615       0.862246       0.00005
  13     269.0        0.1993        0.0000        1.0614        1.0614       0.862117       0.00004
  12     297.5        0.1993        0.0000        1.0613        1.0613       0.861975       0.00004
  11     328.5        0.1993        0.0000        1.0611        1.0611       0.861801       0.00005
  10     361.9        0.1993        0.0000        1.0609        1.0609       0.861570       0.00006
   9     398.1        0.1994        0.0000        1.0606        1.0606       0.861264       0.00007
   8     437.6        0.1994        0.0000        1.0602        1.0603       0.860859       0.00009
   7     480.5        0.1994        0.0000        1.0598        1.0598       0.860333       0.00010
   6     533.0        0.1995        0.0000        1.0590        1.0591       0.859549       0.00013
   5     589.8        0.1996        0.0000        1.0582        1.0582       0.858563       0.00015
   4     651.6        0.1997        0.0000        1.0568        1.0569       0.857118       0.00020
   3     718.7        0.2000        0.0000        1.0549        1.0550       0.855010       0.00026
   2     792.3        0.2003        0.0000        1.0521        1.0521       0.851865       0.00036
   1     891.5        0.2008        0.0000        1.0467        1.0468       0.845928       0.00051
   0    1013.0        0.2018        0.0000        1.0378        1.0378       0.835955       0.00069

  Modules and versions used in this calculation:

       rrtmg_sw.1col.f90:  $Revision$                    rrtmg_sw_init.f90:  $Revision$        
     rrtmgsw_cldprop.f90:  $Revision$                  rrtmgsw_cldprmc.f90:  NOT USED          
     rrtmg_sw_reftra.f90:  $Revision$                  rrtmg_sw_spcvrt.f90:  NOT USED          
     rrtmg_sw_spcvmc.f90:  NOT USED                    rrtmgsw_setcoef.f90:  NOT USED          
     rrtmg_sw_taumol.f90:  $Revision$                  rrtmg_sw_vrtqdr.f90:  NOT USED          
                rrtatm.f:  NOT USED                             util_xxx.f:  NOT USED          
                 extra.f:  NOT USED                       rrtmg_sw_k_g.f90:  $Revision$        

