

 Wavenumbers:   820. - 50000. cm-1, ATM      1
 LEVEL PRESSURE   UPWARD FLUX   DIFDOWN FLUX  DIRDOWN FLUX  DOWNWARD FLUX   NET FLUX    HEATING RATE
          mb          W/m2          W/m2          W/m2        W/m2          W/m2       degree/day
  51    .06700      175.3864        0.0000      397.8738      397.8738     222.487426       0.00000
  50    .07753      175.3857        0.0012      397.8579      397.8591     222.473366      11.26915
  49    .09103      175.3850        0.0026      397.8425      397.8451     222.460085       8.30080
  48    0.1069      175.3841        0.0043      397.8240      397.8283     222.444169       8.47217
  47    0.1255      175.3831        0.0062      397.8011      397.8073     222.424177       9.06333
  46    0.1487      175.3819        0.0086      397.7696      397.7782     222.396280      10.16892
  45    0.1794      175.3804        0.0119      397.7232      397.7351     222.354704      11.41366
  44    0.2165      175.3786        0.0158      397.6637      397.6794     222.300843      12.25247
  43    0.2613      175.3765        0.0203      397.5872      397.6075     222.231006      13.16385
  42    0.3336      175.3733        0.0278      397.4508      397.4786     222.105294      14.65683
  41    0.4307      175.3694        0.0377      397.2602      397.2979     221.928568      15.36590
  40    0.5894      175.3635        0.0536      396.9364      396.9899     221.626478      16.06479
  39     1.339      175.3464        0.1244      395.4499      395.5743     220.227960      15.74477
  38     1.782      175.3435        0.1641      394.7601      394.9242     219.580714      12.32253
  37     2.292      175.3465        0.2092      394.0950      394.3042     218.957639      10.31973
  36     2.964      175.3047        0.3903      380.7170      381.1073     205.802618     165.13528
  35     3.853      175.3147        0.5107      378.5208      379.0315     203.716840      19.79441
  34     5.035      175.3568        0.6308      376.9292      377.5601     202.203276      10.81227
  33     6.613      175.4270        0.7730      375.5033      376.2763     200.849266       7.23854
  32     8.786      175.5202        0.9550      374.0855      375.0405     199.520316       5.16116
  31     11.80      175.6345        1.2092      372.5053      373.7145     198.079947       4.03258
  30     15.07      175.7336        1.4785      371.0984      372.5769     196.843278       3.19284
  29     18.79      175.8242        1.7797      369.7078      371.4875     195.663246       2.67550
  28     23.16      175.9053        2.1284      368.2553      370.3837     194.478354       2.29120
  27     28.12      175.9690        2.5237      366.7632      369.2869     193.317942       1.97262
  26     33.73      175.9973        2.9628      365.2829      368.2458     192.248494       1.60794
  25     40.54      175.9818        3.4895      363.6903      367.1797     191.197921       1.30336
  24     48.69      175.9158        4.1187      361.9478      366.0665     190.150718       1.08369
  23     57.69      175.7979        4.8034      360.1959      364.9993     189.201395       0.88985
  22     68.43      175.6090        5.6105      358.2794      363.8899     188.280998       0.72356
  21     81.20      175.3165        6.5617      356.2151      362.7768     187.460344       0.54228
  20     96.49      174.9075        7.6807      353.9633      361.6439     186.736461       0.39953
  19     114.6      174.4072        8.9869      350.9671      359.9540     185.546763       0.55551
  18     136.5      173.8015       10.5033      347.7774      358.2807     184.479150       0.41052
  17     162.9      173.0738       12.2661      344.2438      356.5099     183.436057       0.33341
  16     196.4      172.1065       14.4875      339.9817      354.4692     182.362651       0.27019
  15     218.7      171.4684       15.9073      337.3224      353.2297     181.761286       0.22832
  14     243.0      170.7793       17.4173      334.5198      351.9370     181.157721       0.20934
  13     269.0      170.0385       19.0159      331.5563      350.5722     180.533708       0.20243
  12     297.5      169.2465       20.7010      328.3650      349.0660     179.819472       0.21183
  11     328.5      168.4060       22.4739      324.8060      347.2800     178.873934       0.25709
  10     361.9      167.5197       24.3291      320.7354      345.0645     177.544751       0.33630
   9     398.1      166.5883       26.2664      316.0046      342.2710     175.682682       0.43382
   8     437.6      165.6161       28.2802      310.4799      338.7600     173.143941       0.54280
   7     480.5      164.6078       30.3665      304.0510      334.4175     169.809752       0.65482
   6     533.0      163.4204       32.8350      295.5845      328.4195     164.999097       0.77388
   5     589.8      162.2103       35.3810      286.3616      321.7426     159.532224       0.81146
   4     651.6      160.9963       37.9927      276.6942      314.6870     153.690677       0.79885
   3     718.7      159.8029       40.6615      266.7022      307.3637     147.560792       0.77036
   2     792.3      158.6688       43.3693      256.3594      299.7287     141.059915       0.74558
   1     891.5      157.4119       46.7955      243.0815      289.8770     132.465093       0.73138
   0    1013.0      156.4541       50.5888      228.1746      278.7634     122.309318       0.70517



 Wavenumbers:  2600. -  3250. cm-1, ATM      1
 LEVEL PRESSURE   UPWARD FLUX   DIFDOWN FLUX  DIRDOWN FLUX  DOWNWARD FLUX   NET FLUX    HEATING RATE
          mb          W/m2          W/m2          W/m2        W/m2          W/m2       degree/day
  51    .06700        0.2769        0.0000        3.5066        3.5066       3.229758       0.00000
  50    .07753        0.2769        0.0000        3.5066        3.5066       3.229750       0.00640
  49    .09103        0.2769        0.0000        3.5066        3.5066       3.229740       0.00627
  48    0.1069        0.2769        0.0000        3.5066        3.5066       3.229728       0.00613
  47    0.1255        0.2769        0.0000        3.5066        3.5066       3.229715       0.00599
  46    0.1487        0.2769        0.0000        3.5066        3.5066       3.229698       0.00607
  45    0.1794        0.2769        0.0000        3.5065        3.5065       3.229676       0.00624
  44    0.2165        0.2769        0.0000        3.5065        3.5065       3.229649       0.00611
  43    0.2613        0.2769        0.0000        3.5065        3.5065       3.229617       0.00598
  42    0.3336        0.2769        0.0000        3.5064        3.5064       3.229564       0.00615
  41    0.4307        0.2769        0.0000        3.5064        3.5064       3.229493       0.00617
  40    0.5894        0.2769        0.0000        3.5062        3.5062       3.229374       0.00633
  39     1.339        0.2769        0.0000        3.5055        3.5055       3.228675       0.00787
  38     1.782        0.2769        0.0000        3.5050        3.5050       3.228145       0.01010
  37     2.292        0.2769        0.0000        3.5043        3.5043       3.227452       0.01147
  36     2.964        0.2769        0.0000        3.5033        3.5033       3.226462       0.01243
  35     3.853        0.2769        0.0000        3.5019        3.5019       3.225085       0.01307
  34     5.035        0.2769        0.0000        3.5001        3.5001       3.223221       0.01331
  33     6.613        0.2769        0.0000        3.4977        3.4977       3.220808       0.01290
  32     8.786        0.2769        0.0000        3.4947        3.4947       3.217829       0.01157
  31     11.80        0.2769        0.0000        3.4910        3.4910       3.214187       0.01020
  30     15.07        0.2769        0.0000        3.4878        3.4878       3.210957       0.00834
  29     18.79        0.2769        0.0000        3.4847        3.4847       3.207879       0.00698
  28     23.16        0.2769        0.0000        3.4815        3.4815       3.204637       0.00627
  27     28.12        0.2769        0.0000        3.4778        3.4779       3.200994       0.00619
  26     33.73        0.2769        0.0000        3.4733        3.4734       3.196499       0.00676
  25     40.54        0.2769        0.0000        3.4670        3.4670       3.190138       0.00789
  24     48.69        0.2769        0.0000        3.4580        3.4580       3.181183       0.00927
  23     57.69        0.2769        0.0000        3.4469        3.4469       3.170044       0.01044
  22     68.43        0.2769        0.0000        3.4324        3.4325       3.155613       0.01135
  21     81.20        0.2769        0.0000        3.4145        3.4146       3.137688       0.01184
  20     96.49        0.2769        0.0000        3.3932        3.3932       3.116345       0.01178
  19     114.6        0.2769        0.0000        3.3360        3.3360       3.059107       0.02673
  18     136.5        0.2770        0.0001        3.2887        3.2888       3.011783       0.01820
  17     162.9        0.2771        0.0001        3.2488        3.2489       2.971746       0.01280
  16     196.4        0.2773        0.0001        3.2098        3.2099       2.932613       0.00985
  15     218.7        0.2774        0.0001        3.1879        3.1880       2.910593       0.00836
  14     243.0        0.2775        0.0001        3.1657        3.1657       2.888249       0.00775
  13     269.0        0.2776        0.0001        3.1419        3.1420       2.864379       0.00774
  12     297.5        0.2778        0.0001        3.1138        3.1139       2.836073       0.00840
  11     328.5        0.2781        0.0001        3.0769        3.0770       2.798971       0.01009
  10     361.9        0.2784        0.0001        3.0266        3.0268       2.748339       0.01281
   9     398.1        0.2789        0.0001        2.9584        2.9586       2.679640       0.01601
   8     437.6        0.2796        0.0001        2.8678        2.8679       2.588291       0.01953
   7     480.5        0.2807        0.0002        2.7520        2.7521       2.471487       0.02294
   6     533.0        0.2824        0.0002        2.5903        2.5905       2.308090       0.02629
   5     589.8        0.2849        0.0002        2.4139        2.4140       2.129155       0.02656
   4     651.6        0.2886        0.0002        2.2310        2.2311       1.942591       0.02551
   3     718.7        0.2938        0.0002        2.0433        2.0435       1.749733       0.02424
   2     792.3        0.3013        0.0002        1.8461        1.8463       1.545025       0.02348
   1     891.5        0.3155        0.0002        1.5996        1.5997       1.284215       0.02219
   0    1013.0        0.3426        0.0002        1.3431        1.3432       1.000609       0.01969



 Wavenumbers:  3250. -  4000. cm-1, ATM      1
 LEVEL PRESSURE   UPWARD FLUX   DIFDOWN FLUX  DIRDOWN FLUX  DOWNWARD FLUX   NET FLUX    HEATING RATE
          mb          W/m2          W/m2          W/m2        W/m2          W/m2       degree/day
  51    .06700        0.0013        0.0000        5.9117        5.9117       5.910357       0.00000
  50    .07753        0.0013        0.0000        5.9075        5.9075       5.906195       3.33612
  49    .09103        0.0013        0.0000        5.9052        5.9052       5.903906       1.43071
  48    0.1069        0.0013        0.0000        5.9035        5.9035       5.902193       0.91191
  47    0.1255        0.0013        0.0000        5.9019        5.9019       5.900573       0.73438
  46    0.1487        0.0013        0.0000        5.9001        5.9001       5.898838       0.63248
  45    0.1794        0.0013        0.0000        5.8982        5.8982       5.896861       0.54264
  44    0.2165        0.0013        0.0000        5.8962        5.8962       5.894913       0.44317
  43    0.2613        0.0013        0.0000        5.8943        5.8943       5.892964       0.36742
  42    0.3336        0.0013        0.0000        5.8915        5.8915       5.890208       0.32132
  41    0.4307        0.0013        0.0000        5.8881        5.8881       5.886834       0.29332
  40    0.5894        0.0013        0.0000        5.8830        5.8830       5.881728       0.27154
  39     1.339        0.0013        0.0000        5.8641        5.8641       5.862808       0.21300
  38     1.782        0.0013        0.0000        5.8561        5.8561       5.854818       0.15212
  37     2.292        0.0013        0.0000        5.8483        5.8483       5.847031       0.12897
  36     2.964        0.0013        0.0000        3.1042        3.1042       3.102863      34.44761
  35     3.853        0.0013        0.0000        2.8065        2.8065       2.805202       2.82486
  34     5.035        0.0013        0.0000        2.6591        2.6591       2.657826       1.05279
  33     6.613        0.0013        0.0000        2.5722        2.5722       2.570891       0.46475
  32     8.786        0.0013        0.0000        2.5152        2.5152       2.513864       0.22147
  31     11.80        0.0013        0.0000        2.4712        2.4712       2.469893       0.12310
  30     15.07        0.0013        0.0000        2.4417        2.4417       2.440426       0.07608
  29     18.79        0.0013        0.0000        2.4187        2.4187       2.417378       0.05226
  28     23.16        0.0013        0.0000        2.3978        2.3978       2.396475       0.04042
  27     28.12        0.0013        0.0000        2.3792        2.3792       2.377863       0.03164
  26     33.73        0.0013        0.0000        2.3625        2.3625       2.361181       0.02508
  25     40.54        0.0013        0.0000        2.3455        2.3455       2.344233       0.02103
  24     48.69        0.0013        0.0000        2.3262        2.3263       2.324973       0.01993
  23     57.69        0.0013        0.0000        2.3055        2.3055       2.304204       0.01947
  22     68.43        0.0013        0.0000        2.2814        2.2814       2.280105       0.01895
  21     81.20        0.0013        0.0000        2.2538        2.2538       2.252534       0.01822
  20     96.49        0.0013        0.0001        2.2226        2.2227       2.221374       0.01720
  19     114.6        0.0013        0.0001        2.1876        2.1877       2.186413       0.01632
  18     136.5        0.0013        0.0001        2.1488        2.1489       2.147647       0.01491
  17     162.9        0.0012        0.0001        2.1062        2.1063       2.105052       0.01362
  16     196.4        0.0012        0.0001        2.0560        2.0561       2.054865       0.01263
  15     218.7        0.0012        0.0001        2.0256        2.0257       2.024511       0.01152
  14     243.0        0.0012        0.0001        1.9947        1.9948       1.993585       0.01073
  13     269.0        0.0012        0.0001        1.9613        1.9614       1.960219       0.01082
  12     297.5        0.0012        0.0002        1.9186        1.9188       1.917566       0.01265
  11     328.5        0.0012        0.0002        1.8549        1.8551       1.853931       0.01730
  10     361.9        0.0012        0.0002        1.7608        1.7610       1.759791       0.02382
   9     398.1        0.0012        0.0002        1.6322        1.6324       1.631259       0.02995
   8     437.6        0.0012        0.0002        1.4700        1.4702       1.469010       0.03469
   7     480.5        0.0012        0.0002        1.2787        1.2789       1.277706       0.03757
   6     533.0        0.0012        0.0002        1.0355        1.0357       1.034475       0.03913
   5     589.8        0.0013        0.0001        0.7900        0.7902       0.788868       0.03646
   4     651.6        0.0015        0.0001        0.5590        0.5591       0.557677       0.03162
   3     718.7        0.0017        0.0001        0.3640        0.3641       0.362338       0.02455
   2     792.3        0.0023        0.0001        0.2091        0.2092       0.206844       0.01783
   1     891.5        0.0042        0.0000        0.0768        0.0768       0.072650       0.01142
   0    1013.0        0.0120        0.0000        0.0126        0.0127       0.000665       0.00500



 Wavenumbers:  4000. -  4650. cm-1, ATM      1
 LEVEL PRESSURE   UPWARD FLUX   DIFDOWN FLUX  DIRDOWN FLUX  DOWNWARD FLUX   NET FLUX    HEATING RATE
          mb          W/m2          W/m2          W/m2        W/m2          W/m2       degree/day
  51    .06700        0.6740        0.0000        6.9421        6.9421       6.268073       0.00000
  50    .07753        0.6740        0.0000        6.9421        6.9421       6.268072       0.00080
  49    .09103        0.6740        0.0000        6.9421        6.9421       6.268071       0.00079
  48    0.1069        0.6740        0.0000        6.9421        6.9421       6.268070       0.00077
  47    0.1255        0.6740        0.0000        6.9421        6.9421       6.268068       0.00075
  46    0.1487        0.6740        0.0000        6.9421        6.9421       6.268066       0.00076
  45    0.1794        0.6740        0.0000        6.9421        6.9421       6.268063       0.00078
  44    0.2165        0.6740        0.0000        6.9421        6.9421       6.268060       0.00077
  43    0.2613        0.6740        0.0000        6.9421        6.9421       6.268056       0.00075
  42    0.3336        0.6740        0.0000        6.9420        6.9420       6.268049       0.00077
  41    0.4307        0.6740        0.0000        6.9420        6.9420       6.268040       0.00078
  40    0.5894        0.6740        0.0000        6.9420        6.9420       6.268025       0.00080
  39     1.339        0.6740        0.0000        6.9419        6.9419       6.267935       0.00101
  38     1.782        0.6740        0.0000        6.9418        6.9419       6.267865       0.00133
  37     2.292        0.6740        0.0000        6.9418        6.9418       6.267771       0.00156
  36     2.964        0.6740        0.0000        6.9416        6.9416       6.267631       0.00176
  35     3.853        0.6740        0.0000        6.9414        6.9414       6.267422       0.00198
  34     5.035        0.6740        0.0000        6.9411        6.9411       6.267115       0.00219
  33     6.613        0.6740        0.0000        6.9406        6.9406       6.266664       0.00242
  32     8.786        0.6740        0.0000        6.9399        6.9400       6.265998       0.00259
  31     11.80        0.6739        0.0001        6.9389        6.9389       6.264953       0.00292
  30     15.07        0.6739        0.0001        6.9376        6.9377       6.263732       0.00315
  29     18.79        0.6739        0.0001        6.9361        6.9362       6.262260       0.00334
  28     23.16        0.6739        0.0001        6.9343        6.9344       6.260439       0.00352
  27     28.12        0.6739        0.0001        6.9320        6.9321       6.258244       0.00373
  26     33.73        0.6739        0.0001        6.9293        6.9294       6.255550       0.00405
  25     40.54        0.6739        0.0002        6.9256        6.9258       6.251916       0.00451
  24     48.69        0.6738        0.0002        6.9208        6.9209       6.247107       0.00498
  23     57.69        0.6738        0.0002        6.9150        6.9153       6.241443       0.00531
  22     68.43        0.6738        0.0003        6.9079        6.9082       6.234401       0.00554
  21     81.20        0.6738        0.0003        6.8993        6.8996       6.225793       0.00569
  20     96.49        0.6737        0.0004        6.8888        6.8891       6.215390       0.00574
  19     114.6        0.6738        0.0004        6.8564        6.8569       6.183080       0.01509
  18     136.5        0.6739        0.0005        6.8284        6.8289       6.155004       0.01080
  17     162.9        0.6739        0.0006        6.7981        6.7987       6.124720       0.00968
  16     196.4        0.6741        0.0007        6.7609        6.7616       6.087554       0.00936
  15     218.7        0.6742        0.0008        6.7374        6.7382       6.064040       0.00893
  14     243.0        0.6743        0.0009        6.7125        6.7134       6.039046       0.00867
  13     269.0        0.6745        0.0010        6.6854        6.6864       6.011915       0.00880
  12     297.5        0.6747        0.0011        6.6542        6.6553       5.980563       0.00930
  11     328.5        0.6750        0.0012        6.6149        6.6161       5.941056       0.01074
  10     361.9        0.6755        0.0013        6.5634        6.5647       5.889205       0.01312
   9     398.1        0.6761        0.0014        6.4953        6.4967       5.820613       0.01598
   8     437.6        0.6770        0.0015        6.4085        6.4100       5.733008       0.01873
   7     480.5        0.6781        0.0016        6.3016        6.3032       5.625090       0.02119
   6     533.0        0.6799        0.0018        6.1571        6.1588       5.478974       0.02351
   5     589.8        0.6823        0.0019        5.9921        5.9940       5.311698       0.02483
   4     651.6        0.6858        0.0021        5.7951        5.7972       5.111419       0.02739
   3     718.7        0.6907        0.0022        5.5588        5.5610       4.870263       0.03031
   2     792.3        0.6979        0.0024        5.2906        5.2929       4.595053       0.03156
   1     891.5        0.7115        0.0025        4.9466        4.9491       4.237591       0.03042
   0    1013.0        0.7372        0.0027        4.5751        4.5778       3.840584       0.02757



 Wavenumbers:  4650. -  5150. cm-1, ATM      1
 LEVEL PRESSURE   UPWARD FLUX   DIFDOWN FLUX  DIRDOWN FLUX  DOWNWARD FLUX   NET FLUX    HEATING RATE
          mb          W/m2          W/m2          W/m2        W/m2          W/m2       degree/day
  51    .06700        0.4775        0.0000        6.5710        6.5710       6.093449       0.00000
  50    .07753        0.4775        0.0000        6.5708        6.5708       6.093214       0.18837
  49    .09103        0.4775        0.0000        6.5705        6.5705       6.092921       0.18312
  48    0.1069        0.4775        0.0000        6.5701        6.5701       6.092588       0.17755
  47    0.1255        0.4775        0.0000        6.5698        6.5698       6.092209       0.17187
  46    0.1487        0.4775        0.0000        6.5693        6.5693       6.091736       0.17214
  45    0.1794        0.4775        0.0000        6.5686        6.5686       6.091102       0.17417
  44    0.2165        0.4775        0.0000        6.5679        6.5679       6.090366       0.16733
  43    0.2613        0.4775        0.0000        6.5671        6.5671       6.089516       0.16027
  42    0.3336        0.4775        0.0000        6.5657        6.5657       6.088157       0.15843
  41    0.4307        0.4775        0.0000        6.5640        6.5640       6.086436       0.14965
  40    0.5894        0.4775        0.0000        6.5614        6.5614       6.083822       0.13901
  39     1.339        0.4775        0.0000        6.5516        6.5516       6.074057       0.10994
  38     1.782        0.4775        0.0000        6.5474        6.5474       6.069830       0.08048
  37     2.292        0.4775        0.0000        6.5434        6.5434       6.065906       0.06498
  36     2.964        0.4775        0.0000        6.5394        6.5394       6.061883       0.05051
  35     3.853        0.4775        0.0000        6.5353        6.5354       6.057847       0.03830
  34     5.035        0.4775        0.0000        6.5312        6.5313       6.053747       0.02928
  33     6.613        0.4775        0.0000        6.5267        6.5268       6.049269       0.02394
  32     8.786        0.4775        0.0001        6.5211        6.5212       6.043715       0.02157
  31     11.80        0.4775        0.0001        6.5130        6.5130       6.035573       0.02279
  30     15.07        0.4775        0.0001        6.5035        6.5036       6.026145       0.02434
  29     18.79        0.4774        0.0001        6.4919        6.4920       6.014564       0.02626
  28     23.16        0.4774        0.0001        6.4772        6.4773       5.999892       0.02837
  27     28.12        0.4774        0.0002        6.4591        6.4593       5.981866       0.03064
  26     33.73        0.4774        0.0002        6.4376        6.4378       5.960413       0.03225
  25     40.54        0.4774        0.0002        6.4104        6.4107       5.933304       0.03363
  24     48.69        0.4773        0.0003        6.3768        6.3770       5.899709       0.03477
  23     57.69        0.4773        0.0003        6.3396        6.3400       5.862657       0.03473
  22     68.43        0.4773        0.0004        6.2964        6.2968       5.819495       0.03393
  21     81.20        0.4773        0.0005        6.2475        6.2479       5.770666       0.03227
  20     96.49        0.4773        0.0005        6.1939        6.1945       5.717224       0.02950
  19     114.6        0.4773        0.0006        6.1269        6.1275       5.650221       0.03129
  18     136.5        0.4774        0.0007        6.0591        6.0598       5.582441       0.02606
  17     162.9        0.4775        0.0009        5.9883        5.9891       5.511659       0.02262
  16     196.4        0.4776        0.0010        5.9042        5.9053       5.427653       0.02115
  15     218.7        0.4777        0.0011        5.8509        5.8521       5.374322       0.02025
  14     243.0        0.4779        0.0012        5.7932        5.7944       5.316530       0.02004
  13     269.0        0.4781        0.0014        5.7298        5.7312       5.253140       0.02056
  12     297.5        0.4783        0.0015        5.6583        5.6598       5.181507       0.02125
  11     328.5        0.4786        0.0016        5.5749        5.5765       5.097843       0.02275
  10     361.9        0.4792        0.0018        5.4763        5.4781       4.998969       0.02502
   9     398.1        0.4798        0.0019        5.3616        5.3635       4.883696       0.02686
   8     437.6        0.4808        0.0021        5.2279        5.2300       4.749178       0.02876
   7     480.5        0.4821        0.0022        5.0736        5.0758       4.593682       0.03054
   6     533.0        0.4842        0.0024        4.8702        4.8725       4.388313       0.03304
   5     589.8        0.4872        0.0025        4.6461        4.6486       4.161470       0.03367
   4     651.6        0.4912        0.0027        4.4095        4.4122       3.920986       0.03289
   3     718.7        0.4969        0.0028        4.1663        4.1691       3.672219       0.03126
   2     792.3        0.5047        0.0030        3.9174        3.9204       3.415664       0.02942
   1     891.5        0.5191        0.0031        3.6042        3.6073       3.088201       0.02787
   0    1013.0        0.5442        0.0032        3.2636        3.2668       2.722615       0.02538



 Wavenumbers:  5150. -  6150. cm-1, ATM      1
 LEVEL PRESSURE   UPWARD FLUX   DIFDOWN FLUX  DIRDOWN FLUX  DOWNWARD FLUX   NET FLUX    HEATING RATE
          mb          W/m2          W/m2          W/m2        W/m2          W/m2       degree/day
  51    .06700        1.2944        0.0000       16.4735       16.4735      15.179137       0.00000
  50    .07753        1.2944        0.0000       16.4735       16.4735      15.179137       0.00018
  49    .09103        1.2944        0.0000       16.4735       16.4735      15.179136       0.00018
  48    0.1069        1.2944        0.0000       16.4735       16.4735      15.179136       0.00017
  47    0.1255        1.2944        0.0000       16.4735       16.4735      15.179136       0.00017
  46    0.1487        1.2944        0.0000       16.4735       16.4735      15.179135       0.00017
  45    0.1794        1.2944        0.0000       16.4735       16.4735      15.179135       0.00018
  44    0.2165        1.2944        0.0000       16.4735       16.4735      15.179134       0.00017
  43    0.2613        1.2944        0.0000       16.4735       16.4735      15.179133       0.00017
  42    0.3336        1.2944        0.0000       16.4735       16.4735      15.179132       0.00018
  41    0.4307        1.2944        0.0000       16.4735       16.4735      15.179129       0.00018
  40    0.5894        1.2944        0.0000       16.4735       16.4735      15.179126       0.00018
  39     1.339        1.2943        0.0000       16.4734       16.4734      15.179106       0.00023
  38     1.782        1.2943        0.0000       16.4734       16.4734      15.179089       0.00031
  37     2.292        1.2943        0.0001       16.4733       16.4734      15.179068       0.00036
  36     2.964        1.2949        0.0001       13.9677       13.9678      12.672920      31.45973
  35     3.853        1.2952        0.0001       13.6112       13.6113      12.316057       3.38669
  34     5.035        1.2954        0.0002       13.4358       13.4360      12.140592       1.25345
  33     6.613        1.2955        0.0002       13.3317       13.3319      12.036383       0.55710
  32     8.786        1.2956        0.0002       13.2627       13.2630      11.967376       0.26800
  31     11.80        1.2956        0.0003       13.2090       13.2093      11.913675       0.15035
  30     15.07        1.2956        0.0004       13.1727       13.1731      11.877439       0.09355
  29     18.79        1.2956        0.0004       13.1442       13.1446      11.848989       0.06450
  28     23.16        1.2956        0.0005       13.1182       13.1188      11.823123       0.05002
  27     28.12        1.2956        0.0006       13.0950       13.0957      11.800062       0.03920
  26     33.73        1.2956        0.0007       13.0741       13.0749      11.779327       0.03118
  25     40.54        1.2955        0.0009       13.0527       13.0536      11.758091       0.02635
  24     48.69        1.2955        0.0011       13.0280       13.0291      11.733629       0.02531
  23     57.69        1.2954        0.0012       13.0010       13.0022      11.706823       0.02513
  22     68.43        1.2954        0.0015       12.9690       12.9705      11.675128       0.02492
  21     81.20        1.2953        0.0017       12.9315       12.9332      11.637933       0.02458
  20     96.49        1.2953        0.0020       12.8881       12.8901      11.594830       0.02379
  19     114.6        1.2952        0.0024       12.8384       12.8408      11.545604       0.02299
  18     136.5        1.2951        0.0028       12.7833       12.7861      11.490980       0.02100
  17     162.9        1.2950        0.0033       12.7243       12.7276      11.432627       0.01865
  16     196.4        1.2948        0.0040       12.6587       12.6627      11.367930       0.01628
  15     218.7        1.2946        0.0044       12.6222       12.6266      11.332046       0.01362
  14     243.0        1.2944        0.0049       12.5849       12.5898      11.295397       0.01271
  13     269.0        1.2941        0.0054       12.5437       12.5491      11.254934       0.01313
  12     297.5        1.2939        0.0059       12.4884       12.4944      11.200447       0.01616
  11     328.5        1.2937        0.0065       12.3999       12.4065      11.112757       0.02384
  10     361.9        1.2935        0.0071       12.2534       12.2606      10.967028       0.03687
   9     398.1        1.2934        0.0077       12.0243       12.0320      10.738597       0.05322
   8     437.6        1.2935        0.0083       11.6933       11.7016      10.408146       0.07065
   7     480.5        1.2937        0.0089       11.2571       11.2660       9.972254       0.08561
   6     533.0        1.2945        0.0094       10.6690       10.6784       9.383939       0.09464
   5     589.8        1.2959        0.0099       10.0997       10.1096       8.813703       0.08464
   4     651.6        1.2984        0.0104        9.6130        9.6234       8.325014       0.06683
   3     718.7        1.3026        0.0110        9.2101        9.2211       7.918436       0.05110
   2     792.3        1.3097        0.0116        8.8473        8.8590       7.549293       0.04234
   1     891.5        1.3251        0.0125        8.3836        8.3961       7.071028       0.04070
   0    1013.0        1.3594        0.0134        7.8534        7.8668       6.507378       0.03914



 Wavenumbers:  6150. -  7700. cm-1, ATM      1
 LEVEL PRESSURE   UPWARD FLUX   DIFDOWN FLUX  DIRDOWN FLUX  DOWNWARD FLUX   NET FLUX    HEATING RATE
          mb          W/m2          W/m2          W/m2        W/m2          W/m2       degree/day
  51    .06700        2.0380        0.0000       30.4684       30.4684      28.430336       0.00000
  50    .07753        2.0380        0.0000       30.4684       30.4684      28.430320       0.01303
  49    .09103        2.0380        0.0000       30.4683       30.4683      28.430300       0.01277
  48    0.1069        2.0380        0.0000       30.4683       30.4683      28.430276       0.01250
  47    0.1255        2.0380        0.0000       30.4683       30.4683      28.430249       0.01223
  46    0.1487        2.0380        0.0000       30.4682       30.4683      28.430215       0.01241
  45    0.1794        2.0380        0.0000       30.4682       30.4682      28.430169       0.01276
  44    0.2165        2.0380        0.0000       30.4681       30.4681      28.430114       0.01252
  43    0.2613        2.0380        0.0000       30.4681       30.4681      28.430049       0.01228
  42    0.3336        2.0380        0.0000       30.4679       30.4680      28.429941       0.01256
  41    0.4307        2.0380        0.0000       30.4678       30.4678      28.429798       0.01241
  40    0.5894        2.0380        0.0001       30.4675       30.4676      28.429565       0.01239
  39     1.339        2.0379        0.0001       30.4662       30.4664      28.428466       0.01238
  38     1.782        2.0379        0.0002       30.4655       30.4657      28.427821       0.01227
  37     2.292        2.0378        0.0002       30.4647       30.4649      28.427076       0.01234
  36     2.964        2.0385        0.0004       26.3657       26.3661      24.327622      51.46054
  35     3.853        2.0388        0.0005       25.7970       25.7976      23.758774       5.39847
  34     5.035        2.0390        0.0007       25.5250       25.5257      23.486748       1.94324
  33     6.613        2.0390        0.0008       25.3678       25.3686      23.329562       0.84032
  32     8.786        2.0390        0.0010       25.2661       25.2671      23.228124       0.39395
  31     11.80        2.0388        0.0013       25.1886       25.1899      23.151130       0.21556
  30     15.07        2.0386        0.0016       25.1374       25.1390      23.100368       0.13106
  29     18.79        2.0383        0.0019       25.0978       25.0997      23.061320       0.08853
  28     23.16        2.0380        0.0023       25.0622       25.0645      23.026441       0.06745
  27     28.12        2.0377        0.0027       25.0309       25.0336      22.995948       0.05184
  26     33.73        2.0372        0.0032       25.0033       25.0065      22.969266       0.04012
  25     40.54        2.0367        0.0038       24.9758       24.9796      22.942880       0.03273
  24     48.69        2.0361        0.0046       24.9449       24.9495      22.913402       0.03051
  23     57.69        2.0354        0.0054       24.9119       24.9172      22.881826       0.02960
  22     68.43        2.0346        0.0063       24.8734       24.8797      22.845117       0.02886
  21     81.20        2.0336        0.0074       24.8286       24.8360      22.802436       0.02820
  20     96.49        2.0324        0.0088       24.7765       24.7853      22.752919       0.02733
  19     114.6        2.0310        0.0104       24.7159       24.7263      22.695290       0.02691
  18     136.5        2.0293        0.0122       24.6461       24.6584      22.629048       0.02547
  17     162.9        2.0273        0.0145       24.5656       24.5801      22.552785       0.02438
  16     196.4        2.0248        0.0174       24.4649       24.4823      22.457535       0.02398
  15     218.7        2.0231        0.0193       24.4007       24.4200      22.396931       0.02301
  14     243.0        2.0212        0.0214       24.3324       24.3538      22.332546       0.02233
  13     269.0        2.0192        0.0236       24.2553       24.2789      22.259690       0.02363
  12     297.5        2.0171        0.0260       24.1509       24.1769      22.159768       0.02964
  11     328.5        2.0149        0.0285       23.9819       24.0104      21.995524       0.04466
  10     361.9        2.0127        0.0312       23.6993       23.7304      21.717742       0.07028
   9     398.1        2.0106        0.0338       23.2515       23.2853      21.274785       0.10320
   8     437.6        2.0087        0.0364       22.5886       22.6249      20.616228       0.14080
   7     480.5        2.0074        0.0387       21.6784       21.7171      19.709707       0.17804
   6     533.0        2.0071        0.0409       20.3687       20.4095      18.402373       0.21031
   5     589.8        2.0089        0.0426       18.9648       19.0074      16.998519       0.20838
   4     651.6        2.0138        0.0441       17.5881       17.6322      15.618454       0.18873
   3     718.7        2.0235        0.0454       16.2822       16.3276      14.304075       0.16518
   2     792.3        2.0411        0.0466       15.0506       15.0972      13.056112       0.14313
   1     891.5        2.0806        0.0480       13.6617       13.7097      11.629099       0.12143
   0    1013.0        2.1687        0.0494       12.2905       12.3399      10.171212       0.10123



 Wavenumbers:  7700. -  8050. cm-1, ATM      1
 LEVEL PRESSURE   UPWARD FLUX   DIFDOWN FLUX  DIRDOWN FLUX  DOWNWARD FLUX   NET FLUX    HEATING RATE
          mb          W/m2          W/m2          W/m2        W/m2          W/m2       degree/day
  51    .06700        1.0380        0.0000        7.2006        7.2006       6.162554       0.00000
  50    .07753        1.0380        0.0000        7.2006        7.2006       6.162536       0.01475
  49    .09103        1.0380        0.0000        7.2005        7.2005       6.162513       0.01446
  48    0.1069        1.0380        0.0000        7.2005        7.2005       6.162486       0.01415
  47    0.1255        1.0380        0.0000        7.2005        7.2005       6.162456       0.01385
  46    0.1487        1.0380        0.0000        7.2004        7.2005       6.162417       0.01405
  45    0.1794        1.0380        0.0000        7.2004        7.2004       6.162365       0.01446
  44    0.2165        1.0380        0.0000        7.2003        7.2003       6.162302       0.01418
  43    0.2613        1.0380        0.0000        7.2003        7.2003       6.162228       0.01392
  42    0.3336        1.0380        0.0000        7.2001        7.2001       6.162106       0.01424
  41    0.4307        1.0380        0.0000        7.2000        7.2000       6.161944       0.01408
  40    0.5894        1.0380        0.0000        7.1997        7.1997       6.161680       0.01407
  39     1.339        1.0381        0.0001        7.1984        7.1985       6.160429       0.01408
  38     1.782        1.0381        0.0001        7.1977        7.1978       6.159694       0.01398
  37     2.292        1.0381        0.0001        7.1968        7.1969       6.158844       0.01408
  36     2.964        1.0380        0.0002        7.1956        7.1958       6.157729       0.01400
  35     3.853        1.0381        0.0002        7.1941        7.1943       6.156256       0.01398
  34     5.035        1.0381        0.0003        7.1921        7.1924       6.154301       0.01397
  33     6.613        1.0381        0.0004        7.1894        7.1898       6.151692       0.01395
  32     8.786        1.0381        0.0005        7.1859        7.1863       6.148182       0.01363
  31     11.80        1.0382        0.0006        7.1808        7.1814       6.143172       0.01402
  30     15.07        1.0383        0.0007        7.1754        7.1761       6.137810       0.01384
  29     18.79        1.0384        0.0009        7.1692        7.1702       6.131773       0.01369
  28     23.16        1.0385        0.0011        7.1621        7.1632       6.124749       0.01358
  27     28.12        1.0386        0.0013        7.1540        7.1554       6.116755       0.01359
  26     33.73        1.0387        0.0015        7.1450        7.1466       6.107857       0.01338
  25     40.54        1.0389        0.0018        7.1342        7.1361       6.097175       0.01325
  24     48.69        1.0391        0.0022        7.1213        7.1235       6.084396       0.01322
  23     57.69        1.0393        0.0026        7.1072        7.1098       6.070484       0.01304
  22     68.43        1.0396        0.0030        7.0907        7.0937       6.054083       0.01289
  21     81.20        1.0399        0.0036        7.0711        7.0747       6.034780       0.01276
  20     96.49        1.0403        0.0042        7.0482        7.0524       6.012106       0.01251
  19     114.6        1.0408        0.0050        7.0212        7.0262       5.985412       0.01246
  18     136.5        1.0414        0.0058        6.9900        6.9958       5.954425       0.01192
  17     162.9        1.0421        0.0069        6.9536        6.9605       5.918381       0.01152
  16     196.4        1.0431        0.0083        6.9077        6.9160       5.872910       0.01145
  15     218.7        1.0437        0.0092        6.8783        6.8875       5.843760       0.01107
  14     243.0        1.0444        0.0101        6.8470        6.8571       5.812666       0.01078
  13     269.0        1.0453        0.0112        6.8137        6.8249       5.779606       0.01072
  12     297.5        1.0462        0.0123        6.7783        6.7907       5.744502       0.01041
  11     328.5        1.0472        0.0135        6.7408        6.7544       5.707196       0.01014
  10     361.9        1.0483        0.0148        6.7011        6.7159       5.667611       0.01002
   9     398.1        1.0496        0.0162        6.6588        6.6750       5.625415       0.00983
   8     437.6        1.0511        0.0177        6.6137        6.6314       5.580284       0.00965
   7     480.5        1.0529        0.0193        6.5653        6.5847       5.531767       0.00953
   6     533.0        1.0553        0.0213        6.5053        6.5266       5.471293       0.00973
   5     589.8        1.0582        0.0233        6.4395        6.4629       5.404716       0.00988
   4     651.6        1.0617        0.0256        6.3672        6.3927       5.331071       0.01007
   3     718.7        1.0660        0.0279        6.2870        6.3149       5.248963       0.01032
   2     792.3        1.0713        0.0304        6.1974        6.2278       5.156550       0.01060
   1     891.5        1.0797        0.0337        6.0702        6.1039       5.024122       0.01127
   0    1013.0        1.0923        0.0375        5.9055        5.9430       4.850772       0.01204



 Wavenumbers:  8050. - 12850. cm-1, ATM      1
 LEVEL PRESSURE   UPWARD FLUX   DIFDOWN FLUX  DIRDOWN FLUX  DOWNWARD FLUX   NET FLUX    HEATING RATE
          mb          W/m2          W/m2          W/m2        W/m2          W/m2       degree/day
  51    .06700       22.3334        0.0000      100.8135      100.8135      78.480143       0.00000
  50    .07753       22.3334        0.0000      100.8135      100.8135      78.480143       0.00000
  49    .09103       22.3333        0.0001      100.8134      100.8135      78.480143      -0.00000
  48    0.1069       22.3333        0.0001      100.8134      100.8134      78.480143       0.00000
  47    0.1255       22.3333        0.0001      100.8133      100.8134      78.480143       0.00000
  46    0.1487       22.3332        0.0002      100.8132      100.8134      78.480143       0.00000
  45    0.1794       22.3332        0.0002      100.8131      100.8133      78.480143      -0.00000
  44    0.2165       22.3331        0.0003      100.8129      100.8132      78.480143       0.00000
  43    0.2613       22.3330        0.0004      100.8127      100.8132      78.480143       0.00000
  42    0.3336       22.3329        0.0006      100.8125      100.8130      78.480143       0.00000
  41    0.4307       22.3327        0.0008      100.8121      100.8129      78.480143       0.00000
  40    0.5894       22.3324        0.0011      100.8115      100.8126      78.480143       0.00000
  39     1.339       22.3311        0.0028      100.8085      100.8113      78.480143       0.00000
  38     1.782       22.3303        0.0037      100.8068      100.8105      78.480143       0.00000
  37     2.292       22.3294        0.0048      100.8047      100.8096      78.480143      -0.00000
  36     2.964       22.3259        0.0092      100.7968      100.8060      78.480143      -0.00000
  35     3.853       22.3234        0.0122      100.7913      100.8036      78.480143       0.00000
  34     5.035       22.3209        0.0153      100.7858      100.8011      78.480143      -0.00000
  33     6.613       22.3179        0.0190      100.7791      100.7981      78.480143       0.00000
  32     8.786       22.3141        0.0238      100.7704      100.7942      78.480143       0.00000
  31     11.80       22.3086        0.0305      100.7583      100.7888      78.480143       0.00000
  30     15.07       22.3028        0.0376      100.7453      100.7830      78.480143       0.00000
  29     18.79       22.2963        0.0457      100.7307      100.7764      78.480143       0.00000
  28     23.16       22.2886        0.0551      100.7136      100.7688      78.480143      -0.00000
  27     28.12       22.2799        0.0659      100.6941      100.7600      78.480143      -0.00000
  26     33.73       22.2701        0.0780      100.6723      100.7502      78.480143       0.00000
  25     40.54       22.2582        0.0925      100.6458      100.7384      78.480143      -0.00000
  24     48.69       22.2439        0.1101      100.6139      100.7241      78.480143       0.00000
  23     57.69       22.2282        0.1295      100.5788      100.7083      78.480143       0.00000
  22     68.43       22.2094        0.1526      100.5370      100.6896      78.480143      -0.00000
  21     81.20       22.1870        0.1801      100.4871      100.6672      78.480143       0.00000
  20     96.49       22.1603        0.2130      100.4275      100.6404      78.480143       0.00000
  19     114.6       22.1325        0.2516       99.9714      100.2230      78.090484       0.18194
  18     136.5       22.0986        0.2976       99.6326       99.9302      77.831602       0.09955
  17     162.9       22.0568        0.3524       99.3336       99.6860      77.629177       0.06470
  16     196.4       22.0008        0.4235       99.0167       99.4402      77.439400       0.04777
  15     218.7       21.9633        0.4704       98.8326       99.3029      77.339627       0.03788
  14     243.0       21.9223        0.5213       98.6443       99.1656      77.243273       0.03342
  13     269.0       21.8777        0.5766       98.4428       99.0194      77.141683       0.03296
  12     297.5       21.8296        0.6363       98.2025       98.8388      77.009176       0.03930
  11     328.5       21.7781        0.7007       97.8770       98.5777      76.799573       0.05699
  10     361.9       21.7236        0.7697       97.4135       98.1832      76.459550       0.08603
   9     398.1       21.6666        0.8432       96.7586       97.6019      75.935228       0.12216
   8     437.6       21.6083        0.9211       95.8588       96.7799      75.171601       0.16327
   7     480.5       21.5504        1.0027       94.6454       95.6480      74.097617       0.21093
   6     533.0       21.4890        1.0997       92.7929       93.8926      72.403628       0.27251
   5     589.8       21.4374        1.2001       90.5175       91.7177      70.280222       0.31518
   4     651.6       21.4030        1.3034       87.9219       89.2253      67.822246       0.33613
   3     718.7       21.3970        1.4090       85.0615       86.4705      65.073491       0.34544
   2     792.3       21.4383        1.5158       81.9189       83.4347      61.996418       0.35291
   1     891.5       21.5953        1.6504       77.6990       79.3494      57.754082       0.36100
   0    1013.0       22.0209        1.7974       72.8287       74.6260      52.605062       0.35752



 Wavenumbers: 12850. - 16000. cm-1, ATM      1
 LEVEL PRESSURE   UPWARD FLUX   DIFDOWN FLUX  DIRDOWN FLUX  DOWNWARD FLUX   NET FLUX    HEATING RATE
          mb          W/m2          W/m2          W/m2        W/m2          W/m2       degree/day
  51    .06700       32.5124        0.0000       63.1686       63.1686      30.656199       0.00000
  50    .07753       32.5124        0.0001       63.1677       63.1678      30.655419       0.62442
  49    .09103       32.5123        0.0001       63.1666       63.1668      30.654449       0.60671
  48    0.1069       32.5123        0.0002       63.1654       63.1656      30.653344       0.58819
  47    0.1255       32.5122        0.0003       63.1640       63.1643      30.652087       0.56961
  46    0.1487       32.5122        0.0004       63.1623       63.1627      30.650521       0.57098
  45    0.1794       32.5121        0.0006       63.1600       63.1606      30.648421       0.57646
  44    0.2165       32.5121        0.0008       63.1573       63.1581      30.645993       0.55233
  43    0.2613       32.5120        0.0010       63.1542       63.1552      30.643194       0.52764
  42    0.3336       32.5119        0.0014       63.1493       63.1507      30.638735       0.51986
  41    0.4307       32.5119        0.0019       63.1431       63.1450      30.633150       0.48561
  40    0.5894       32.5118        0.0027       63.1338       63.1365      30.624698       0.44946
  39     1.339       32.5127        0.0065       63.0955       63.1020      30.589295       0.39857
  38     1.782       32.5141        0.0087       63.0739       63.0826      30.568496       0.39598
  37     2.292       32.5166        0.0113       63.0474       63.0588      30.542117       0.43691
  36     2.964       32.5168        0.0216       62.9979       63.0195      30.502661       0.49528
  35     3.853       32.5230        0.0286       62.9372       62.9659      30.442884       0.56729
  34     5.035       32.5343        0.0358       62.8543       62.8901      30.355770       0.62231
  33     6.613       32.5510        0.0444       62.7426       62.7870      30.236011       0.64023
  32     8.786       32.5729        0.0554       62.5981       62.6535      30.080654       0.60335
  31     11.80       32.6008        0.0709       62.4077       62.4786      29.877729       0.56813
  30     15.07       32.6269        0.0874       62.2216       62.3089      29.682056       0.50519
  29     18.79       32.6527        0.1059       62.0280       62.1338      29.481153       0.45551
  28     23.16       32.6786        0.1274       61.8209       61.9483      29.269673       0.40893
  27     28.12       32.7034        0.1519       61.6062       61.7581      29.054637       0.36555
  26     33.73       32.7241        0.1793       61.3959       61.5752      28.851093       0.30603
  25     40.54       32.7410        0.2123       61.1766       61.3889      28.647824       0.25218
  24     48.69       32.7535        0.2521       60.9462       61.1983      28.444753       0.21015
  23     57.69       32.7596        0.2956       60.7261       61.0217      28.262092       0.17122
  22     68.43       32.7586        0.3475       60.4985       60.8460      28.087404       0.13733
  21     81.20       32.7460        0.4092       60.2722       60.6814      27.935399       0.10044
  20     96.49       32.7206        0.4828       60.0427       60.5254      27.804873       0.07204
  19     114.6       32.6907        0.5706       59.7791       60.3497      27.658948       0.06814
  18     136.5       32.6507        0.6744       59.4803       60.1547      27.503967       0.05959
  17     162.9       32.5988        0.7977       59.1353       59.9330      27.334224       0.05426
  16     196.4       32.5224        0.9570       58.7130       59.6700      27.147643       0.04696
  15     218.7       32.4689        1.0614       58.4452       59.5066      27.037760       0.04172
  14     243.0       32.4092        1.1746       58.1591       59.3337      26.924492       0.03929
  13     269.0       32.3431        1.2969       57.8548       59.1518      26.808708       0.03756
  12     297.5       32.2702        1.4288       57.5307       58.9595      26.689347       0.03540
  11     328.5       32.1911        1.5710       57.1817       58.7526      26.561562       0.03474
  10     361.9       32.1059        1.7235       56.8046       58.5281      26.422161       0.03527
   9     398.1       32.0149        1.8872       56.3950       58.2822      26.267251       0.03609
   8     437.6       31.9187        2.0622       55.9462       58.0084      26.089749       0.03795
   7     480.5       31.8183        2.2490       55.4495       57.6985      25.880224       0.04115
   6     533.0       31.7008        2.4774       54.8070       57.2845      25.583625       0.04771
   5     589.8       31.5837        2.7215       54.0772       56.7987      25.215054       0.05471
   4     651.6       31.4709        2.9810       53.2527       56.2337      24.762816       0.06184
   3     718.7       31.3686        3.2556       52.3269       55.5825      24.213840       0.06899
   2     792.3       31.2826        3.5439       51.3086       54.8525      23.569866       0.07386
   1     891.5       31.2146        3.9228       49.9023       53.8251      22.610572       0.08163
   0    1013.0       31.2275        4.3613       48.1705       52.5318      21.304319       0.09070



 Wavenumbers: 16000. - 22650. cm-1, ATM      1
 LEVEL PRESSURE   UPWARD FLUX   DIFDOWN FLUX  DIRDOWN FLUX  DOWNWARD FLUX   NET FLUX    HEATING RATE
          mb          W/m2          W/m2          W/m2        W/m2          W/m2       degree/day
  51    .06700       75.4403        0.0000      100.7153      100.7153      25.275040       0.00000
  50    .07753       75.4401        0.0003      100.7147      100.7151      25.274923       0.09390
  49    .09103       75.4400        0.0007      100.7140      100.7147      25.274752       0.10651
  48    0.1069       75.4398        0.0012      100.7131      100.7143      25.274524       0.12145
  47    0.1255       75.4396        0.0017      100.7121      100.7139      25.274219       0.13844
  46    0.1487       75.4394        0.0024      100.7108      100.7132      25.273769       0.16405
  45    0.1794       75.4392        0.0034      100.7089      100.7122      25.273065       0.19315
  44    0.2165       75.4389        0.0045      100.7066      100.7110      25.272111       0.21708
  43    0.2613       75.4386        0.0058      100.7037      100.7094      25.270816       0.24405
  42    0.3336       75.4383        0.0079      100.6987      100.7066      25.268354       0.28699
  41    0.4307       75.4379        0.0108      100.6918      100.7026      25.264644       0.32260
  40    0.5894       75.4377        0.0155      100.6797      100.6952      25.257568       0.37628
  39     1.339       75.4419        0.0377      100.6095      100.6472      25.205302       0.58843
  38     1.782       75.4484        0.0507      100.5585      100.6092      25.160790       0.84742
  37     2.292       75.4596        0.0658      100.4903      100.5560      25.096380       1.06680
  36     2.964       75.4606        0.1251      100.3277      100.4527      24.992098       1.30905
  35     3.853       75.4886        0.1659      100.1495      100.3154      24.826779       1.56891
  34     5.035       75.5400        0.2076       99.9129      100.1204      24.580423       1.75987
  33     6.613       75.6156        0.2572       99.5970       99.8542      24.238601       1.82738
  32     8.786       75.7149        0.3211       99.1885       99.5096      23.794743       1.72379
  31     11.80       75.8420        0.4105       98.6487       99.0592      23.217200       1.61694
  30     15.07       75.9605        0.5055       98.1183       98.6238      22.663318       1.43002
  29     18.79       76.0782        0.6121       97.5635       98.1756      22.097382       1.28315
  28     23.16       76.1970        0.7360       96.9656       97.7016      21.504651       1.14615
  27     28.12       76.3107        0.8771       96.3392       97.2163      20.905562       1.01841
  26     33.73       76.4064        1.0343       95.7169       96.7512      20.344753       0.84319
  25     40.54       76.4855        1.2236       95.0542       96.2778      19.792365       0.68530
  24     48.69       76.5453        1.4509       94.3419       95.7927      19.247437       0.56392
  23     57.69       76.5769        1.6995       93.6420       95.3415      18.764657       0.45253
  22     68.43       76.5777        1.9944       92.8963       94.8907      18.313039       0.35503
  21     81.20       76.5284        2.3443       92.1248       94.4691      17.940752       0.24600
  20     96.49       76.4231        2.7594       91.3133       94.0727      17.649601       0.16069
  19     114.6       76.2758        3.2488       90.4091       93.6579      17.382103       0.12490
  18     136.5       76.0863        3.8240       89.3823       93.2062      17.119943       0.10081
  17     162.9       75.8479        4.5020       88.2044       92.7064      16.858492       0.08357
  16     196.4       75.5100        5.3710       86.7633       92.1343      16.624321       0.05894
  15     218.7       75.2784        5.9355       85.8524       91.7879      16.509506       0.04359
  14     243.0       75.0230        6.5434       84.8831       91.4265      16.403504       0.03676
  13     269.0       74.7426        7.1957       83.8551       91.0508      16.308275       0.03089
  12     297.5       74.4364        7.8932       82.7675       90.6607      16.224230       0.02493
  11     328.5       74.1058        8.6382       81.6109       90.2491      16.143263       0.02201
  10     361.9       73.7507        9.4305       80.3855       89.8160      16.065324       0.01972
   9     398.1       73.3700       10.2720       79.0877       89.3597      15.989731       0.01761
   8     437.6       72.9640       11.1628       77.7155       88.8783      15.914251       0.01614
   7     480.5       72.5325       12.1032       76.2673       88.3706      15.838088       0.01496
   6     533.0       72.0077       13.2408       74.5133       87.7541      15.746384       0.01475
   5     589.8       71.4510       14.4426       72.6544       87.0969      15.645914       0.01491
   4     651.6       70.8639       15.7067       70.6904       86.3970      15.533124       0.01542
   3     718.7       70.2479       17.0311       68.6206       85.6517      15.403838       0.01625
   2     792.3       69.6063       18.4112       66.4479       84.8591      15.252726       0.01733
   1     891.5       68.7733       20.2109       63.5839       83.7947      15.021419       0.01968
   0    1013.0       67.8253       22.2799       60.2428       82.5227      14.697429       0.02250



 Wavenumbers: 22650. - 29000. cm-1, ATM      1
 LEVEL PRESSURE   UPWARD FLUX   DIFDOWN FLUX  DIRDOWN FLUX  DOWNWARD FLUX   NET FLUX    HEATING RATE
          mb          W/m2          W/m2          W/m2        W/m2          W/m2       degree/day
  51    .06700       34.3514        0.0000       38.0063       38.0063       3.654933       0.00000
  50    .07753       34.3512        0.0004       38.0057       38.0061       3.654933       0.00000
  49    .09103       34.3510        0.0009       38.0050       38.0059       3.654933       0.00000
  48    0.1069       34.3507        0.0014       38.0042       38.0057       3.654933       0.00000
  47    0.1255       34.3505        0.0021       38.0033       38.0054       3.654933      -0.00000
  46    0.1487       34.3501        0.0029       38.0022       38.0050       3.654933       0.00000
  45    0.1794       34.3496        0.0040       38.0006       38.0046       3.654933       0.00000
  44    0.2165       34.3491        0.0053       37.9987       38.0040       3.654933       0.00000
  43    0.2613       34.3484        0.0068       37.9965       38.0033       3.654933      -0.00000
  42    0.3336       34.3473        0.0094       37.9928       38.0022       3.654933       0.00000
  41    0.4307       34.3458        0.0128       37.9880       38.0008       3.654933       0.00000
  40    0.5894       34.3434        0.0183       37.9800       37.9984       3.654933       0.00000
  39     1.339       34.3321        0.0446       37.9425       37.9870       3.654933       0.00000
  38     1.782       34.3255        0.0600       37.9204       37.9804       3.654933       0.00000
  37     2.292       34.3178        0.0778       37.8949       37.9727       3.654933       0.00000
  36     2.964       34.2875        0.1479       37.7946       37.9424       3.654933      -0.00000
  35     3.853       34.2666        0.1961       37.7254       37.9216       3.654933      -0.00000
  34     5.035       34.2453        0.2453       37.6549       37.9003       3.654933       0.00000
  33     6.613       34.2199        0.3042       37.5707       37.8748       3.654933      -0.00000
  32     8.786       34.1872        0.3798       37.4623       37.8421       3.654933       0.00000
  31     11.80       34.1414        0.4858       37.3105       37.7963       3.654933       0.00000
  30     15.07       34.0926        0.5984       37.1492       37.7476       3.654933      -0.00000
  29     18.79       34.0379        0.7246       36.9682       37.6929       3.654933       0.00000
  28     23.16       33.9744        0.8713       36.7581       37.6293       3.654933      -0.00000
  27     28.12       33.9022        1.0378       36.5193       37.5571       3.654933      -0.00000
  26     33.73       33.8218        1.2230       36.2538       37.4768       3.654933       0.00000
  25     40.54       33.7254        1.4449       35.9355       37.3804       3.654933       0.00000
  24     48.69       33.6102        1.7099       35.5552       37.2651       3.654933       0.00000
  23     57.69       33.4848        1.9979       35.1419       37.1397       3.654933       0.00000
  22     68.43       33.3371        2.3365       34.6555       36.9921       3.654933       0.00000
  21     81.20       33.1635        2.7339       34.0846       36.8185       3.654933       0.00000
  20     96.49       32.9600        3.1988       33.4162       36.6150       3.654933      -0.00000
  19     114.6       32.7230        3.7387       32.6393       36.3779       3.654933       0.00000
  18     136.5       32.4485        4.3620       31.7414       36.1034       3.654933       0.00000
  17     162.9       32.1304        5.0814       30.7040       35.7853       3.654933      -0.00000
  16     196.4       31.7317        5.9785       29.4081       35.3866       3.654933       0.00000
  15     218.7       31.4781        6.5461       28.5869       35.1330       3.654933      -0.00000
  14     243.0       31.2096        7.1446       27.7199       34.8645       3.654933       0.00000
  13     269.0       30.9267        7.7721       26.8096       34.5817       3.654933       0.00000
  12     297.5       30.6303        8.4263       25.8589       34.2852       3.654933      -0.00000
  11     328.5       30.3201        9.1066       24.8684       33.9750       3.654933       0.00000
  10     361.9       29.9975        9.8093       23.8432       33.6525       3.654933       0.00000
   9     398.1       29.6630       10.5326       22.7853       33.3179       3.654933      -0.00000
   8     437.6       29.3179       11.2722       21.7007       32.9728       3.654933       0.00000
   7     480.5       28.9632       12.0252       20.5930       32.6181       3.654933       0.00000
   6     533.0       28.5472       12.8976       19.3046       32.2022       3.654933       0.00000
   5     589.8       28.1226       13.7754       18.0022       31.7775       3.654933      -0.00000
   4     651.6       27.6918       14.6509       16.6958       31.3467       3.654933      -0.00000
   3     718.7       27.2564       15.5191       15.3922       30.9113       3.654933       0.00000
   2     792.3       26.8199       16.3698       14.1050       30.4748       3.654933      -0.00000
   1     891.5       26.2749       17.4004       12.5295       29.9298       3.654933       0.00000
   0    1013.0       25.6815       18.4744       10.8619       29.3364       3.654933      -0.00000



 Wavenumbers: 29000. - 38000. cm-1, ATM      1
 LEVEL PRESSURE   UPWARD FLUX   DIFDOWN FLUX  DIRDOWN FLUX  DOWNWARD FLUX   NET FLUX    HEATING RATE
          mb          W/m2          W/m2          W/m2        W/m2          W/m2       degree/day
  51    .06700        4.8911        0.0000       13.4026       13.4026       8.511484       0.00000
  50    .07753        4.8909        0.0003       13.3983       13.3986       8.507693       3.03861
  49    .09103        4.8906        0.0007       13.3921       13.3928       8.502184       3.44307
  48    0.1069        4.8903        0.0011       13.3841       13.3851       8.494820       3.92028
  47    0.1255        4.8900        0.0016       13.3734       13.3750       8.484989       4.45664
  46    0.1487        4.8895        0.0022       13.3579       13.3601       8.470571       5.25572
  45    0.1794        4.8890        0.0030       13.3342       13.3372       8.448201       6.14116
  44    0.2165        4.8883        0.0040       13.3025       13.3065       8.418196       6.82545
  43    0.2613        4.8876        0.0052       13.2605       13.2657       8.378143       7.54993
  42    0.3336        4.8863        0.0070       13.1834       13.1905       8.304133       8.62877
  41    0.4307        4.8848        0.0095       13.0730       13.0825       8.197649       9.25853
  40    0.5894        4.8825        0.0134       12.8795       12.8929       8.010447       9.95517
  39     1.339        4.8744        0.0297       11.9153       11.9450       7.070606      10.58091
  38     1.782        4.8714        0.0380       11.4377       11.4757       6.604246       8.87873
  37     2.292        4.8696        0.0468       10.9754       11.0222       6.152676       7.47918
  36     2.964        4.8502        0.0835       10.4281       10.5117       5.661476       6.16604
  35     3.853        4.8448        0.1050        9.8780        9.9830       5.138183       4.96615
  34     5.035        4.8457        0.1243        9.3319        9.4562       4.610517       3.76943
  33     6.613        4.8508        0.1458        8.8071        8.9529       4.102053       2.71825
  32     8.786        4.8589        0.1725        8.3127        8.4853       3.626380       1.84734
  31     11.80        4.8691        0.2089        7.8272        8.0361       3.166978       1.28618
  30     15.07        4.8781        0.2466        7.4509        7.6975       2.819449       0.89725
  29     18.79        4.8865        0.2878        7.1200        7.4078       2.521264       0.67608
  28     23.16        4.8943        0.3343        6.8105        7.1449       2.250614       0.52335
  27     28.12        4.9005        0.3860        6.5241        6.9101       2.009516       0.40985
  26     33.73        4.9029        0.4424        6.2674        6.7098       1.806916       0.30461
  25     40.54        4.9001        0.5091        6.0161        6.5252       1.625072       0.22560
  24     48.69        4.8918        0.5874        5.7643        6.3517       1.459887       0.17094
  23     57.69        4.8779        0.6711        5.5304        6.2015       1.323551       0.12779
  22     68.43        4.8562        0.7680        5.2918        6.0599       1.203631       0.09427
  21     81.20        4.8224        0.8806        5.0518        5.9324       1.110017       0.06186
  20     96.49        4.7751        1.0108        4.8044        5.8152       1.040092       0.03859
  19     114.6        4.7176        1.1583        4.5385        5.6968       0.979148       0.02846
  18     136.5        4.6509        1.3231        4.2498        5.5729       0.921997       0.02198
  17     162.9        4.5744        1.5064        3.9355        5.4419       0.867473       0.01743
  16     196.4        4.4775        1.7258        3.5727        5.2985       0.820986       0.01170
  15     218.7        4.4164        1.8589        3.3566        5.2155       0.799108       0.00831
  14     243.0        4.3528        1.9946        3.1377        5.1323       0.779471       0.00681
  13     269.0        4.2870        2.1318        2.9175        5.0493       0.762302       0.00557
  12     297.5        4.2194        2.2693        2.6976        4.9669       0.747559       0.00437
  11     328.5        4.1508        2.4057        2.4788        4.8845       0.733718       0.00376
  10     361.9        4.0817        2.5396        2.2629        4.8026       0.720821       0.00326
   9     398.1        4.0126        2.6700        2.0514        4.7214       0.708820       0.00280
   8     437.6        3.9438        2.7956        1.8458        4.6413       0.697481       0.00242
   7     480.5        3.8757        2.9154        1.6472        4.5626       0.686902       0.00208
   6     533.0        3.7992        3.0435        1.4313        4.4748       0.675592       0.00182
   5     589.8        3.7248        3.1608        1.2289        4.3897       0.664857       0.00159
   4     651.6        3.6531        3.2656        1.0420        4.3076       0.654590       0.00140
   3     718.7        3.5842        3.3571        0.8719        4.2289       0.644744       0.00124
   2     792.3        3.5184        3.4345        0.7192        4.1537       0.635307       0.00108
   1     891.5        3.4404        3.5110        0.5532        4.0642       0.623876       0.00097
   0    1013.0        3.3599        3.5693        0.4021        3.9713       0.611494       0.00086



 Wavenumbers: 38000. - 50000. cm-1, ATM      1
 LEVEL PRESSURE   UPWARD FLUX   DIFDOWN FLUX  DIRDOWN FLUX  DOWNWARD FLUX   NET FLUX    HEATING RATE
          mb          W/m2          W/m2          W/m2        W/m2          W/m2       degree/day
  51    .06700        0.0056        0.0000        0.8267        0.8267       0.821070       0.00000
  50    .07753        0.0055        0.0001        0.8242        0.8243       0.818737       1.86968
  49    .09103        0.0055        0.0002        0.8207        0.8209       0.815413       2.07745
  48    0.1069        0.0054        0.0002        0.8162        0.8164       0.811054       2.32032
  47    0.1255        0.0053        0.0004        0.8103        0.8106       0.805340       2.59060
  46    0.1487        0.0052        0.0005        0.8018        0.8023       0.797104       3.00210
  45    0.1794        0.0050        0.0007        0.7889        0.7896       0.784547       3.44719
  44    0.2165        0.0048        0.0009        0.7720        0.7729       0.768039       3.75532
  43    0.2613        0.0046        0.0011        0.7500        0.7511       0.746484       4.06292
  42    0.3336        0.0043        0.0015        0.7106        0.7121       0.707792       4.51112
  41    0.4307        0.0040        0.0019        0.6566        0.6584       0.654492       4.63430
  40    0.5894        0.0034        0.0024        0.5680        0.5704       0.566975       4.65406
  39     1.339        0.0020        0.0030        0.2422        0.2452       0.243163       3.64554
  38     1.782        0.0016        0.0026        0.1493        0.1519       0.150279       1.76836
  37     2.292        0.0014        0.0022        0.0924        0.0946       0.093197       0.94543
  36     2.964        0.0006        0.0023        0.0529        0.0552       0.054601       0.48450
  35     3.853        0.0003        0.0018        0.0287        0.0305       0.030180       0.23176
  34     5.035        0.0002        0.0013        0.0149        0.0162       0.016059       0.10087
  33     6.613        0.0001        0.0009        0.0071        0.0080       0.007898       0.04363
  32     8.786        0.0000        0.0006        0.0029        0.0035       0.003418       0.01740
  31     11.80        0.0000        0.0003        0.0009        0.0012       0.001230       0.00613
  30     15.07        0.0000        0.0002        0.0003        0.0005       0.000484       0.00192
  29     18.79        0.0000        0.0001        0.0001        0.0002       0.000195       0.00066
  28     23.16        0.0000        0.0000        0.0000        0.0001       0.000077       0.00023
  27     28.12        0.0000        0.0000        0.0000        0.0000       0.000031       0.00008
  26     33.73        0.0000        0.0000        0.0000        0.0000       0.000013       0.00003
  25     40.54        0.0000        0.0000        0.0000        0.0000       0.000005       0.00001
  24     48.69        0.0000        0.0000        0.0000        0.0000       0.000002       0.00000
  23     57.69        0.0000        0.0000        0.0000        0.0000       0.000001       0.00000
  22     68.43        0.0000        0.0000        0.0000        0.0000       0.000000       0.00000
  21     81.20        0.0000        0.0000        0.0000        0.0000       0.000000       0.00000
  20     96.49        0.0000        0.0000        0.0000        0.0000       0.000000       0.00000
  19     114.6        0.0000        0.0000        0.0000        0.0000       0.000000       0.00000
  18     136.5        0.0000        0.0000        0.0000        0.0000       0.000000       0.00000
  17     162.9        0.0000        0.0000        0.0000        0.0000       0.000000       0.00000
  16     196.4        0.0000        0.0000        0.0000        0.0000       0.000000       0.00000
  15     218.7        0.0000        0.0000        0.0000        0.0000       0.000000       0.00000
  14     243.0        0.0000        0.0000        0.0000        0.0000       0.000000       0.00000
  13     269.0        0.0000        0.0000        0.0000        0.0000       0.000000       0.00000
  12     297.5        0.0000        0.0000        0.0000        0.0000       0.000000       0.00000
  11     328.5        0.0000        0.0000        0.0000        0.0000       0.000000       0.00000
  10     361.9        0.0000        0.0000        0.0000        0.0000       0.000000       0.00000
   9     398.1        0.0000        0.0000        0.0000        0.0000       0.000000       0.00000
   8     437.6        0.0000        0.0000        0.0000        0.0000       0.000000       0.00000
   7     480.5        0.0000        0.0000        0.0000        0.0000       0.000000       0.00000
   6     533.0        0.0000        0.0000        0.0000        0.0000       0.000000       0.00000
   5     589.8        0.0000        0.0000        0.0000        0.0000       0.000000       0.00000
   4     651.6        0.0000        0.0000        0.0000        0.0000       0.000000       0.00000
   3     718.7        0.0000        0.0000        0.0000        0.0000       0.000000       0.00000
   2     792.3        0.0000        0.0000        0.0000        0.0000       0.000000       0.00000
   1     891.5        0.0000        0.0000        0.0000        0.0000       0.000000       0.00000
   0    1013.0        0.0000        0.0000        0.0000        0.0000       0.000000       0.00000



 Wavenumbers:   820. -  2600. cm-1, ATM      1
 LEVEL PRESSURE   UPWARD FLUX   DIFDOWN FLUX  DIRDOWN FLUX  DOWNWARD FLUX   NET FLUX    HEATING RATE
          mb          W/m2          W/m2          W/m2        W/m2          W/m2       degree/day
  51    .06700        0.0521        0.0000        3.8670        3.8670       3.814892       0.00000
  50    .07753        0.0521        0.0000        3.8644        3.8644       3.812293       2.08287
  49    .09103        0.0521        0.0000        3.8638        3.8638       3.811623       0.41878
  48    0.1069        0.0521        0.0000        3.8630        3.8630       3.810874       0.39874
  47    0.1255        0.0521        0.0000        3.8622        3.8622       3.810061       0.36879
  46    0.1487        0.0521        0.0000        3.8613        3.8613       3.809133       0.33798
  45    0.1794        0.0521        0.0000        3.8602        3.8602       3.808024       0.30446
  44    0.2165        0.0521        0.0000        3.8590        3.8590       3.806890       0.25804
  43    0.2613        0.0521        0.0000        3.8579        3.8579       3.805731       0.21851
  42    0.3336        0.0521        0.0000        3.8562        3.8562       3.804046       0.19646
  41    0.4307        0.0521        0.0000        3.8540        3.8540       3.801880       0.18827
  40    0.5894        0.0521        0.0000        3.8505        3.8505       3.798392       0.18550
  39     1.339        0.0521        0.0000        3.8352        3.8352       3.783042       0.17281
  38     1.782        0.0521        0.0000        3.8267        3.8267       3.774563       0.16143
  37     2.292        0.0521        0.0000        3.8172        3.8172       3.765044       0.15766
  36     2.964        0.0620        0.0000        0.7016        0.7016       0.639596      39.23382
  35     3.853        0.0661        0.0000        0.6232        0.6232       0.557095       0.78295
  34     5.035        0.0682        0.0000        0.5901        0.5901       0.521881       0.25155
  33     6.613        0.0694        0.0000        0.5737        0.5737       0.504357       0.09368
  32     8.786        0.0700        0.0000        0.5649        0.5649       0.494958       0.03651
  31     11.80        0.0704        0.0000        0.5595        0.5595       0.489151       0.01626
  30     15.07        0.0706        0.0000        0.5566        0.5566       0.486018       0.00809
  29     18.79        0.0707        0.0000        0.5547        0.5547       0.484012       0.00455
  28     23.16        0.0708        0.0000        0.5533        0.5533       0.482506       0.00291
  27     28.12        0.0709        0.0000        0.5523        0.5523       0.481389       0.00190
  26     33.73        0.0710        0.0000        0.5515        0.5515       0.480551       0.00126
  25     40.54        0.0710        0.0000        0.5509        0.5509       0.479842       0.00088
  24     48.69        0.0711        0.0000        0.5502        0.5502       0.479163       0.00070
  23     57.69        0.0711        0.0000        0.5496        0.5496       0.478536       0.00059
  22     68.43        0.0712        0.0000        0.5491        0.5491       0.477905       0.00050
  21     81.20        0.0712        0.0000        0.5485        0.5485       0.477270       0.00042
  20     96.49        0.0712        0.0000        0.5479        0.5479       0.476630       0.00035
  19     114.6        0.0713        0.0000        0.5473        0.5473       0.476019       0.00029
  18     136.5        0.0713        0.0000        0.5467        0.5467       0.475379       0.00025
  17     162.9        0.0714        0.0000        0.5462        0.5462       0.474789       0.00019
  16     196.4        0.0714        0.0000        0.5457        0.5457       0.474307       0.00012
  15     218.7        0.0714        0.0000        0.5456        0.5456       0.474148       0.00006
  14     243.0        0.0714        0.0000        0.5454        0.5454       0.474028       0.00004
  13     269.0        0.0714        0.0000        0.5453        0.5454       0.473924       0.00003
  12     297.5        0.0714        0.0000        0.5452        0.5452       0.473799       0.00004
  11     328.5        0.0714        0.0000        0.5450        0.5451       0.473606       0.00005
  10     361.9        0.0715        0.0000        0.5447        0.5447       0.473276       0.00008
   9     398.1        0.0715        0.0000        0.5442        0.5442       0.472714       0.00013
   8     437.6        0.0716        0.0000        0.5433        0.5434       0.471780       0.00020
   7     480.5        0.0717        0.0000        0.5420        0.5420       0.470295       0.00029
   6     533.0        0.0719        0.0000        0.5394        0.5394       0.467477       0.00045
   5     589.8        0.0722        0.0000        0.5353        0.5353       0.463115       0.00065
   4     651.6        0.0727        0.0000        0.5285        0.5285       0.455756       0.00101
   3     718.7        0.0736        0.0000        0.5175        0.5176       0.443919       0.00149
   2     792.3        0.0750        0.0000        0.5011        0.5012       0.426122       0.00204
   1     891.5        0.0778        0.0000        0.4711        0.4711       0.393304       0.00279
   0    1013.0        0.0826        0.0000        0.4249        0.4249       0.342246       0.00355

  Modules and versions used in this calculation:

       rrtmg_sw.1col.f90:  $Revision$                    rrtmg_sw_init.f90:  $Revision$        
     rrtmgsw_cldprop.f90:  $Revision$                  rrtmgsw_cldprmc.f90:  NOT USED          
     rrtmg_sw_reftra.f90:  $Revision$                  rrtmg_sw_spcvrt.f90:  NOT USED          
     rrtmg_sw_spcvmc.f90:  NOT USED                    rrtmgsw_setcoef.f90:  NOT USED          
     rrtmg_sw_taumol.f90:  $Revision$                  rrtmg_sw_vrtqdr.f90:  NOT USED          
                rrtatm.f:  NOT USED                             util_xxx.f:  NOT USED          
                 extra.f:  NOT USED                       rrtmg_sw_k_g.f90:  $Revision$        

