

 Wavenumbers:   820. - 50000. cm-1, ATM      1
 LEVEL PRESSURE   UPWARD FLUX   DIFDOWN FLUX  DIRDOWN FLUX  DOWNWARD FLUX   NET FLUX    HEATING RATE
          mb          W/m2          W/m2          W/m2        W/m2          W/m2       degree/day
  51    .06700      181.6057        0.0000      397.8738      397.8738     216.268089       0.00000
  50    .07753      181.6051        0.0011      397.8580      397.8591     216.254034      11.26544
  49    .09103      181.6043        0.0026      397.8425      397.8450     216.240759       8.29711
  48    0.1069      181.6034        0.0042      397.8240      397.8283     216.224850       8.46849
  47    0.1255      181.6024        0.0061      397.8012      397.8073     216.204867       9.05964
  46    0.1487      181.6012        0.0085      397.7697      397.7782     216.176980      10.16506
  45    0.1794      181.5996        0.0118      397.7232      397.7350     216.135418      11.40958
  44    0.2165      181.5978        0.0156      397.6637      397.6793     216.081575      12.24834
  43    0.2613      181.5957        0.0202      397.5873      397.6074     216.011761      13.15965
  42    0.3336      181.5924        0.0276      397.4509      397.4785     215.886087      14.65237
  41    0.4307      181.5883        0.0374      397.2603      397.2977     215.709414      15.36133
  40    0.5894      181.5823        0.0531      396.9366      396.9897     215.407414      16.06000
  39     1.339      181.5641        0.1233      395.4503      395.5736     214.009431      15.73875
  38     1.782      181.5605        0.1626      394.7605      394.9231     213.362601      12.31459
  37     2.292      181.5626        0.2073      394.0954      394.3027     212.740146      10.30948
  36     2.964      181.5682        0.3058      383.9707      384.2765     202.708253     125.93058
  35     3.853      181.5950        0.3960      382.1652      382.5612     200.966182      16.53257
  34     5.035      181.6442        0.5022      380.7559      381.2581     199.613821       9.66071
  33     6.613      181.7169        0.6372      379.4339      380.0711     198.354184       6.73402
  32     8.786      181.8099        0.8150      378.0829      378.8978     197.087972       4.91751
  31     11.80      181.9220        1.0659      376.5514      377.6173     195.695260       3.89915
  30     15.07      182.0181        1.3326      375.1754      376.5079     194.489884       3.11205
  29     18.79      182.1050        1.6312      373.8073      375.4385     193.333492       2.62190
  28     23.16      182.1816        1.9770      372.3737      374.3507     192.169091       2.25158
  27     28.12      182.2401        2.3691      370.8966      373.2657     191.025586       1.94388
  26     33.73      182.2628        2.8047      369.4278      372.2325     189.969734       1.58750
  25     40.54      182.2406        3.3268      367.8463      371.1732     188.932562       1.28673
  24     48.69      182.1667        3.9507      366.1164      370.0671     187.900376       1.06815
  23     57.69      182.0404        4.6293      364.3782      369.0075     186.967142       0.87477
  22     68.43      181.8416        5.4291      362.4778      367.9068     186.065223       0.70903
  21     81.20      181.5378        6.3714      360.4319      366.8032     185.265419       0.52850
  20     96.49      181.1156        7.4795      358.2015      365.6810     184.565336       0.38640
  19     114.6      180.5960        8.7730      355.5046      364.2776     183.681576       0.41265
  18     136.5      179.9684       10.2742      352.4950      362.7692     182.800784       0.33869
  17     162.9      179.2157       12.0186      349.0977      361.1162     181.900494       0.28777
  16     196.4      178.2182       14.2158      344.9659      359.1817     180.963583       0.23583
  15     218.7      177.5610       15.6196      342.3770      357.9967     180.435650       0.20044
  14     243.0      176.8517       17.1121      339.6452      356.7573     179.905598       0.18384
  13     269.0      176.0893       18.6916      336.7604      355.4519     179.362678       0.17612
  12     297.5      175.2741       20.3558      333.6803      354.0360     178.761907       0.17818
  11     328.5      174.4087       22.1060      330.3127      352.4187     178.010054       0.20443
  10     361.9      173.4953       23.9369      326.5722      350.5091     177.013787       0.25207
   9     398.1      172.5343       25.8482      322.3603      348.2086     175.674304       0.31207
   8     437.6      171.5295       27.8347      317.5708      345.4055     173.875979       0.38449
   7     480.5      170.4852       29.8915      312.0869      341.9784     171.493155       0.46798
   6     533.0      169.2495       32.3270      304.8623      337.1893     167.939754       0.57163
   5     589.8      167.9823       34.8387      296.8624      331.7012     163.718895       0.62651
   4     651.6      166.6992       37.4161      288.3213      325.7374     159.038127       0.64011
   3     718.7      165.4222       40.0493      279.3869      319.4362     154.014065       0.63139
   2     792.3      164.1873       42.7226      270.1413      312.8639     148.676589       0.61215
   1     891.5      162.7682       46.1098      258.3605      304.4703     141.702124       0.59349
   0    1013.0      161.5532       49.8693      245.0525      294.9217     133.368531       0.57864



 Wavenumbers:  2600. -  3250. cm-1, ATM      1
 LEVEL PRESSURE   UPWARD FLUX   DIFDOWN FLUX  DIRDOWN FLUX  DOWNWARD FLUX   NET FLUX    HEATING RATE
          mb          W/m2          W/m2          W/m2        W/m2          W/m2       degree/day
  51    .06700        0.4687        0.0000        3.5066        3.5066       3.037879       0.00000
  50    .07753        0.4687        0.0000        3.5066        3.5066       3.037871       0.00640
  49    .09103        0.4687        0.0000        3.5066        3.5066       3.037861       0.00627
  48    0.1069        0.4687        0.0000        3.5066        3.5066       3.037850       0.00613
  47    0.1255        0.4687        0.0000        3.5066        3.5066       3.037837       0.00599
  46    0.1487        0.4687        0.0000        3.5066        3.5066       3.037820       0.00607
  45    0.1794        0.4687        0.0000        3.5065        3.5065       3.037797       0.00624
  44    0.2165        0.4687        0.0000        3.5065        3.5065       3.037770       0.00611
  43    0.2613        0.4687        0.0000        3.5065        3.5065       3.037739       0.00598
  42    0.3336        0.4687        0.0000        3.5064        3.5064       3.037686       0.00615
  41    0.4307        0.4687        0.0000        3.5064        3.5064       3.037615       0.00617
  40    0.5894        0.4687        0.0000        3.5062        3.5062       3.037496       0.00633
  39     1.339        0.4687        0.0000        3.5055        3.5055       3.036797       0.00787
  38     1.782        0.4687        0.0000        3.5050        3.5050       3.036266       0.01010
  37     2.292        0.4687        0.0000        3.5043        3.5043       3.035574       0.01147
  36     2.964        0.4687        0.0000        3.5033        3.5033       3.034584       0.01243
  35     3.853        0.4687        0.0000        3.5019        3.5019       3.033206       0.01307
  34     5.035        0.4687        0.0000        3.5001        3.5001       3.031343       0.01331
  33     6.613        0.4687        0.0000        3.4977        3.4977       3.028930       0.01290
  32     8.786        0.4687        0.0000        3.4947        3.4947       3.025951       0.01157
  31     11.80        0.4687        0.0000        3.4910        3.4910       3.022307       0.01020
  30     15.07        0.4687        0.0000        3.4878        3.4878       3.019077       0.00834
  29     18.79        0.4687        0.0000        3.4847        3.4847       3.015998       0.00698
  28     23.16        0.4687        0.0000        3.4815        3.4815       3.012755       0.00627
  27     28.12        0.4687        0.0000        3.4778        3.4779       3.009110       0.00620
  26     33.73        0.4687        0.0000        3.4733        3.4734       3.004613       0.00676
  25     40.54        0.4687        0.0000        3.4670        3.4670       2.998248       0.00790
  24     48.69        0.4688        0.0000        3.4580        3.4580       2.989288       0.00927
  23     57.69        0.4688        0.0000        3.4469        3.4469       2.978140       0.01045
  22     68.43        0.4688        0.0000        3.4324        3.4325       2.963698       0.01135
  21     81.20        0.4688        0.0000        3.4145        3.4146       2.945756       0.01186
  20     96.49        0.4688        0.0000        3.3932        3.3932       2.924391       0.01179
  19     114.6        0.4689        0.0000        3.3542        3.3542       2.885317       0.01824
  18     136.5        0.4691        0.0001        3.3174        3.3175       2.848421       0.01419
  17     162.9        0.4693        0.0001        3.2830        3.2831       2.813822       0.01106
  16     196.4        0.4695        0.0001        3.2480        3.2481       2.778587       0.00887
  15     218.7        0.4697        0.0001        3.2290        3.2291       2.759419       0.00728
  14     243.0        0.4699        0.0001        3.2106        3.2107       2.740752       0.00647
  13     269.0        0.4701        0.0001        3.1917        3.1918       2.721685       0.00619
  12     297.5        0.4705        0.0001        3.1705        3.1706       2.700127       0.00639
  11     328.5        0.4709        0.0001        3.1442        3.1443       2.673447       0.00725
  10     361.9        0.4715        0.0001        3.1110        3.1111       2.639631       0.00856
   9     398.1        0.4722        0.0001        3.0679        3.0680       2.595802       0.01021
   8     437.6        0.4733        0.0002        3.0116        3.0118       2.538493       0.01225
   7     480.5        0.4748        0.0002        2.9386        2.9388       2.463981       0.01463
   6     533.0        0.4772        0.0002        2.8301        2.8303       2.353066       0.01784
   5     589.8        0.4807        0.0002        2.6994        2.6996       2.218966       0.01990
   4     651.6        0.4855        0.0002        2.5550        2.5552       2.069682       0.02042
   3     718.7        0.4924        0.0002        2.4028        2.4031       1.910701       0.01998
   2     792.3        0.5020        0.0002        2.2468        2.2470       1.744932       0.01901
   1     891.5        0.5199        0.0002        2.0459        2.0462       1.526212       0.01861
   0    1013.0        0.5525        0.0002        1.8113        1.8116       1.259059       0.01855



 Wavenumbers:  3250. -  4000. cm-1, ATM      1
 LEVEL PRESSURE   UPWARD FLUX   DIFDOWN FLUX  DIRDOWN FLUX  DOWNWARD FLUX   NET FLUX    HEATING RATE
          mb          W/m2          W/m2          W/m2        W/m2          W/m2       degree/day
  51    .06700        0.0287        0.0000        5.9117        5.9117       5.882946       0.00000
  50    .07753        0.0287        0.0000        5.9075        5.9075       5.878783       3.33611
  49    .09103        0.0287        0.0000        5.9052        5.9052       5.876494       1.43070
  48    0.1069        0.0287        0.0000        5.9035        5.9035       5.874781       0.91190
  47    0.1255        0.0287        0.0000        5.9019        5.9019       5.873161       0.73438
  46    0.1487        0.0287        0.0000        5.9001        5.9001       5.871426       0.63248
  45    0.1794        0.0287        0.0000        5.8982        5.8982       5.869450       0.54263
  44    0.2165        0.0287        0.0000        5.8962        5.8962       5.867502       0.44316
  43    0.2613        0.0287        0.0000        5.8943        5.8943       5.865552       0.36742
  42    0.3336        0.0287        0.0000        5.8915        5.8915       5.862796       0.32131
  41    0.4307        0.0287        0.0000        5.8881        5.8881       5.859423       0.29332
  40    0.5894        0.0287        0.0000        5.8830        5.8830       5.854317       0.27154
  39     1.339        0.0287        0.0000        5.8641        5.8641       5.835397       0.21300
  38     1.782        0.0287        0.0000        5.8561        5.8561       5.827407       0.15212
  37     2.292        0.0287        0.0000        5.8483        5.8483       5.819620       0.12897
  36     2.964        0.0288        0.0000        3.8641        3.8641       3.835334      24.90878
  35     3.853        0.0288        0.0000        3.5809        3.5809       3.552095       2.68799
  34     5.035        0.0288        0.0000        3.4498        3.4498       3.420973       0.93668
  33     6.613        0.0288        0.0000        3.3741        3.3741       3.345296       0.40457
  32     8.786        0.0288        0.0000        3.3243        3.3243       3.295482       0.19346
  31     11.80        0.0288        0.0000        3.2851        3.2851       3.256253       0.10983
  30     15.07        0.0288        0.0000        3.2579        3.2579       3.229045       0.07025
  29     18.79        0.0288        0.0000        3.2356        3.2356       3.206752       0.05054
  28     23.16        0.0288        0.0000        3.2143        3.2143       3.185456       0.04118
  27     28.12        0.0288        0.0000        3.1939        3.1940       3.165134       0.03455
  26     33.73        0.0288        0.0000        3.1743        3.1743       3.145486       0.02954
  25     40.54        0.0288        0.0000        3.1541        3.1542       3.125336       0.02500
  24     48.69        0.0288        0.0000        3.1311        3.1312       3.102338       0.02380
  23     57.69        0.0288        0.0000        3.1062        3.1062       3.077429       0.02335
  22     68.43        0.0288        0.0001        3.0770        3.0770       3.048234       0.02295
  21     81.20        0.0288        0.0001        3.0430        3.0430       3.014240       0.02246
  20     96.49        0.0288        0.0001        3.0043        3.0044       2.975607       0.02132
  19     114.6        0.0288        0.0001        2.9604        2.9605       2.931701       0.02050
  18     136.5        0.0288        0.0001        2.9113        2.9114       2.882633       0.01887
  17     162.9        0.0288        0.0001        2.8570        2.8571       2.828362       0.01735
  16     196.4        0.0288        0.0001        2.7923        2.7924       2.763642       0.01629
  15     218.7        0.0288        0.0002        2.7527        2.7529       2.724123       0.01500
  14     243.0        0.0288        0.0002        2.7122        2.7124       2.683629       0.01404
  13     269.0        0.0287        0.0002        2.6686        2.6688       2.640041       0.01414
  12     297.5        0.0287        0.0002        2.6136        2.6138       2.585093       0.01630
  11     328.5        0.0287        0.0002        2.5343        2.5345       2.505781       0.02156
  10     361.9        0.0288        0.0002        2.4204        2.4206       2.391857       0.02882
   9     398.1        0.0288        0.0002        2.2684        2.2686       2.239828       0.03542
   8     437.6        0.0289        0.0002        2.0807        2.0810       2.052047       0.04015
   7     480.5        0.0291        0.0002        1.8641        1.8643       1.835194       0.04259
   6     533.0        0.0295        0.0002        1.5938        1.5940       1.564472       0.04355
   5     589.8        0.0303        0.0002        1.3274        1.3277       1.297386       0.03964
   4     651.6        0.0315        0.0002        1.0775        1.0777       1.046230       0.03435
   3     718.7        0.0336        0.0002        0.8446        0.8448       0.811275       0.02953
   2     792.3        0.0370        0.0002        0.6267        0.6268       0.589829       0.02540
   1     891.5        0.0448        0.0001        0.3987        0.3988       0.354018       0.02007
   0    1013.0        0.0636        0.0001        0.2084        0.2085       0.144919       0.01452



 Wavenumbers:  4000. -  4650. cm-1, ATM      1
 LEVEL PRESSURE   UPWARD FLUX   DIFDOWN FLUX  DIRDOWN FLUX  DOWNWARD FLUX   NET FLUX    HEATING RATE
          mb          W/m2          W/m2          W/m2        W/m2          W/m2       degree/day
  51    .06700        1.4635        0.0000        6.9421        6.9421       5.478588       0.00000
  50    .07753        1.4635        0.0000        6.9421        6.9421       5.478587       0.00081
  49    .09103        1.4635        0.0000        6.9421        6.9421       5.478586       0.00080
  48    0.1069        1.4635        0.0000        6.9421        6.9421       5.478584       0.00078
  47    0.1255        1.4635        0.0000        6.9421        6.9421       5.478583       0.00076
  46    0.1487        1.4635        0.0000        6.9421        6.9421       5.478581       0.00077
  45    0.1794        1.4635        0.0000        6.9421        6.9421       5.478578       0.00079
  44    0.2165        1.4635        0.0000        6.9421        6.9421       5.478574       0.00078
  43    0.2613        1.4635        0.0000        6.9421        6.9421       5.478570       0.00076
  42    0.3336        1.4635        0.0000        6.9420        6.9420       5.478564       0.00079
  41    0.4307        1.4635        0.0000        6.9420        6.9420       5.478555       0.00079
  40    0.5894        1.4635        0.0000        6.9420        6.9420       5.478539       0.00081
  39     1.339        1.4635        0.0000        6.9419        6.9419       5.478448       0.00103
  38     1.782        1.4635        0.0000        6.9418        6.9419       5.478377       0.00136
  37     2.292        1.4635        0.0000        6.9417        6.9418       5.478281       0.00159
  36     2.964        1.4635        0.0000        6.9416        6.9416       5.478138       0.00179
  35     3.853        1.4635        0.0000        6.9414        6.9414       5.477927       0.00201
  34     5.035        1.4635        0.0000        6.9411        6.9411       5.477615       0.00223
  33     6.613        1.4635        0.0000        6.9406        6.9406       5.477156       0.00245
  32     8.786        1.4635        0.0000        6.9399        6.9399       5.476479       0.00263
  31     11.80        1.4634        0.0000        6.9388        6.9389       5.475418       0.00297
  30     15.07        1.4634        0.0001        6.9376        6.9376       5.474176       0.00321
  29     18.79        1.4634        0.0001        6.9360        6.9361       5.472679       0.00339
  28     23.16        1.4634        0.0001        6.9342        6.9342       5.470826       0.00358
  27     28.12        1.4634        0.0001        6.9319        6.9320       5.468591       0.00380
  26     33.73        1.4634        0.0001        6.9291        6.9293       5.465846       0.00413
  25     40.54        1.4634        0.0002        6.9254        6.9255       5.462142       0.00460
  24     48.69        1.4634        0.0002        6.9204        6.9206       5.457234       0.00508
  23     57.69        1.4634        0.0002        6.9146        6.9149       5.451448       0.00542
  22     68.43        1.4634        0.0003        6.9074        6.9077       5.444246       0.00566
  21     81.20        1.4635        0.0003        6.8986        6.8989       5.435430       0.00583
  20     96.49        1.4635        0.0004        6.8879        6.8883       5.424763       0.00589
  19     114.6        1.4637        0.0004        6.8660        6.8665       5.402790       0.01026
  18     136.5        1.4640        0.0005        6.8434        6.8439       5.379973       0.00877
  17     162.9        1.4643        0.0006        6.8185        6.8191       5.354793       0.00805
  16     196.4        1.4648        0.0007        6.7877        6.7885       5.323624       0.00785
  15     218.7        1.4652        0.0008        6.7680        6.7689       5.303648       0.00758
  14     243.0        1.4656        0.0009        6.7469        6.7478       5.282176       0.00745
  13     269.0        1.4662        0.0010        6.7239        6.7250       5.258791       0.00759
  12     297.5        1.4668        0.0011        6.6981        6.6992       5.232415       0.00782
  11     328.5        1.4677        0.0012        6.6676        6.6688       5.201180       0.00849
  10     361.9        1.4688        0.0013        6.6306        6.6320       5.163216       0.00961
   9     398.1        1.4703        0.0015        6.5851        6.5866       5.116308       0.01093
   8     437.6        1.4723        0.0016        6.5278        6.5295       5.057179       0.01264
   7     480.5        1.4750        0.0018        6.4548        6.4565       4.981531       0.01486
   6     533.0        1.4792        0.0019        6.3478        6.3497       4.870490       0.01786
   5     589.8        1.4847        0.0021        6.2220        6.2241       4.739451       0.01945
   4     651.6        1.4919        0.0023        6.0834        6.0857       4.593748       0.01993
   3     718.7        1.5016        0.0025        5.9308        5.9332       4.431597       0.02038
   2     792.3        1.5149        0.0026        5.7561        5.7588       4.243854       0.02153
   1     891.5        1.5391        0.0029        5.5027        5.5056       3.966472       0.02360
   0    1013.0        1.5829        0.0031        5.1873        5.1904       3.607524       0.02492



 Wavenumbers:  4650. -  5150. cm-1, ATM      1
 LEVEL PRESSURE   UPWARD FLUX   DIFDOWN FLUX  DIRDOWN FLUX  DOWNWARD FLUX   NET FLUX    HEATING RATE
          mb          W/m2          W/m2          W/m2        W/m2          W/m2       degree/day
  51    .06700        0.9952        0.0000        6.5710        6.5710       5.575763       0.00000
  50    .07753        0.9952        0.0000        6.5708        6.5708       5.575532       0.18502
  49    .09103        0.9952        0.0000        6.5705        6.5705       5.575244       0.17986
  48    0.1069        0.9952        0.0000        6.5701        6.5701       5.574916       0.17441
  47    0.1255        0.9952        0.0000        6.5698        6.5698       5.574544       0.16884
  46    0.1487        0.9952        0.0000        6.5693        6.5693       5.574080       0.16912
  45    0.1794        0.9952        0.0000        6.5687        6.5687       5.573457       0.17113
  44    0.2165        0.9952        0.0000        6.5680        6.5680       5.572734       0.16444
  43    0.2613        0.9952        0.0000        6.5671        6.5671       5.571898       0.15751
  42    0.3336        0.9952        0.0000        6.5658        6.5658       5.570562       0.15573
  41    0.4307        0.9952        0.0000        6.5641        6.5641       5.568870       0.14713
  40    0.5894        0.9952        0.0000        6.5615        6.5615       5.566300       0.13670
  39     1.339        0.9952        0.0000        6.5519        6.5519       5.556689       0.10819
  38     1.782        0.9952        0.0000        6.5477        6.5477       5.552525       0.07929
  37     2.292        0.9952        0.0000        6.5439        6.5439       5.548656       0.06408
  36     2.964        0.9952        0.0000        6.5399        6.5399       5.544683       0.04987
  35     3.853        0.9952        0.0000        6.5359        6.5359       5.540690       0.03789
  34     5.035        0.9952        0.0000        6.5318        6.5318       5.536625       0.02904
  33     6.613        0.9952        0.0000        6.5273        6.5274       5.532174       0.02380
  32     8.786        0.9952        0.0001        6.5218        6.5218       5.526641       0.02149
  31     11.80        0.9952        0.0001        6.5136        6.5137       5.518526       0.02272
  30     15.07        0.9952        0.0001        6.5042        6.5043       5.509127       0.02427
  29     18.79        0.9952        0.0001        6.4926        6.4927       5.497579       0.02618
  28     23.16        0.9952        0.0001        6.4780        6.4781       5.482948       0.02829
  27     28.12        0.9952        0.0002        6.4600        6.4601       5.464971       0.03056
  26     33.73        0.9952        0.0002        6.4385        6.4387       5.443574       0.03217
  25     40.54        0.9952        0.0002        6.4115        6.4117       5.416532       0.03355
  24     48.69        0.9952        0.0003        6.3779        6.3782       5.383015       0.03469
  23     57.69        0.9952        0.0003        6.3409        6.3412       5.346041       0.03466
  22     68.43        0.9952        0.0004        6.2978        6.2982       5.302957       0.03387
  21     81.20        0.9953        0.0005        6.2491        6.2495       5.254196       0.03222
  20     96.49        0.9954        0.0005        6.1957        6.1962       5.200797       0.02947
  19     114.6        0.9956        0.0006        6.1357        6.1363       5.140663       0.02808
  18     136.5        0.9959        0.0008        6.0736        6.0744       5.078426       0.02393
  17     162.9        0.9964        0.0009        6.0080        6.0089       5.012495       0.02107
  16     196.4        0.9970        0.0011        5.9295        5.9306       4.933569       0.01987
  15     218.7        0.9975        0.0012        5.8794        5.8805       4.883040       0.01918
  14     243.0        0.9981        0.0013        5.8247        5.8260       4.827911       0.01912
  13     269.0        0.9988        0.0014        5.7646        5.7661       4.767289       0.01967
  12     297.5        0.9996        0.0016        5.6977        5.6993       4.699701       0.02005
  11     328.5        1.0007        0.0017        5.6221        5.6238       4.623110       0.02082
  10     361.9        1.0020        0.0019        5.5361        5.5379       4.535882       0.02207
   9     398.1        1.0038        0.0020        5.4381        5.4402       4.436337       0.02319
   8     437.6        1.0062        0.0022        5.3260        5.3281       4.321918       0.02446
   7     480.5        1.0093        0.0023        5.1990        5.2014       4.192050       0.02551
   6     533.0        1.0141        0.0025        5.0350        5.0375       4.023448       0.02712
   5     589.8        1.0204        0.0027        4.8539        4.8566       3.836159       0.02780
   4     651.6        1.0288        0.0029        4.6598        4.6628       3.633937       0.02765
   3     718.7        1.0399        0.0031        4.4563        4.4594       3.419418       0.02696
   2     792.3        1.0548        0.0033        4.2457        4.2490       3.194201       0.02583
   1     891.5        1.0805        0.0035        3.9775        3.9810       2.900469       0.02500
   0    1013.0        1.1231        0.0037        3.6791        3.6828       2.559750       0.02366



 Wavenumbers:  5150. -  6150. cm-1, ATM      1
 LEVEL PRESSURE   UPWARD FLUX   DIFDOWN FLUX  DIRDOWN FLUX  DOWNWARD FLUX   NET FLUX    HEATING RATE
          mb          W/m2          W/m2          W/m2        W/m2          W/m2       degree/day
  51    .06700        2.5824        0.0000       16.4735       16.4735      13.891142       0.00000
  50    .07753        2.5824        0.0000       16.4735       16.4735      13.891142       0.00019
  49    .09103        2.5824        0.0000       16.4735       16.4735      13.891142       0.00019
  48    0.1069        2.5824        0.0000       16.4735       16.4735      13.891141       0.00018
  47    0.1255        2.5824        0.0000       16.4735       16.4735      13.891141       0.00018
  46    0.1487        2.5824        0.0000       16.4735       16.4735      13.891140       0.00018
  45    0.1794        2.5824        0.0000       16.4735       16.4735      13.891140       0.00019
  44    0.2165        2.5824        0.0000       16.4735       16.4735      13.891139       0.00018
  43    0.2613        2.5824        0.0000       16.4735       16.4735      13.891138       0.00018
  42    0.3336        2.5824        0.0000       16.4735       16.4735      13.891136       0.00019
  41    0.4307        2.5824        0.0000       16.4735       16.4735      13.891134       0.00019
  40    0.5894        2.5824        0.0000       16.4735       16.4735      13.891131       0.00019
  39     1.339        2.5823        0.0000       16.4734       16.4734      13.891109       0.00025
  38     1.782        2.5823        0.0000       16.4734       16.4734      13.891092       0.00033
  37     2.292        2.5823        0.0001       16.4733       16.4734      13.891069       0.00038
  36     2.964        2.5833        0.0001       14.8044       14.8045      12.221190      20.96202
  35     3.853        2.5837        0.0001       14.5520       14.5522      11.968412       2.39891
  34     5.035        2.5840        0.0001       14.4243       14.4245      11.840426       0.91427
  33     6.613        2.5842        0.0002       14.3492       14.3494      11.765146       0.40245
  32     8.786        2.5843        0.0002       14.3002       14.3004      11.716097       0.19049
  31     11.80        2.5844        0.0003       14.2627       14.2630      11.678549       0.10512
  30     15.07        2.5845        0.0004       14.2376       14.2380      11.653507       0.06465
  29     18.79        2.5845        0.0005       14.2181       14.2185      11.634029       0.04416
  28     23.16        2.5845        0.0006       14.2004       14.2010      11.616460       0.03397
  27     28.12        2.5845        0.0007       14.1848       14.1854      11.600885       0.02648
  26     33.73        2.5846        0.0008       14.1707       14.1715      11.586918       0.02100
  25     40.54        2.5846        0.0010       14.1562       14.1572      11.572622       0.01774
  24     48.69        2.5846        0.0011       14.1397       14.1408      11.556209       0.01699
  23     57.69        2.5847        0.0013       14.1216       14.1230      11.538312       0.01678
  22     68.43        2.5847        0.0016       14.1004       14.1020      11.517260       0.01655
  21     81.20        2.5848        0.0019       14.0756       14.0775      11.492680       0.01624
  20     96.49        2.5850        0.0022       14.0470       14.0493      11.464281       0.01567
  19     114.6        2.5851        0.0026       14.0144       14.0170      11.431856       0.01514
  18     136.5        2.5853        0.0031       13.9779       13.9810      11.395688       0.01391
  17     162.9        2.5856        0.0037       13.9383       13.9420      11.356433       0.01255
  16     196.4        2.5858        0.0045       13.8925       13.8970      11.311210       0.01138
  15     218.7        2.5859        0.0050       13.8655       13.8705      11.284566       0.01012
  14     243.0        2.5860        0.0055       13.8372       13.8428      11.256711       0.00966
  13     269.0        2.5862        0.0061       13.8057       13.8118      11.225596       0.01009
  12     297.5        2.5863        0.0067       13.7636       13.7703      11.183938       0.01236
  11     328.5        2.5866        0.0074       13.6967       13.7041      11.117492       0.01807
  10     361.9        2.5869        0.0081       13.5857       13.5938      11.006886       0.02798
   9     398.1        2.5874        0.0088       13.4091       13.4179      10.830480       0.04110
   8     437.6        2.5882        0.0096       13.1428       13.1523      10.564082       0.05696
   7     480.5        2.5895        0.0103       12.7655       12.7758      10.186289       0.07420
   6     533.0        2.5918        0.0110       12.1918       12.2028       9.611055       0.09254
   5     589.8        2.5954        0.0117       11.5438       11.5555       8.960096       0.09662
   4     651.6        2.6010        0.0123       10.9015       10.9138       8.312732       0.08853
   3     718.7        2.6099        0.0129       10.3188       10.3317       7.721856       0.07426
   2     792.3        2.6237        0.0136        9.8187        9.8323       7.208547       0.05887
   1     891.5        2.6516        0.0145        9.3220        9.3365       6.684861       0.04456
   0    1013.0        2.7077        0.0157        8.8650        8.8806       6.172894       0.03555



 Wavenumbers:  6150. -  7700. cm-1, ATM      1
 LEVEL PRESSURE   UPWARD FLUX   DIFDOWN FLUX  DIRDOWN FLUX  DOWNWARD FLUX   NET FLUX    HEATING RATE
          mb          W/m2          W/m2          W/m2        W/m2          W/m2       degree/day
  51    .06700        4.3335        0.0000       30.4684       30.4684      26.134879       0.00000
  50    .07753        4.3335        0.0000       30.4684       30.4684      26.134863       0.01303
  49    .09103        4.3335        0.0000       30.4683       30.4683      26.134842       0.01277
  48    0.1069        4.3335        0.0000       30.4683       30.4683      26.134819       0.01250
  47    0.1255        4.3335        0.0000       30.4683       30.4683      26.134792       0.01223
  46    0.1487        4.3335        0.0000       30.4682       30.4683      26.134758       0.01241
  45    0.1794        4.3335        0.0000       30.4682       30.4682      26.134711       0.01276
  44    0.2165        4.3335        0.0000       30.4681       30.4681      26.134656       0.01252
  43    0.2613        4.3335        0.0000       30.4681       30.4681      26.134591       0.01228
  42    0.3336        4.3335        0.0000       30.4679       30.4680      26.134484       0.01256
  41    0.4307        4.3335        0.0000       30.4678       30.4678      26.134341       0.01241
  40    0.5894        4.3334        0.0001       30.4675       30.4676      26.134108       0.01239
  39     1.339        4.3334        0.0001       30.4662       30.4664      26.133008       0.01238
  38     1.782        4.3333        0.0002       30.4655       30.4657      26.132364       0.01227
  37     2.292        4.3333        0.0002       30.4647       30.4649      26.131619       0.01234
  36     2.964        4.3345        0.0003       27.6544       27.6548      23.320293      35.29064
  35     3.853        4.3351        0.0005       27.3059       27.3064      22.971314       3.31187
  34     5.035        4.3354        0.0006       27.1279       27.1285      22.793118       1.27296
  33     6.613        4.3355        0.0007       27.0234       27.0242      22.688686       0.55829
  32     8.786        4.3355        0.0009       26.9560       26.9569      22.621411       0.26127
  31     11.80        4.3354        0.0013       26.9047       26.9059      22.570552       0.14239
  30     15.07        4.3352        0.0016       26.8707       26.8723      22.537145       0.08625
  29     18.79        4.3349        0.0019       26.8445       26.8465      22.511532       0.05807
  28     23.16        4.3346        0.0024       26.8210       26.8233      22.488710       0.04413
  27     28.12        4.3343        0.0029       26.8002       26.8030      22.468785       0.03387
  26     33.73        4.3338        0.0034       26.7818       26.7852      22.451351       0.02621
  25     40.54        4.3333        0.0041       26.7633       26.7674      22.434098       0.02140
  24     48.69        4.3327        0.0049       26.7426       26.7475      22.414820       0.01995
  23     57.69        4.3320        0.0058       26.7204       26.7261      22.394169       0.01936
  22     68.43        4.3311        0.0068       26.6945       26.7013      22.370143       0.01889
  21     81.20        4.3301        0.0081       26.6642       26.6723      22.342168       0.01849
  20     96.49        4.3290        0.0096       26.6290       26.6386      22.309635       0.01796
  19     114.6        4.3275        0.0113       26.5873       26.5986      22.271099       0.01799
  18     136.5        4.3259        0.0134       26.5389       26.5524      22.226498       0.01715
  17     162.9        4.3239        0.0160       26.4827       26.4986      22.174702       0.01656
  16     196.4        4.3213        0.0192       26.4114       26.4307      22.109309       0.01646
  15     218.7        4.3197        0.0213       26.3656       26.3869      22.067284       0.01596
  14     243.0        4.3178        0.0237       26.3164       26.3401      22.022271       0.01561
  13     269.0        4.3159        0.0262       26.2609       26.2871      21.971209       0.01656
  12     297.5        4.3138        0.0289       26.1870       26.2159      21.902106       0.02050
  11     328.5        4.3117        0.0318       26.0704       26.1022      21.790497       0.03035
  10     361.9        4.3097        0.0349       25.8781       25.9129      21.603197       0.04739
   9     398.1        4.3080        0.0381       25.5704       25.6085      21.300441       0.07054
   8     437.6        4.3070        0.0413       25.1026       25.1439      20.836921       0.09910
   7     480.5        4.3071        0.0444       24.4271       24.4715      20.164430       0.13207
   6     533.0        4.3098        0.0477       23.3744       23.4221      19.112385       0.16924
   5     589.8        4.3165        0.0507       22.1263       22.1770      17.860473       0.18582
   4     651.6        4.3296        0.0533       20.7932       20.8465      16.516985       0.18373
   3     718.7        4.3522        0.0556       19.4599       19.5156      15.163326       0.17012
   2     792.3        4.3904        0.0578       18.1692       18.2269      13.836550       0.15217
   1     891.5        4.4721        0.0603       16.6816       16.7420      12.269828       0.13332
   0    1013.0        4.6468        0.0631       15.1835       15.2466      10.599802       0.11596



 Wavenumbers:  7700. -  8050. cm-1, ATM      1
 LEVEL PRESSURE   UPWARD FLUX   DIFDOWN FLUX  DIRDOWN FLUX  DOWNWARD FLUX   NET FLUX    HEATING RATE
          mb          W/m2          W/m2          W/m2        W/m2          W/m2       degree/day
  51    .06700        1.7375        0.0000        7.2006        7.2006       5.463073       0.00000
  50    .07753        1.7375        0.0000        7.2006        7.2006       5.463054       0.01515
  49    .09103        1.7375        0.0000        7.2005        7.2005       5.463031       0.01484
  48    0.1069        1.7375        0.0000        7.2005        7.2005       5.463003       0.01453
  47    0.1255        1.7375        0.0000        7.2005        7.2005       5.462972       0.01422
  46    0.1487        1.7375        0.0000        7.2004        7.2005       5.462932       0.01443
  45    0.1794        1.7375        0.0000        7.2004        7.2004       5.462878       0.01485
  44    0.2165        1.7375        0.0000        7.2003        7.2003       5.462814       0.01456
  43    0.2613        1.7375        0.0000        7.2003        7.2003       5.462739       0.01429
  42    0.3336        1.7375        0.0000        7.2001        7.2001       5.462613       0.01462
  41    0.4307        1.7375        0.0000        7.2000        7.2000       5.462447       0.01446
  40    0.5894        1.7375        0.0000        7.1997        7.1997       5.462175       0.01444
  39     1.339        1.7376        0.0001        7.1984        7.1985       5.460891       0.01446
  38     1.782        1.7376        0.0001        7.1977        7.1978       5.460137       0.01436
  37     2.292        1.7377        0.0001        7.1968        7.1969       5.459264       0.01445
  36     2.964        1.7377        0.0002        7.1957        7.1958       5.458119       0.01438
  35     3.853        1.7377        0.0002        7.1942        7.1944       5.456606       0.01435
  34     5.035        1.7378        0.0003        7.1922        7.1924       5.454599       0.01434
  33     6.613        1.7379        0.0003        7.1895        7.1898       5.451920       0.01432
  32     8.786        1.7381        0.0004        7.1860        7.1864       5.448315       0.01400
  31     11.80        1.7383        0.0006        7.1809        7.1814       5.443169       0.01441
  30     15.07        1.7385        0.0007        7.1755        7.1762       5.437661       0.01422
  29     18.79        1.7388        0.0009        7.1693        7.1702       5.431458       0.01406
  28     23.16        1.7390        0.0011        7.1622        7.1633       5.424241       0.01396
  27     28.12        1.7394        0.0013        7.1541        7.1554       5.416024       0.01397
  26     33.73        1.7398        0.0015        7.1451        7.1466       5.406877       0.01375
  25     40.54        1.7402        0.0018        7.1343        7.1361       5.395892       0.01363
  24     48.69        1.7408        0.0022        7.1213        7.1235       5.382747       0.01360
  23     57.69        1.7414        0.0026        7.1073        7.1099       5.368431       0.01342
  22     68.43        1.7422        0.0031        7.0907        7.0937       5.351547       0.01327
  21     81.20        1.7431        0.0036        7.0711        7.0747       5.331665       0.01314
  20     96.49        1.7442        0.0043        7.0482        7.0525       5.308297       0.01290
  19     114.6        1.7455        0.0051        7.0213        7.0264       5.280918       0.01278
  18     136.5        1.7471        0.0060        6.9901        6.9961       5.249077       0.01224
  17     162.9        1.7490        0.0071        6.9538        6.9609       5.211970       0.01186
  16     196.4        1.7515        0.0085        6.9080        6.9165       5.165007       0.01182
  15     218.7        1.7532        0.0095        6.8786        6.8881       5.134889       0.01143
  14     243.0        1.7551        0.0105        6.8473        6.8578       5.102719       0.01116
  13     269.0        1.7572        0.0116        6.8141        6.8257       5.068478       0.01111
  12     297.5        1.7595        0.0128        6.7789        6.7917       5.032155       0.01077
  11     328.5        1.7620        0.0140        6.7416        6.7556       4.993559       0.01049
  10     361.9        1.7649        0.0154        6.7021        6.7175       4.952600       0.01036
   9     398.1        1.7680        0.0169        6.6603        6.6772       4.909181       0.01012
   8     437.6        1.7714        0.0184        6.6162        6.6346       4.863170       0.00984
   7     480.5        1.7753        0.0201        6.5695        6.5896       4.814252       0.00961
   6     533.0        1.7803        0.0221        6.5125        6.5346       4.754270       0.00965
   5     589.8        1.7861        0.0243        6.4513        6.4756       4.689542       0.00961
   4     651.6        1.7927        0.0267        6.3854        6.4121       4.619417       0.00959
   3     718.7        1.8003        0.0292        6.3144        6.3435       4.543206       0.00958
   2     792.3        1.8091        0.0318        6.2374        6.2692       4.460099       0.00953
   1     891.5        1.8222        0.0353        6.1317        6.1670       4.344769       0.00981
   0    1013.0        1.8400        0.0395        6.0004        6.0399       4.199901       0.01006



 Wavenumbers:  8050. - 12850. cm-1, ATM      1
 LEVEL PRESSURE   UPWARD FLUX   DIFDOWN FLUX  DIRDOWN FLUX  DOWNWARD FLUX   NET FLUX    HEATING RATE
          mb          W/m2          W/m2          W/m2        W/m2          W/m2       degree/day
  51    .06700       25.9860        0.0000      100.8135      100.8135      74.827557       0.00000
  50    .07753       25.9859        0.0000      100.8135      100.8135      74.827557       0.00000
  49    .09103       25.9859        0.0001      100.8134      100.8135      74.827557       0.00000
  48    0.1069       25.9859        0.0001      100.8134      100.8134      74.827557      -0.00000
  47    0.1255       25.9859        0.0001      100.8133      100.8134      74.827557       0.00000
  46    0.1487       25.9858        0.0002      100.8132      100.8134      74.827557      -0.00000
  45    0.1794       25.9858        0.0003      100.8131      100.8133      74.827557       0.00000
  44    0.2165       25.9857        0.0003      100.8129      100.8133      74.827557       0.00000
  43    0.2613       25.9856        0.0004      100.8127      100.8132      74.827557      -0.00000
  42    0.3336       25.9855        0.0006      100.8125      100.8130      74.827557       0.00000
  41    0.4307       25.9853        0.0008      100.8121      100.8129      74.827557       0.00000
  40    0.5894       25.9850        0.0012      100.8115      100.8126      74.827557      -0.00000
  39     1.339       25.9837        0.0028      100.8085      100.8113      74.827557       0.00000
  38     1.782       25.9830        0.0038      100.8068      100.8105      74.827557      -0.00000
  37     2.292       25.9821        0.0049      100.8047      100.8097      74.827557       0.00000
  36     2.964       25.9802        0.0074      100.8003      100.8077      74.827557       0.00000
  35     3.853       25.9783        0.0097      100.7962      100.8059      74.827557       0.00000
  34     5.035       25.9761        0.0125      100.7912      100.8037      74.827557       0.00000
  33     6.613       25.9733        0.0160      100.7849      100.8009      74.827557       0.00000
  32     8.786       25.9696        0.0208      100.7764      100.7972      74.827557       0.00000
  31     11.80       25.9643        0.0275      100.7644      100.7919      74.827557       0.00000
  30     15.07       25.9586        0.0347      100.7515      100.7862      74.827557      -0.00000
  29     18.79       25.9522        0.0428      100.7369      100.7797      74.827557       0.00000
  28     23.16       25.9447        0.0524      100.7199      100.7722      74.827557       0.00000
  27     28.12       25.9361        0.0633      100.7004      100.7636      74.827557       0.00000
  26     33.73       25.9264        0.0755      100.6785      100.7540      74.827557       0.00000
  25     40.54       25.9148        0.0902      100.6521      100.7423      74.827557      -0.00000
  24     48.69       25.9007        0.1081      100.6202      100.7283      74.827557       0.00000
  23     57.69       25.8853        0.1277      100.5851      100.7128      74.827557       0.00000
  22     68.43       25.8668        0.1511      100.5433      100.6944      74.827557      -0.00000
  21     81.20       25.8448        0.1790      100.4934      100.6723      74.827557       0.00000
  20     96.49       25.8185        0.2122      100.4338      100.6460      74.827557      -0.00000
  19     114.6       25.7891        0.2517      100.2119      100.4636      74.674468       0.07148
  18     136.5       25.7538        0.2985      100.0000      100.2985      74.544701       0.04990
  17     162.9       25.7110        0.3543       99.7885      100.1428      74.431718       0.03611
  16     196.4       25.6547        0.4268       99.5512       99.9780      74.323235       0.02731
  15     218.7       25.6174        0.4745       99.4096       99.8841      74.266636       0.02149
  14     243.0       25.5767        0.5264       99.2638       99.7903      74.213511       0.01843
  13     269.0       25.5326        0.5828       99.1089       99.6917      74.159179       0.01762
  12     297.5       25.4848        0.6438       98.9317       99.5755      74.090695       0.02031
  11     328.5       25.4336        0.7097       98.7097       99.4194      73.985810       0.02852
  10     361.9       25.3792        0.7806       98.4191       99.1998      73.820546       0.04181
   9     398.1       25.3220        0.8568       98.0348       98.8916      73.569577       0.05847
   8     437.6       25.2629        0.9382       97.5240       98.4621      73.199226       0.07918
   7     480.5       25.2035        1.0247       96.8374       97.8620      72.658567       0.10618
   6     533.0       25.1386        1.1297       95.7703       96.9000      71.761355       0.14433
   5     589.8       25.0811        1.2408       94.4110       95.6518      70.570676       0.17674
   4     651.6       25.0369        1.3575       92.7651       94.1226      69.085696       0.20307
   3     718.7       25.0154        1.4793       90.8279       92.3072      67.291805       0.22544
   2     792.3       25.0318        1.6053       88.6061       90.2113      65.179544       0.24225
   1     891.5       25.1354        1.7683       85.5362       87.3044      62.169058       0.25618
   0    1013.0       25.4388        1.9538       81.8000       83.7538      58.314989       0.26761



 Wavenumbers: 12850. - 16000. cm-1, ATM      1
 LEVEL PRESSURE   UPWARD FLUX   DIFDOWN FLUX  DIRDOWN FLUX  DOWNWARD FLUX   NET FLUX    HEATING RATE
          mb          W/m2          W/m2          W/m2        W/m2          W/m2       degree/day
  51    .06700       32.9674        0.0000       63.1686       63.1686      30.201201       0.00000
  50    .07753       32.9673        0.0001       63.1677       63.1678      30.200421       0.62477
  49    .09103       32.9673        0.0001       63.1666       63.1668      30.199450       0.60711
  48    0.1069       32.9673        0.0002       63.1654       63.1656      30.198344       0.58865
  47    0.1255       32.9672        0.0003       63.1640       63.1643      30.197087       0.57013
  46    0.1487       32.9672        0.0004       63.1623       63.1627      30.195518       0.57159
  45    0.1794       32.9671        0.0006       63.1600       63.1606      30.193416       0.57718
  44    0.2165       32.9671        0.0008       63.1573       63.1581      30.190984       0.55314
  43    0.2613       32.9670        0.0010       63.1542       63.1552      30.188180       0.52855
  42    0.3336       32.9670        0.0014       63.1493       63.1507      30.183712       0.52093
  41    0.4307       32.9669        0.0019       63.1431       63.1450      30.178113       0.48682
  40    0.5894       32.9669        0.0027       63.1338       63.1365      30.169635       0.45087
  39     1.339       32.9680        0.0065       63.0955       63.1021      30.134036       0.40077
  38     1.782       32.9696        0.0088       63.0739       63.0827      30.113071       0.39915
  37     2.292       32.9724        0.0114       63.0475       63.0588      30.086450       0.44091
  36     2.964       32.9759        0.0171       63.0054       63.0225      30.046602       0.50022
  35     3.853       32.9838        0.0225       62.9476       62.9700      29.986196       0.57326
  34     5.035       32.9967        0.0289       62.8660       62.8948      29.898141       0.62903
  33     6.613       33.0150        0.0371       62.7550       62.7921      29.777070       0.64725
  32     8.786       33.0389        0.0479       62.6109       62.6589      29.619997       0.61002
  31     11.80       33.0693        0.0634       62.4208       62.4841      29.414823       0.57442
  30     15.07       33.0977        0.0798       62.2349       62.3147      29.216975       0.51080
  29     18.79       33.1259        0.0984       62.0414       62.1398      29.013832       0.46059
  28     23.16       33.1545        0.1200       61.8345       61.9544      28.799984       0.41351
  27     28.12       33.1819        0.1446       61.6198       61.7644      28.582530       0.36966
  26     33.73       33.2051        0.1721       61.4096       61.5818      28.376700       0.30947
  25     40.54       33.2245        0.2053       61.1903       61.3956      28.171151       0.25501
  24     48.69       33.2395        0.2452       60.9601       61.2053      27.965797       0.21251
  23     57.69       33.2479        0.2890       60.7400       61.0290      27.781066       0.17316
  22     68.43       33.2492        0.3411       60.5124       60.8536      27.604381       0.13890
  21     81.20       33.2387        0.4032       60.2862       60.6894      27.450652       0.10158
  20     96.49       33.2151        0.4771       60.0567       60.5338      27.318666       0.07285
  19     114.6       33.1858        0.5653       59.7979       60.3632      27.177357       0.06598
  18     136.5       33.1465        0.6695       59.5038       60.1733      27.026781       0.05790
  17     162.9       33.0955        0.7933       59.1632       59.9565      26.861014       0.05299
  16     196.4       33.0203        0.9534       58.7453       59.6986      26.678293       0.04599
  15     218.7       32.9678        1.0582       58.4798       59.5380      26.570215       0.04103
  14     243.0       32.9093        1.1719       58.1957       59.3677      26.458354       0.03880
  13     269.0       32.8445        1.2949       57.8935       59.1884      26.343909       0.03713
  12     297.5       32.7730        1.4274       57.5722       58.9996      26.226540       0.03481
  11     328.5       32.6955        1.5702       57.2283       58.7985      26.103007       0.03359
  10     361.9       32.6117        1.7235       56.8603       58.5838      25.972054       0.03313
   9     398.1       32.5217        1.8880       56.4659       58.3540      25.832276       0.03257
   8     437.6       32.4257        2.0641       56.0417       58.1058      25.680137       0.03253
   7     480.5       32.3240        2.2522       55.5842       57.8364      25.512430       0.03294
   6     533.0       32.2016        2.4826       55.0119       57.4946      25.292934       0.03531
   5     589.8       32.0742        2.7297       54.3836       57.1133      25.039122       0.03767
   4     651.6       31.9436        2.9935       53.6956       56.6890      24.745482       0.04016
   3     718.7       31.8125        3.2742       52.9436       56.2178      24.405324       0.04275
   2     792.3       31.6855        3.5716       52.1247       55.6963      24.010822       0.04525
   1     891.5       31.5405        3.9672       51.0046       54.9717      23.431198       0.04932
   0    1013.0       31.4179        4.4327       49.6411       54.0738      22.655976       0.05383



 Wavenumbers: 16000. - 22650. cm-1, ATM      1
 LEVEL PRESSURE   UPWARD FLUX   DIFDOWN FLUX  DIRDOWN FLUX  DOWNWARD FLUX   NET FLUX    HEATING RATE
          mb          W/m2          W/m2          W/m2        W/m2          W/m2       degree/day
  51    .06700       74.0890        0.0000      100.7153      100.7153      26.626348       0.00000
  50    .07753       74.0888        0.0003      100.7147      100.7151      26.626232       0.09355
  49    .09103       74.0887        0.0007      100.7140      100.7147      26.626062       0.10611
  48    0.1069       74.0885        0.0012      100.7131      100.7143      26.625835       0.12100
  47    0.1255       74.0883        0.0017      100.7121      100.7138      26.625530       0.13792
  46    0.1487       74.0881        0.0024      100.7108      100.7132      26.625082       0.16343
  45    0.1794       74.0878        0.0033      100.7089      100.7122      26.624381       0.19243
  44    0.2165       74.0876        0.0044      100.7066      100.7110      26.623430       0.21626
  43    0.2613       74.0873        0.0057      100.7037      100.7094      26.622140       0.24313
  42    0.3336       74.0869        0.0079      100.6987      100.7066      26.619688       0.28591
  41    0.4307       74.0865        0.0108      100.6918      100.7025      26.615992       0.32139
  40    0.5894       74.0862        0.0154      100.6797      100.6952      26.608943       0.37487
  39     1.339       74.0901        0.0375      100.6095      100.6470      26.556873       0.58621
  38     1.782       74.0964        0.0504      100.5585      100.6089      26.512529       0.84423
  37     2.292       74.1073        0.0654      100.4903      100.5557      26.448362       1.06278
  36     2.964       74.1208        0.0982      100.3671      100.4653      26.344464       1.30423
  35     3.853       74.1529        0.1291      100.2036      100.3326      26.179736       1.56331
  34     5.035       74.2055        0.1658       99.9739      100.1398      25.934250       1.75365
  33     6.613       74.2809        0.2129       99.6616       99.8745      25.593633       1.82094
  32     8.786       74.3787        0.2752       99.2549       99.5301      25.151340       1.71771
  31     11.80       74.5036        0.3635       98.7159       99.0794      24.575843       1.61121
  30     15.07       74.6198        0.4577       98.1860       98.6437      24.023936       1.42492
  29     18.79       74.7349        0.5637       97.6312       98.1950      23.460032       1.27854
  28     23.16       74.8508        0.6870       97.0333       97.7202      22.869445       1.14201
  27     28.12       74.9616        0.8274       96.4068       97.2341      22.272541       1.01470
  26     33.73       75.0543        0.9839       95.7842       96.7681      21.713793       0.84009
  25     40.54       75.1302        1.1723       95.1213       96.2936      21.163453       0.68276
  24     48.69       75.1867        1.3986       94.4086       95.8072      20.620563       0.56181
  23     57.69       75.2150        1.6462       93.7084       95.3546      20.139604       0.45083
  22     68.43       75.2124        1.9398       92.9623       94.9021      19.689704       0.35368
  21     81.20       75.1596        2.2881       92.1903       94.4785      19.318846       0.24506
  20     96.49       75.0509        2.7013       91.3784       94.0797      19.028824       0.16007
  19     114.6       74.8992        3.1885       90.4744       93.6629      18.763645       0.12382
  18     136.5       74.7048        3.7610       89.4476       93.2086      18.503784       0.09992
  17     162.9       74.4609        4.4358       88.2697       92.7055      18.244634       0.08283
  16     196.4       74.1164        5.3007       86.8284       92.1291      18.012718       0.05838
  15     218.7       73.8806        5.8625       85.9173       91.7797      17.899080       0.04314
  14     243.0       73.6208        6.4674       84.9476       91.4150      17.794191       0.03638
  13     269.0       73.3358        7.1165       83.9193       91.0358      17.700046       0.03054
  12     297.5       73.0247        7.8104       82.8315       90.6419      17.617212       0.02457
  11     328.5       72.6887        8.5516       81.6750       90.2266      17.537905       0.02156
  10     361.9       72.3275        9.3396       80.4504       89.7900      17.462432       0.01910
   9     398.1       71.9402       10.1764       79.1543       89.3308      17.390570       0.01674
   8     437.6       71.5267       11.0622       77.7853       88.8475      17.320756       0.01493
   7     480.5       71.0866       11.9971       76.3427       88.3398      17.253255       0.01326
   6     533.0       70.5499       13.1277       74.5993       87.7270      17.177100       0.01225
   5     589.8       69.9788       14.3219       72.7567       87.0786      17.099712       0.01149
   4     651.6       69.3740       15.5778       70.8155       86.3934      17.019387       0.01098
   3     718.7       68.7359       16.8937       68.7768       85.6704      16.934500       0.01067
   2     792.3       68.0665       18.2649       66.6447       84.9096      16.843073       0.01049
   1     891.5       67.1867       20.0554       63.8459       83.9013      16.714632       0.01093
   0    1013.0       66.1672       22.1146       60.6007       82.7153      16.548115       0.01156



 Wavenumbers: 22650. - 29000. cm-1, ATM      1
 LEVEL PRESSURE   UPWARD FLUX   DIFDOWN FLUX  DIRDOWN FLUX  DOWNWARD FLUX   NET FLUX    HEATING RATE
          mb          W/m2          W/m2          W/m2        W/m2          W/m2       degree/day
  51    .06700       32.0543        0.0000       38.0063       38.0063       5.952033       0.00000
  50    .07753       32.0541        0.0004       38.0057       38.0061       5.952033       0.00000
  49    .09103       32.0539        0.0009       38.0050       38.0059       5.952033       0.00000
  48    0.1069       32.0536        0.0014       38.0042       38.0056       5.952033      -0.00000
  47    0.1255       32.0533        0.0020       38.0033       38.0054       5.952033       0.00000
  46    0.1487       32.0530        0.0028       38.0022       38.0050       5.952033      -0.00000
  45    0.1794       32.0525        0.0039       38.0006       38.0045       5.952033       0.00000
  44    0.2165       32.0519        0.0052       37.9987       38.0039       5.952033       0.00000
  43    0.2613       32.0512        0.0067       37.9965       38.0032       5.952033       0.00000
  42    0.3336       32.0500        0.0092       37.9928       38.0021       5.952033      -0.00000
  41    0.4307       32.0485        0.0125       37.9880       38.0005       5.952033       0.00000
  40    0.5894       32.0460        0.0180       37.9800       37.9980       5.952033      -0.00000
  39     1.339       32.0342        0.0437       37.9425       37.9862       5.952033       0.00000
  38     1.782       32.0272        0.0588       37.9204       37.9793       5.952033       0.00000
  37     2.292       32.0192        0.0763       37.8949       37.9712       5.952033      -0.00000
  36     2.964       32.0016        0.1145       37.8391       37.9537       5.952033       0.00000
  35     3.853       31.9851        0.1505       37.7866       37.9371       5.952033       0.00000
  34     5.035       31.9654        0.1934       37.7240       37.9174       5.952033      -0.00000
  33     6.613       31.9401        0.2484       37.6437       37.8921       5.952033       0.00000
  32     8.786       31.9066        0.3212       37.5374       37.8587       5.952033       0.00000
  31     11.80       31.8591        0.4244       37.3867       37.8111       5.952033      -0.00000
  30     15.07       31.8084        0.5346       37.2258       37.7604       5.952033       0.00000
  29     18.79       31.7513        0.6584       37.0449       37.7033       5.952033      -0.00000
  28     23.16       31.6849        0.8023       36.8347       37.6369       5.952033       0.00000
  27     28.12       31.6094        0.9658       36.5956       37.5614       5.952033       0.00000
  26     33.73       31.5253        1.1476       36.3297       37.4773       5.952033       0.00000
  25     40.54       31.4244        1.3656       36.0108       37.3764       5.952033      -0.00000
  24     48.69       31.3036        1.6258       35.6299       37.2557       5.952033       0.00000
  23     57.69       31.1722        1.9085       35.2157       37.1242       5.952033      -0.00000
  22     68.43       31.0173        2.2409       34.7284       36.9693       5.952033       0.00000
  21     81.20       30.8351        2.6308       34.1563       36.7871       5.952033      -0.00000
  20     96.49       30.6213        3.0868       33.4865       36.5733       5.952033       0.00000
  19     114.6       30.3720        3.6160       32.7080       36.3240       5.952033       0.00000
  18     136.5       30.0829        4.2267       31.8082       36.0349       5.952033       0.00000
  17     162.9       29.7474        4.9309       30.7685       35.6994       5.952033      -0.00000
  16     196.4       29.3261        5.8083       29.4698       35.2781       5.952033      -0.00000
  15     218.7       29.0576        6.3629       28.6468       35.0097       5.952033       0.00000
  14     243.0       28.7729        6.9471       27.7779       34.7250       5.952033       0.00000
  13     269.0       28.4725        7.5589       26.8656       34.4245       5.952033       0.00000
  12     297.5       28.1570        8.1961       25.9129       34.1090       5.952033       0.00000
  11     328.5       27.8261        8.8579       24.9202       33.7782       5.952033      -0.00000
  10     361.9       27.4813        9.5405       23.8929       33.4334       5.952033       0.00000
   9     398.1       27.1227       10.2419       22.8329       33.0748       5.952033      -0.00000
   8     437.6       26.7518       10.9577       21.7461       32.7038       5.952033       0.00000
   7     480.5       26.3695       11.6841       20.6375       32.3216       5.952033       0.00000
   6     533.0       25.9191       12.5245       19.3467       31.8712       5.952033      -0.00000
   5     589.8       25.4573       13.3669       18.0424       31.4093       5.952033       0.00000
   4     651.6       24.9862       14.2040       16.7343       30.9382       5.952033       0.00000
   3     718.7       24.5077       15.0291       15.4307       30.4597       5.952033       0.00000
   2     792.3       24.0249       15.8328       14.1441       29.9769       5.952033      -0.00000
   1     891.5       23.4170       16.7984       12.5707       29.3691       5.952033      -0.00000
   0    1013.0       22.7467       17.7948       10.9039       28.6987       5.952033       0.00000



 Wavenumbers: 29000. - 38000. cm-1, ATM      1
 LEVEL PRESSURE   UPWARD FLUX   DIFDOWN FLUX  DIRDOWN FLUX  DOWNWARD FLUX   NET FLUX    HEATING RATE
          mb          W/m2          W/m2          W/m2        W/m2          W/m2       degree/day
  51    .06700        4.6967        0.0000       13.4026       13.4026       8.705947       0.00000
  50    .07753        4.6964        0.0003       13.3983       13.3986       8.702157       3.03805
  49    .09103        4.6962        0.0007       13.3921       13.3928       8.696649       3.44244
  48    0.1069        4.6959        0.0011       13.3841       13.3851       8.689286       3.91954
  47    0.1255        4.6955        0.0016       13.3734       13.3750       8.679457       4.45580
  46    0.1487        4.6951        0.0022       13.3579       13.3601       8.665042       5.25471
  45    0.1794        4.6945        0.0030       13.3342       13.3372       8.642676       6.13996
  44    0.2165        4.6938        0.0040       13.3025       13.3065       8.612677       6.82408
  43    0.2613        4.6930        0.0051       13.2605       13.2657       8.572632       7.54838
  42    0.3336        4.6918        0.0070       13.1834       13.1904       8.498639       8.62691
  41    0.4307        4.6902        0.0095       13.0730       13.0824       8.392179       9.25640
  40    0.5894        4.6878        0.0133       12.8795       12.8929       8.205025       9.95265
  39     1.339        4.6793        0.0295       11.9153       11.9449       7.265551      10.57677
  38     1.782        4.6760        0.0378       11.4377       11.4755       6.799522       8.87243
  37     2.292        4.6735        0.0466       10.9754       11.0220       6.348464       7.47070
  36     2.964        4.6658        0.0660       10.4569       10.5229       5.857014       6.16919
  35     3.853        4.6641        0.0820        9.9153        9.9972       5.333128       4.97178
  34     5.035        4.6661        0.0995        9.3708        9.4703       4.804185       3.77855
  33     6.613        4.6712        0.1207        8.8449        8.9656       4.294361       2.72552
  32     8.786        4.6785        0.1476        8.3495        8.4971       3.818618       1.84762
  31     11.80        4.6874        0.1846        7.8619        8.0465       3.359065       1.28660
  30     15.07        4.6949        0.2227        7.4840        7.7067       3.011743       0.89672
  29     18.79        4.7018        0.2642        7.1515        7.4158       2.714005       0.67506
  28     23.16        4.7078        0.3111        6.8407        7.1517       2.443994       0.52211
  27     28.12        4.7121        0.3629        6.5529        6.9158       2.203684       0.40851
  26     33.73        4.7125        0.4194        6.2950        6.7144       2.001933       0.30334
  25     40.54        4.7076        0.4861        6.0426        6.5286       1.821021       0.22444
  24     48.69        4.6969        0.5642        5.7896        6.3538       1.656850       0.16989
  23     57.69        4.6807        0.6475        5.5547        6.2022       1.521490       0.12688
  22     68.43        4.6565        0.7440        5.3150        6.0590       1.402551       0.09350
  21     81.20        4.6200        0.8558        5.0739        5.9298       1.309797       0.06129
  20     96.49        4.5699        0.9850        4.8255        5.8105       1.240610       0.03819
  19     114.6        4.5093        1.1312        4.5584        5.6896       1.180351       0.02814
  18     136.5        4.4390        1.2944        4.2684        5.5629       1.123912       0.02170
  17     162.9        4.3583        1.4757        3.9527        5.4285       1.070146       0.01719
  16     196.4        4.2563        1.6924        3.5883        5.2806       1.024384       0.01152
  15     218.7        4.1920        1.8235        3.3713        5.1948       1.002883       0.00816
  14     243.0        4.1249        1.9571        3.1514        5.1085       0.983609       0.00668
  13     269.0        4.0553        2.0919        2.9302        5.0221       0.966780       0.00546
  12     297.5        3.9837        2.2267        2.7094        4.9361       0.952351       0.00428
  11     328.5        3.9109        2.3601        2.4896        4.8497       0.938828       0.00368
  10     361.9        3.8373        2.4908        2.2728        4.7636       0.926251       0.00318
   9     398.1        3.7633        2.6175        2.0603        4.6778       0.914569       0.00272
   8     437.6        3.6893        2.7391        1.8538        4.5928       0.903555       0.00235
   7     480.5        3.6157        2.8541        1.6550        4.5090       0.893307       0.00201
   6     533.0        3.5324        2.9767        1.4381        4.4148       0.882375       0.00176
   5     589.8        3.4507        3.0875        1.2352        4.3227       0.872034       0.00153
   4     651.6        3.3710        3.1854        1.0478        4.2332       0.862175       0.00135
   3     718.7        3.2936        3.2693        0.8770        4.1463       0.852755       0.00118
   2     792.3        3.2185        3.3385        0.7238        4.0623       0.843762       0.00103
   1     891.5        3.1281        3.4036        0.5573        3.9610       0.832922       0.00092
   0    1013.0        3.0324        3.4479        0.4058        3.8536       0.821248       0.00081



 Wavenumbers: 38000. - 50000. cm-1, ATM      1
 LEVEL PRESSURE   UPWARD FLUX   DIFDOWN FLUX  DIRDOWN FLUX  DOWNWARD FLUX   NET FLUX    HEATING RATE
          mb          W/m2          W/m2          W/m2        W/m2          W/m2       degree/day
  51    .06700        0.0053        0.0000        0.8267        0.8267       0.821374       0.00000
  50    .07753        0.0052        0.0001        0.8242        0.8243       0.819041       1.86949
  49    .09103        0.0052        0.0002        0.8207        0.8209       0.815718       2.07725
  48    0.1069        0.0051        0.0002        0.8162        0.8164       0.811359       2.32012
  47    0.1255        0.0050        0.0004        0.8103        0.8106       0.805645       2.59039
  46    0.1487        0.0049        0.0005        0.8018        0.8023       0.797410       3.00188
  45    0.1794        0.0047        0.0007        0.7889        0.7896       0.784854       3.44695
  44    0.2165        0.0045        0.0009        0.7720        0.7729       0.768347       3.75506
  43    0.2613        0.0043        0.0011        0.7500        0.7511       0.746794       4.06266
  42    0.3336        0.0040        0.0015        0.7106        0.7121       0.708104       4.51082
  41    0.4307        0.0036        0.0019        0.6566        0.6584       0.654808       4.63398
  40    0.5894        0.0031        0.0024        0.5680        0.5704       0.567298       4.65370
  39     1.339        0.0016        0.0030        0.2422        0.2452       0.243533       3.64501
  38     1.782        0.0012        0.0026        0.1493        0.1519       0.150693       1.76752
  37     2.292        0.0010        0.0022        0.0924        0.0946       0.093687       0.94417
  36     2.964        0.0005        0.0020        0.0536        0.0555       0.055012       0.48549
  35     3.853        0.0003        0.0015        0.0292        0.0307       0.030392       0.23365
  34     5.035        0.0002        0.0011        0.0152        0.0163       0.016139       0.10182
  33     6.613        0.0001        0.0008        0.0072        0.0080       0.007908       0.04400
  32     8.786        0.0000        0.0005        0.0030        0.0034       0.003399       0.01751
  31     11.80        0.0000        0.0003        0.0010        0.0012       0.001209       0.00613
  30     15.07        0.0000        0.0002        0.0003        0.0005       0.000470       0.00191
  29     18.79        0.0000        0.0001        0.0001        0.0002       0.000186       0.00064
  28     23.16        0.0000        0.0000        0.0000        0.0001       0.000073       0.00022
  27     28.12        0.0000        0.0000        0.0000        0.0000       0.000029       0.00007
  26     33.73        0.0000        0.0000        0.0000        0.0000       0.000012       0.00003
  25     40.54        0.0000        0.0000        0.0000        0.0000       0.000005       0.00001
  24     48.69        0.0000        0.0000        0.0000        0.0000       0.000002       0.00000
  23     57.69        0.0000        0.0000        0.0000        0.0000       0.000001       0.00000
  22     68.43        0.0000        0.0000        0.0000        0.0000       0.000000       0.00000
  21     81.20        0.0000        0.0000        0.0000        0.0000       0.000000       0.00000
  20     96.49        0.0000        0.0000        0.0000        0.0000       0.000000       0.00000
  19     114.6        0.0000        0.0000        0.0000        0.0000       0.000000       0.00000
  18     136.5        0.0000        0.0000        0.0000        0.0000       0.000000       0.00000
  17     162.9        0.0000        0.0000        0.0000        0.0000       0.000000       0.00000
  16     196.4        0.0000        0.0000        0.0000        0.0000       0.000000       0.00000
  15     218.7        0.0000        0.0000        0.0000        0.0000       0.000000       0.00000
  14     243.0        0.0000        0.0000        0.0000        0.0000       0.000000       0.00000
  13     269.0        0.0000        0.0000        0.0000        0.0000       0.000000       0.00000
  12     297.5        0.0000        0.0000        0.0000        0.0000       0.000000       0.00000
  11     328.5        0.0000        0.0000        0.0000        0.0000       0.000000       0.00000
  10     361.9        0.0000        0.0000        0.0000        0.0000       0.000000       0.00000
   9     398.1        0.0000        0.0000        0.0000        0.0000       0.000000       0.00000
   8     437.6        0.0000        0.0000        0.0000        0.0000       0.000000       0.00000
   7     480.5        0.0000        0.0000        0.0000        0.0000       0.000000       0.00000
   6     533.0        0.0000        0.0000        0.0000        0.0000       0.000000       0.00000
   5     589.8        0.0000        0.0000        0.0000        0.0000       0.000000       0.00000
   4     651.6        0.0000        0.0000        0.0000        0.0000       0.000000       0.00000
   3     718.7        0.0000        0.0000        0.0000        0.0000       0.000000       0.00000
   2     792.3        0.0000        0.0000        0.0000        0.0000       0.000000       0.00000
   1     891.5        0.0000        0.0000        0.0000        0.0000       0.000000       0.00000
   0    1013.0        0.0000        0.0000        0.0000        0.0000       0.000000       0.00000



 Wavenumbers:   820. -  2600. cm-1, ATM      1
 LEVEL PRESSURE   UPWARD FLUX   DIFDOWN FLUX  DIRDOWN FLUX  DOWNWARD FLUX   NET FLUX    HEATING RATE
          mb          W/m2          W/m2          W/m2        W/m2          W/m2       degree/day
  51    .06700        0.1977        0.0000        3.8670        3.8670       3.669358       0.00000
  50    .07753        0.1977        0.0000        3.8644        3.8644       3.666759       2.08287
  49    .09103        0.1977        0.0000        3.8638        3.8638       3.666089       0.41878
  48    0.1069        0.1977        0.0000        3.8630        3.8630       3.665340       0.39874
  47    0.1255        0.1977        0.0000        3.8622        3.8622       3.664527       0.36879
  46    0.1487        0.1977        0.0000        3.8613        3.8613       3.663600       0.33798
  45    0.1794        0.1977        0.0000        3.8602        3.8602       3.662491       0.30446
  44    0.2165        0.1977        0.0000        3.8590        3.8590       3.661356       0.25804
  43    0.2613        0.1977        0.0000        3.8579        3.8579       3.660197       0.21851
  42    0.3336        0.1977        0.0000        3.8562        3.8562       3.658512       0.19646
  41    0.4307        0.1977        0.0000        3.8540        3.8540       3.656347       0.18827
  40    0.5894        0.1977        0.0000        3.8505        3.8505       3.652858       0.18550
  39     1.339        0.1977        0.0000        3.8352        3.8352       3.637509       0.17281
  38     1.782        0.1977        0.0000        3.8267        3.8267       3.629030       0.16143
  37     2.292        0.1977        0.0000        3.8172        3.8172       3.619511       0.15766
  36     2.964        0.2117        0.0000        0.9449        0.9449       0.733231      36.23154
  35     3.853        0.2177        0.0000        0.8746        0.8746       0.656890       0.72449
  34     5.035        0.2208        0.0000        0.8476        0.8476       0.626817       0.21483
  33     6.613        0.2224        0.0000        0.8348        0.8348       0.612315       0.07753
  32     8.786        0.2234        0.0000        0.8280        0.8280       0.604653       0.02976
  31     11.80        0.2240        0.0000        0.8239        0.8239       0.599956       0.01315
  30     15.07        0.2243        0.0000        0.8217        0.8217       0.597431       0.00652
  29     18.79        0.2245        0.0000        0.8203        0.8203       0.595819       0.00366
  28     23.16        0.2247        0.0000        0.8193        0.8193       0.594609       0.00234
  27     28.12        0.2248        0.0000        0.8185        0.8185       0.593713       0.00152
  26     33.73        0.2249        0.0000        0.8179        0.8179       0.593041       0.00101
  25     40.54        0.2249        0.0000        0.8174        0.8174       0.592470       0.00071
  24     48.69        0.2250        0.0000        0.8169        0.8169       0.591924       0.00057
  23     57.69        0.2251        0.0000        0.8165        0.8165       0.591420       0.00047
  22     68.43        0.2252        0.0000        0.8161        0.8161       0.590911       0.00040
  21     81.20        0.2252        0.0000        0.8156        0.8156       0.590397       0.00034
  20     96.49        0.2253        0.0000        0.8152        0.8152       0.589877       0.00029
  19     114.6        0.2254        0.0000        0.8147        0.8147       0.589379       0.00023
  18     136.5        0.2254        0.0000        0.8143        0.8143       0.588857       0.00020
  17     162.9        0.2255        0.0000        0.8139        0.8139       0.588373       0.00015
  16     196.4        0.2256        0.0000        0.8135        0.8135       0.587971       0.00010
  15     218.7        0.2256        0.0000        0.8134        0.8134       0.587834       0.00005
  14     243.0        0.2256        0.0000        0.8133        0.8133       0.587730       0.00004
  13     269.0        0.2256        0.0000        0.8132        0.8132       0.587642       0.00003
  12     297.5        0.2256        0.0000        0.8131        0.8131       0.587541       0.00003
  11     328.5        0.2256        0.0000        0.8130        0.8130       0.587405       0.00004
  10     361.9        0.2257        0.0000        0.8128        0.8129       0.587202       0.00005
   9     398.1        0.2257        0.0000        0.8126        0.8126       0.586902       0.00007
   8     437.6        0.2258        0.0000        0.8122        0.8122       0.586463       0.00009
   7     480.5        0.2258        0.0000        0.8117        0.8117       0.585835       0.00012
   6     533.0        0.2260        0.0000        0.8107        0.8108       0.584770       0.00017
   5     589.8        0.2262        0.0000        0.8094        0.8094       0.583246       0.00023
   4     651.6        0.2266        0.0000        0.8072        0.8072       0.580623       0.00036
   3     718.7        0.2272        0.0000        0.8034        0.8034       0.576269       0.00055
   2     792.3        0.2282        0.0000        0.7975        0.7975       0.569342       0.00079
   1     891.5        0.2301        0.0000        0.7858        0.7858       0.555651       0.00117
   0    1013.0        0.2336        0.0000        0.7659        0.7659       0.532321       0.00162

  Modules and versions used in this calculation:

       rrtmg_sw.1col.f90:  $Revision$                    rrtmg_sw_init.f90:  $Revision$        
     rrtmgsw_cldprop.f90:  $Revision$                  rrtmgsw_cldprmc.f90:  NOT USED          
     rrtmg_sw_reftra.f90:  $Revision$                  rrtmg_sw_spcvrt.f90:  NOT USED          
     rrtmg_sw_spcvmc.f90:  NOT USED                    rrtmgsw_setcoef.f90:  NOT USED          
     rrtmg_sw_taumol.f90:  $Revision$                  rrtmg_sw_vrtqdr.f90:  NOT USED          
                rrtatm.f:  NOT USED                             util_xxx.f:  NOT USED          
                 extra.f:  NOT USED                       rrtmg_sw_k_g.f90:  $Revision$        

