

 Wavenumbers:   820. - 50000. cm-1, ATM      1
 LEVEL PRESSURE   UPWARD FLUX   DIFDOWN FLUX  DIRDOWN FLUX  DOWNWARD FLUX   NET FLUX    HEATING RATE
          mb          W/m2          W/m2          W/m2        W/m2          W/m2       degree/day
  51    .06700      176.0579        0.0000      397.8738      397.8738     221.815861       0.00000
  50    .07753      176.0573        0.0011      397.8580      397.8591     221.801802      11.26843
  49    .09103      176.0565        0.0026      397.8425      397.8450     221.788523       8.29996
  48    0.1069      176.0556        0.0042      397.8240      397.8282     221.772609       8.47118
  47    0.1255      176.0546        0.0061      397.8011      397.8073     221.752620       9.06218
  46    0.1487      176.0534        0.0085      397.7696      397.7782     221.724726      10.16752
  45    0.1794      176.0518        0.0118      397.7232      397.7350     221.683156      11.41198
  44    0.2165      176.0500        0.0156      397.6637      397.6793     221.629303      12.25054
  43    0.2613      176.0479        0.0202      397.5872      397.6074     221.559479      13.16165
  42    0.3336      176.0446        0.0276      397.4508      397.4784     221.433789      14.65421
  41    0.4307      176.0405        0.0374      397.2602      397.2976     221.257097      15.36291
  40    0.5894      176.0344        0.0531      396.9364      396.9895     220.955073      16.06126
  39     1.339      176.0161        0.1232      395.4500      395.5732     219.557060      15.73909
  38     1.782      176.0124        0.1625      394.7602      394.9226     218.910251      12.31419
  37     2.292      176.0143        0.2071      394.0950      394.3021     218.287821      10.30908
  36     2.964      175.9839        0.3730      381.1168      381.4897     205.505810     160.45287
  35     3.853      175.9967        0.4872      378.9628      379.4500     203.453378      19.47795
  34     5.035      176.0380        0.6039      377.3917      377.9956     201.957571      10.68542
  33     6.613      176.1051        0.7436      375.9774      376.7210     200.615851       7.17284
  32     8.786      176.1932        0.9232      374.5671      375.4902     199.297080       5.12163
  31     11.80      176.3000        1.1744      372.9921      374.1666     197.866560       4.00501
  30     15.07      176.3914        1.4407      371.5886      373.0293     196.637932       3.17208
  29     18.79      176.4737        1.7386      370.2005      371.9390     195.465356       2.65859
  28     23.16      176.5455        2.0834      368.7501      370.8335     194.287923       2.27678
  27     28.12      176.5992        2.4743      367.2596      369.7339     193.134740       1.96033
  26     33.73      176.6173        2.9085      365.7807      368.6892     192.071910       1.59799
  25     40.54      176.5905        3.4291      364.1892      367.6183     191.027792       1.29535
  24     48.69      176.5120        4.0511      362.4480      366.4991     189.987109       1.07694
  23     57.69      176.3815        4.7278      360.6975      365.4253     189.043835       0.88418
  22     68.43      176.1785        5.5253      358.7827      364.3079     188.129406       0.71886
  21     81.20      175.8711        6.4650      356.7203      363.1853     187.314242       0.53865
  20     96.49      175.4456        7.5701      354.4707      362.0409     186.595220       0.39685
  19     114.6      174.9261        8.8599      351.5171      360.3770     185.450845       0.53434
  18     136.5      174.2983       10.3568      348.3486      358.7054     184.407053       0.40136
  17     162.9      173.5448       12.0962      344.8315      356.9277     183.382877       0.32737
  16     196.4      172.5453       14.2870      340.5872      354.8742     182.328940       0.26529
  15     218.7      171.8864       15.6867      337.9380      353.6247     181.738291       0.22425
  14     243.0      171.1750       17.1747      335.1459      352.3206     181.145606       0.20556
  13     269.0      170.4102       18.7494      332.1942      350.9436     180.533391       0.19860
  12     297.5      169.5926       20.4085      329.0192      349.4277     179.835070       0.20711
  11     328.5      168.7246       22.1532      325.4879      347.6412     178.916599       0.24973
  10     361.9      167.8090       23.9780      321.4626      345.4405     177.631538       0.32513
   9     398.1      166.8464       25.8823      316.7999      342.6822     175.835796       0.41837
   8     437.6      165.8412       27.8606      311.3667      339.2272     173.385984       0.52378
   7     480.5      164.7984       29.9083      305.0480      334.9564     170.157989       0.63397
   6     533.0      163.5696       32.3298      296.7188      329.0486     165.478996       0.75270
   5     589.8      162.3167       34.8245      287.6290      322.4534     160.136740       0.79297
   4     651.6      161.0595       37.3812      278.0843      315.4656     154.406046       0.78369
   3     718.7      159.8253       39.9896      268.2158      308.2054     148.380129       0.75729
   2     792.3      158.6570       42.6332      258.0166      300.6498     141.992812       0.73255
   1     891.5      157.3720       45.9741      244.9198      290.8939     133.521869       0.72084
   0    1013.0      156.4270       49.6651      230.1651      279.8302     123.403200       0.70259



 Wavenumbers:  2600. -  3250. cm-1, ATM      1
 LEVEL PRESSURE   UPWARD FLUX   DIFDOWN FLUX  DIRDOWN FLUX  DOWNWARD FLUX   NET FLUX    HEATING RATE
          mb          W/m2          W/m2          W/m2        W/m2          W/m2       degree/day
  51    .06700        0.3462        0.0000        3.5066        3.5066       3.160392       0.00000
  50    .07753        0.3462        0.0000        3.5066        3.5066       3.160384       0.00640
  49    .09103        0.3462        0.0000        3.5066        3.5066       3.160374       0.00627
  48    0.1069        0.3462        0.0000        3.5066        3.5066       3.160363       0.00613
  47    0.1255        0.3462        0.0000        3.5066        3.5066       3.160350       0.00599
  46    0.1487        0.3462        0.0000        3.5066        3.5066       3.160333       0.00607
  45    0.1794        0.3462        0.0000        3.5065        3.5065       3.160310       0.00624
  44    0.2165        0.3462        0.0000        3.5065        3.5065       3.160283       0.00611
  43    0.2613        0.3462        0.0000        3.5065        3.5065       3.160252       0.00598
  42    0.3336        0.3462        0.0000        3.5064        3.5064       3.160199       0.00615
  41    0.4307        0.3462        0.0000        3.5064        3.5064       3.160128       0.00617
  40    0.5894        0.3462        0.0000        3.5062        3.5062       3.160009       0.00633
  39     1.339        0.3462        0.0000        3.5055        3.5055       3.159310       0.00787
  38     1.782        0.3462        0.0000        3.5050        3.5050       3.158779       0.01010
  37     2.292        0.3462        0.0000        3.5043        3.5043       3.158087       0.01147
  36     2.964        0.3462        0.0000        3.5033        3.5033       3.157097       0.01243
  35     3.853        0.3462        0.0000        3.5019        3.5019       3.155719       0.01307
  34     5.035        0.3462        0.0000        3.5001        3.5001       3.153856       0.01331
  33     6.613        0.3462        0.0000        3.4977        3.4977       3.151443       0.01290
  32     8.786        0.3462        0.0000        3.4947        3.4947       3.148464       0.01157
  31     11.80        0.3462        0.0000        3.4910        3.4910       3.144821       0.01020
  30     15.07        0.3462        0.0000        3.4878        3.4878       3.141592       0.00834
  29     18.79        0.3462        0.0000        3.4847        3.4847       3.138513       0.00698
  28     23.16        0.3462        0.0000        3.4815        3.4815       3.135271       0.00627
  27     28.12        0.3462        0.0000        3.4778        3.4779       3.131627       0.00619
  26     33.73        0.3462        0.0000        3.4733        3.4734       3.127132       0.00676
  25     40.54        0.3462        0.0000        3.4670        3.4670       3.120771       0.00789
  24     48.69        0.3462        0.0000        3.4580        3.4580       3.111815       0.00927
  23     57.69        0.3462        0.0000        3.4469        3.4469       3.100675       0.01044
  22     68.43        0.3462        0.0000        3.4324        3.4325       3.086242       0.01135
  21     81.20        0.3462        0.0000        3.4145        3.4146       3.068314       0.01185
  20     96.49        0.3462        0.0000        3.3932        3.3932       3.046967       0.01178
  19     114.6        0.3463        0.0000        3.3385        3.3386       2.992226       0.02556
  18     136.5        0.3464        0.0001        3.2926        3.2927       2.946235       0.01768
  17     162.9        0.3466        0.0001        3.2534        3.2535       2.906895       0.01257
  16     196.4        0.3467        0.0001        3.2150        3.2150       2.868277       0.00972
  15     218.7        0.3469        0.0001        3.1935        3.1935       2.846669       0.00820
  14     243.0        0.3470        0.0001        3.1719        3.1719       2.824911       0.00755
  13     269.0        0.3472        0.0001        3.1489        3.1490       2.801750       0.00751
  12     297.5        0.3474        0.0001        3.1217        3.1218       2.774370       0.00812
  11     328.5        0.3478        0.0001        3.0864        3.0865       2.738771       0.00968
  10     361.9        0.3482        0.0001        3.0385        3.0386       2.690413       0.01224
   9     398.1        0.3488        0.0001        2.9736        2.9738       2.624954       0.01525
   8     437.6        0.3497        0.0001        2.8877        2.8878       2.538148       0.01856
   7     480.5        0.3509        0.0002        2.7772        2.7774       2.426466       0.02193
   6     533.0        0.3530        0.0002        2.6210        2.6212       2.268129       0.02547
   5     589.8        0.3561        0.0002        2.4493        2.4495       2.093406       0.02593
   4     651.6        0.3605        0.0002        2.2711        2.2713       1.910770       0.02498
   3     718.7        0.3669        0.0002        2.0871        2.0873       1.720419       0.02392
   2     792.3        0.3760        0.0002        1.8948        1.8950       1.518995       0.02310
   1     891.5        0.3931        0.0002        1.6517        1.6519       1.258756       0.02215
   0    1013.0        0.4256        0.0002        1.3953        1.3955       0.969903       0.02006



 Wavenumbers:  3250. -  4000. cm-1, ATM      1
 LEVEL PRESSURE   UPWARD FLUX   DIFDOWN FLUX  DIRDOWN FLUX  DOWNWARD FLUX   NET FLUX    HEATING RATE
          mb          W/m2          W/m2          W/m2        W/m2          W/m2       degree/day
  51    .06700        0.0010        0.0000        5.9117        5.9117       5.910684       0.00000
  50    .07753        0.0010        0.0000        5.9075        5.9075       5.906522       3.33612
  49    .09103        0.0010        0.0000        5.9052        5.9052       5.904233       1.43071
  48    0.1069        0.0010        0.0000        5.9035        5.9035       5.902520       0.91191
  47    0.1255        0.0010        0.0000        5.9019        5.9019       5.900900       0.73438
  46    0.1487        0.0010        0.0000        5.9001        5.9001       5.899165       0.63248
  45    0.1794        0.0010        0.0000        5.8982        5.8982       5.897188       0.54264
  44    0.2165        0.0010        0.0000        5.8962        5.8962       5.895240       0.44317
  43    0.2613        0.0010        0.0000        5.8943        5.8943       5.893291       0.36742
  42    0.3336        0.0010        0.0000        5.8915        5.8915       5.890535       0.32132
  41    0.4307        0.0010        0.0000        5.8881        5.8881       5.887162       0.29332
  40    0.5894        0.0010        0.0000        5.8830        5.8830       5.882055       0.27154
  39     1.339        0.0010        0.0000        5.8641        5.8641       5.863135       0.21300
  38     1.782        0.0010        0.0000        5.8561        5.8561       5.855145       0.15212
  37     2.292        0.0010        0.0000        5.8483        5.8483       5.847358       0.12897
  36     2.964        0.0010        0.0000        3.1846        3.1846       3.183607      33.43813
  35     3.853        0.0010        0.0000        2.8921        2.8921       2.891138       2.77559
  34     5.035        0.0010        0.0000        2.7474        2.7475       2.746470       1.03345
  33     6.613        0.0010        0.0000        2.6618        2.6618       2.660811       0.45794
  32     8.786        0.0010        0.0000        2.6054        2.6054       2.604438       0.21893
  31     11.80        0.0010        0.0000        2.5618        2.5618       2.560776       0.12224
  30     15.07        0.0010        0.0000        2.5323        2.5323       2.531364       0.07594
  29     18.79        0.0010        0.0000        2.5092        2.5093       2.508274       0.05235
  28     23.16        0.0010        0.0000        2.4882        2.4882       2.487247       0.04066
  27     28.12        0.0010        0.0000        2.4694        2.4694       2.468415       0.03201
  26     33.73        0.0010        0.0000        2.4524        2.4524       2.451430       0.02554
  25     40.54        0.0010        0.0000        2.4350        2.4350       2.434058       0.02155
  24     48.69        0.0010        0.0000        2.4152        2.4152       2.414233       0.02052
  23     57.69        0.0010        0.0000        2.3937        2.3938       2.392813       0.02008
  22     68.43        0.0010        0.0000        2.3688        2.3689       2.367903       0.01958
  21     81.20        0.0010        0.0001        2.3403        2.3404       2.339429       0.01882
  20     96.49        0.0009        0.0001        2.3080        2.3081       2.307153       0.01781
  19     114.6        0.0009        0.0001        2.2716        2.2717       2.270736       0.01700
  18     136.5        0.0009        0.0001        2.2312        2.2312       2.230315       0.01554
  17     162.9        0.0009        0.0001        2.1868        2.1869       2.185956       0.01418
  16     196.4        0.0009        0.0001        2.1344        2.1345       2.133615       0.01317
  15     218.7        0.0009        0.0001        2.1028        2.1029       2.102012       0.01200
  14     243.0        0.0009        0.0001        2.0706        2.0707       2.069858       0.01115
  13     269.0        0.0009        0.0001        2.0360        2.0361       2.035255       0.01123
  12     297.5        0.0008        0.0002        1.9917        1.9919       1.991016       0.01312
  11     328.5        0.0008        0.0002        1.9262        1.9264       1.925532       0.01780
  10     361.9        0.0008        0.0002        1.8295        1.8296       1.828815       0.02447
   9     398.1        0.0008        0.0002        1.6980        1.6982       1.697357       0.03063
   8     437.6        0.0008        0.0002        1.5329        1.5331       1.532289       0.03529
   7     480.5        0.0008        0.0002        1.3382        1.3384       1.337623       0.03823
   6     533.0        0.0008        0.0002        1.0925        1.0927       1.091885       0.03953
   5     589.8        0.0009        0.0002        0.8461        0.8462       0.845348       0.03659
   4     651.6        0.0010        0.0001        0.6114        0.6115       0.610528       0.03211
   3     718.7        0.0011        0.0001        0.4084        0.4085       0.407351       0.02553
   2     792.3        0.0015        0.0001        0.2453        0.2454       0.243916       0.01874
   1     891.5        0.0024        0.0000        0.1002        0.1002       0.097810       0.01243
   0    1013.0        0.0062        0.0000        0.0203        0.0203       0.014097       0.00581



 Wavenumbers:  4000. -  4650. cm-1, ATM      1
 LEVEL PRESSURE   UPWARD FLUX   DIFDOWN FLUX  DIRDOWN FLUX  DOWNWARD FLUX   NET FLUX    HEATING RATE
          mb          W/m2          W/m2          W/m2        W/m2          W/m2       degree/day
  51    .06700        1.2984        0.0000        6.9421        6.9421       5.643717       0.00000
  50    .07753        1.2984        0.0000        6.9421        6.9421       5.643716       0.00080
  49    .09103        1.2984        0.0000        6.9421        6.9421       5.643714       0.00079
  48    0.1069        1.2984        0.0000        6.9421        6.9421       5.643713       0.00077
  47    0.1255        1.2984        0.0000        6.9421        6.9421       5.643711       0.00075
  46    0.1487        1.2984        0.0000        6.9421        6.9421       5.643709       0.00076
  45    0.1794        1.2984        0.0000        6.9421        6.9421       5.643706       0.00078
  44    0.2165        1.2984        0.0000        6.9421        6.9421       5.643703       0.00077
  43    0.2613        1.2984        0.0000        6.9421        6.9421       5.643699       0.00075
  42    0.3336        1.2984        0.0000        6.9420        6.9420       5.643692       0.00077
  41    0.4307        1.2984        0.0000        6.9420        6.9420       5.643683       0.00078
  40    0.5894        1.2984        0.0000        6.9420        6.9420       5.643668       0.00080
  39     1.339        1.2983        0.0000        6.9419        6.9419       5.643578       0.00101
  38     1.782        1.2983        0.0000        6.9418        6.9419       5.643508       0.00134
  37     2.292        1.2983        0.0000        6.9418        6.9418       5.643414       0.00156
  36     2.964        1.2983        0.0000        6.9416        6.9416       5.643273       0.00177
  35     3.853        1.2983        0.0000        6.9414        6.9414       5.643064       0.00198
  34     5.035        1.2983        0.0000        6.9411        6.9411       5.642757       0.00220
  33     6.613        1.2983        0.0000        6.9406        6.9406       5.642304       0.00242
  32     8.786        1.2983        0.0000        6.9399        6.9400       5.641637       0.00259
  31     11.80        1.2983        0.0001        6.9388        6.9389       5.640591       0.00293
  30     15.07        1.2983        0.0001        6.9376        6.9377       5.639367       0.00316
  29     18.79        1.2983        0.0001        6.9361        6.9362       5.637891       0.00335
  28     23.16        1.2983        0.0001        6.9342        6.9343       5.636066       0.00353
  27     28.12        1.2983        0.0001        6.9320        6.9321       5.633866       0.00374
  26     33.73        1.2983        0.0001        6.9293        6.9294       5.631165       0.00406
  25     40.54        1.2982        0.0002        6.9256        6.9258       5.627521       0.00452
  24     48.69        1.2982        0.0002        6.9207        6.9209       5.622697       0.00499
  23     57.69        1.2982        0.0002        6.9150        6.9152       5.617014       0.00533
  22     68.43        1.2982        0.0003        6.9079        6.9081       5.609946       0.00556
  21     81.20        1.2982        0.0003        6.8992        6.8995       5.601302       0.00571
  20     96.49        1.2982        0.0004        6.8887        6.8890       5.590853       0.00577
  19     114.6        1.2983        0.0004        6.8578        6.8582       5.559872       0.01447
  18     136.5        1.2985        0.0005        6.8304        6.8309       5.532352       0.01058
  17     162.9        1.2988        0.0006        6.8009        6.8015       5.502679       0.00948
  16     196.4        1.2992        0.0007        6.7648        6.7656       5.466384       0.00914
  15     218.7        1.2994        0.0008        6.7419        6.7427       5.443290       0.00877
  14     243.0        1.2998        0.0009        6.7175        6.7184       5.418664       0.00854
  13     269.0        1.3002        0.0010        6.6910        6.6920       5.391891       0.00869
  12     297.5        1.3006        0.0011        6.6605        6.6617       5.361006       0.00916
  11     328.5        1.3013        0.0012        6.6225        6.6237       5.322384       0.01050
  10     361.9        1.3023        0.0013        6.5732        6.5745       5.272214       0.01269
   9     398.1        1.3037        0.0015        6.5081        6.5095       5.205842       0.01546
   8     437.6        1.3055        0.0016        6.4247        6.4262       5.120758       0.01819
   7     480.5        1.3078        0.0017        6.3212        6.3229       5.015084       0.02075
   6     533.0        1.3113        0.0019        6.1803        6.1821       4.870805       0.02321
   5     589.8        1.3161        0.0020        6.0214        6.0234       4.707282       0.02427
   4     651.6        1.3228        0.0022        5.8348        5.8369       4.514119       0.02642
   3     718.7        1.3323        0.0023        5.6104        5.6128       4.280496       0.02936
   2     792.3        1.3458        0.0025        5.3524        5.3549       4.009074       0.03113
   1     891.5        1.3712        0.0027        5.0153        5.0180       3.646768       0.03083
   0    1013.0        1.4189        0.0028        4.6499        4.6528       3.233832       0.02867



 Wavenumbers:  4650. -  5150. cm-1, ATM      1
 LEVEL PRESSURE   UPWARD FLUX   DIFDOWN FLUX  DIRDOWN FLUX  DOWNWARD FLUX   NET FLUX    HEATING RATE
          mb          W/m2          W/m2          W/m2        W/m2          W/m2       degree/day
  51    .06700        0.8862        0.0000        6.5710        6.5710       5.684829       0.00000
  50    .07753        0.8862        0.0000        6.5708        6.5708       5.684594       0.18821
  49    .09103        0.8862        0.0000        6.5705        6.5705       5.684301       0.18296
  48    0.1069        0.8862        0.0000        6.5701        6.5701       5.683968       0.17740
  47    0.1255        0.8862        0.0000        6.5698        6.5698       5.683589       0.17172
  46    0.1487        0.8862        0.0000        6.5693        6.5693       5.683117       0.17200
  45    0.1794        0.8862        0.0000        6.5686        6.5686       5.682483       0.17402
  44    0.2165        0.8862        0.0000        6.5679        6.5679       5.681748       0.16719
  43    0.2613        0.8862        0.0000        6.5671        6.5671       5.680899       0.16013
  42    0.3336        0.8862        0.0000        6.5657        6.5657       5.679541       0.15830
  41    0.4307        0.8862        0.0000        6.5640        6.5640       5.677821       0.14952
  40    0.5894        0.8862        0.0000        6.5614        6.5614       5.675210       0.13889
  39     1.339        0.8862        0.0000        6.5516        6.5516       5.665453       0.10985
  38     1.782        0.8862        0.0000        6.5474        6.5474       5.661228       0.08042
  37     2.292        0.8862        0.0000        6.5434        6.5435       5.657308       0.06493
  36     2.964        0.8861        0.0000        6.5394        6.5394       5.653287       0.05047
  35     3.853        0.8861        0.0000        6.5354        6.5354       5.649254       0.03828
  34     5.035        0.8861        0.0000        6.5312        6.5313       5.645157       0.02927
  33     6.613        0.8861        0.0000        6.5268        6.5268       5.640681       0.02393
  32     8.786        0.8861        0.0001        6.5212        6.5212       5.635129       0.02156
  31     11.80        0.8861        0.0001        6.5130        6.5131       5.626990       0.02279
  30     15.07        0.8861        0.0001        6.5036        6.5037       5.617565       0.02433
  29     18.79        0.8861        0.0001        6.4919        6.4921       5.605988       0.02625
  28     23.16        0.8861        0.0001        6.4772        6.4774       5.591319       0.02837
  27     28.12        0.8861        0.0002        6.4592        6.4593       5.573296       0.03064
  26     33.73        0.8860        0.0002        6.4377        6.4379       5.551847       0.03225
  25     40.54        0.8860        0.0002        6.4105        6.4108       5.524742       0.03363
  24     48.69        0.8860        0.0003        6.3769        6.3772       5.491148       0.03476
  23     57.69        0.8860        0.0003        6.3398        6.3401       5.454095       0.03473
  22     68.43        0.8860        0.0004        6.2966        6.2970       5.410926       0.03394
  21     81.20        0.8861        0.0005        6.2477        6.2481       5.362081       0.03228
  20     96.49        0.8861        0.0005        6.1942        6.1947       5.308608       0.02951
  19     114.6        0.8863        0.0006        6.1283        6.1289       5.242677       0.03079
  18     136.5        0.8865        0.0008        6.0614        6.0622       5.175708       0.02575
  17     162.9        0.8868        0.0009        5.9914        5.9923       5.105574       0.02242
  16     196.4        0.8872        0.0011        5.9083        5.9093       5.022130       0.02100
  15     218.7        0.8875        0.0012        5.8555        5.8566       4.969122       0.02013
  14     243.0        0.8879        0.0013        5.7982        5.7995       4.911608       0.01995
  13     269.0        0.8883        0.0014        5.7354        5.7368       4.848486       0.02048
  12     297.5        0.8889        0.0015        5.6646        5.6662       4.777246       0.02113
  11     328.5        0.8897        0.0017        5.5825        5.5842       4.694546       0.02249
  10     361.9        0.8908        0.0018        5.4852        5.4870       4.596250       0.02487
   9     398.1        0.8922        0.0020        5.3727        5.3747       4.482420       0.02652
   8     437.6        0.8942        0.0021        5.2416        5.2437       4.349537       0.02841
   7     480.5        0.8968        0.0023        5.0910        5.0933       4.196540       0.03005
   6     533.0        0.9009        0.0025        4.8931        4.8955       3.994630       0.03248
   5     589.8        0.9066        0.0026        4.6737        4.6764       3.769791       0.03337
   4     651.6        0.9143        0.0028        4.4428        4.4456       3.531269       0.03262
   3     718.7        0.9249        0.0029        4.2035        4.2065       3.281579       0.03138
   2     792.3        0.9395        0.0031        3.9597        3.9627       3.023231       0.02963
   1     891.5        0.9660        0.0033        3.6518        3.6551       2.689103       0.02843
   0    1013.0        1.0120        0.0034        3.3154        3.3188       2.306746       0.02655



 Wavenumbers:  5150. -  6150. cm-1, ATM      1
 LEVEL PRESSURE   UPWARD FLUX   DIFDOWN FLUX  DIRDOWN FLUX  DOWNWARD FLUX   NET FLUX    HEATING RATE
          mb          W/m2          W/m2          W/m2        W/m2          W/m2       degree/day
  51    .06700        2.3037        0.0000       16.4735       16.4735      14.169765       0.00000
  50    .07753        2.3037        0.0000       16.4735       16.4735      14.169765       0.00019
  49    .09103        2.3037        0.0000       16.4735       16.4735      14.169764       0.00018
  48    0.1069        2.3037        0.0000       16.4735       16.4735      14.169764       0.00018
  47    0.1255        2.3037        0.0000       16.4735       16.4735      14.169764       0.00017
  46    0.1487        2.3037        0.0000       16.4735       16.4735      14.169763       0.00018
  45    0.1794        2.3037        0.0000       16.4735       16.4735      14.169763       0.00018
  44    0.2165        2.3037        0.0000       16.4735       16.4735      14.169762       0.00018
  43    0.2613        2.3037        0.0000       16.4735       16.4735      14.169761       0.00018
  42    0.3336        2.3037        0.0000       16.4735       16.4735      14.169759       0.00018
  41    0.4307        2.3037        0.0000       16.4735       16.4735      14.169757       0.00018
  40    0.5894        2.3037        0.0000       16.4735       16.4735      14.169754       0.00019
  39     1.339        2.3037        0.0000       16.4734       16.4734      14.169733       0.00024
  38     1.782        2.3037        0.0000       16.4734       16.4734      14.169716       0.00031
  37     2.292        2.3037        0.0001       16.4733       16.4734      14.169694       0.00037
  36     2.964        2.3047        0.0001       14.0703       14.0704      11.765669      30.17777
  35     3.853        2.3052        0.0001       13.7228       13.7229      11.417712       3.30218
  34     5.035        2.3055        0.0002       13.5528       13.5530      11.247428       1.21643
  33     6.613        2.3058        0.0002       13.4522       13.4524      11.146644       0.53879
  32     8.786        2.3059        0.0002       13.3858       13.3860      11.080111       0.25839
  31     11.80        2.3060        0.0003       13.3341       13.3344      11.028421       0.14472
  30     15.07        2.3061        0.0004       13.2993       13.2996      10.993569       0.08998
  29     18.79        2.3061        0.0005       13.2719       13.2723      10.966222       0.06201
  28     23.16        2.3061        0.0005       13.2470       13.2475      10.941365       0.04806
  27     28.12        2.3062        0.0007       13.2247       13.2254      10.919209       0.03767
  26     33.73        2.3062        0.0008       13.2047       13.2055      10.899284       0.02996
  25     40.54        2.3062        0.0009       13.1841       13.1851      10.878872       0.02532
  24     48.69        2.3062        0.0011       13.1605       13.1616      10.855359       0.02433
  23     57.69        2.3063        0.0013       13.1346       13.1359      10.829595       0.02415
  22     68.43        2.3063        0.0015       13.1040       13.1055      10.799133       0.02395
  21     81.20        2.3064        0.0018       13.0680       13.0698      10.763391       0.02362
  20     96.49        2.3065        0.0021       13.0264       13.0285      10.721970       0.02286
  19     114.6        2.3067        0.0025       12.9788       12.9813      10.674652       0.02209
  18     136.5        2.3068        0.0029       12.9260       12.9289      10.622117       0.02020
  17     162.9        2.3070        0.0035       12.8694       12.8729      10.565923       0.01796
  16     196.4        2.3071        0.0041       12.8063       12.8104      10.503372       0.01574
  15     218.7        2.3071        0.0046       12.7709       12.7755      10.468418       0.01327
  14     243.0        2.3071        0.0051       12.7346       12.7397      10.432606       0.01242
  13     269.0        2.3071        0.0056       12.6944       12.7001      10.393000       0.01285
  12     297.5        2.3071        0.0062       12.6406       12.6468      10.339688       0.01581
  11     328.5        2.3071        0.0068       12.5543       12.5611      10.253950       0.02331
  10     361.9        2.3073        0.0074       12.4111       12.4186      10.111240       0.03611
   9     398.1        2.3077        0.0081       12.1862       12.1943       9.886658       0.05232
   8     437.6        2.3083        0.0087       11.8589       11.8676       9.559330       0.06998
   7     480.5        2.3093        0.0093       11.4232       11.4324       9.123158       0.08566
   6     533.0        2.3113        0.0099       10.8274       10.8373       8.525980       0.09607
   5     589.8        2.3146        0.0104       10.2407       10.2511       7.936564       0.08749
   4     651.6        2.3199        0.0110        9.7321        9.7431       7.423203       0.07020
   3     718.7        2.3283        0.0116        9.3126        9.3242       6.995825       0.05371
   2     792.3        2.3420        0.0123        8.9464        8.9587       6.616646       0.04349
   1     891.5        2.3711        0.0132        8.4949        8.5082       6.137103       0.04081
   0    1013.0        2.4342        0.0143        7.9693        7.9836       5.549363       0.04081



 Wavenumbers:  6150. -  7700. cm-1, ATM      1
 LEVEL PRESSURE   UPWARD FLUX   DIFDOWN FLUX  DIRDOWN FLUX  DOWNWARD FLUX   NET FLUX    HEATING RATE
          mb          W/m2          W/m2          W/m2        W/m2          W/m2       degree/day
  51    .06700        3.5722        0.0000       30.4684       30.4684      26.896195       0.00000
  50    .07753        3.5722        0.0000       30.4684       30.4684      26.896178       0.01303
  49    .09103        3.5722        0.0000       30.4683       30.4683      26.896158       0.01277
  48    0.1069        3.5722        0.0000       30.4683       30.4683      26.896135       0.01250
  47    0.1255        3.5722        0.0000       30.4683       30.4683      26.896108       0.01223
  46    0.1487        3.5722        0.0000       30.4682       30.4683      26.896074       0.01241
  45    0.1794        3.5722        0.0000       30.4682       30.4682      26.896027       0.01276
  44    0.2165        3.5722        0.0000       30.4681       30.4681      26.895972       0.01252
  43    0.2613        3.5722        0.0000       30.4681       30.4681      26.895907       0.01228
  42    0.3336        3.5722        0.0000       30.4679       30.4680      26.895799       0.01256
  41    0.4307        3.5722        0.0000       30.4678       30.4678      26.895656       0.01241
  40    0.5894        3.5721        0.0001       30.4675       30.4676      26.895424       0.01239
  39     1.339        3.5721        0.0001       30.4662       30.4664      26.894324       0.01238
  38     1.782        3.5720        0.0002       30.4655       30.4657      26.893679       0.01227
  37     2.292        3.5720        0.0002       30.4647       30.4649      26.892934       0.01234
  36     2.964        3.5729        0.0004       26.5347       26.5351      22.962139      49.34336
  35     3.853        3.5734        0.0005       25.9836       25.9842      22.410734       5.23293
  34     5.035        3.5737        0.0007       25.7193       25.7200      22.146276       1.88918
  33     6.613        3.5738        0.0008       25.5669       25.5677      21.993850       0.81487
  32     8.786        3.5738        0.0010       25.4685       25.4695      21.895653       0.38136
  31     11.80        3.5737        0.0013       25.3937       25.3950      21.821270       0.20825
  30     15.07        3.5736        0.0016       25.3443       25.3459      21.772304       0.12642
  29     18.79        3.5733        0.0019       25.3061       25.3080      21.734676       0.08532
  28     23.16        3.5730        0.0024       25.2718       25.2741      21.701090       0.06494
  27     28.12        3.5727        0.0028       25.2416       25.2444      21.671745       0.04988
  26     33.73        3.5723        0.0033       25.2151       25.2184      21.646077       0.03859
  25     40.54        3.5718        0.0039       25.1886       25.1925      21.620703       0.03148
  24     48.69        3.5712        0.0047       25.1589       25.1636      21.592366       0.02932
  23     57.69        3.5705        0.0055       25.1270       25.1326      21.562023       0.02844
  22     68.43        3.5698        0.0065       25.0900       25.0965      21.526758       0.02772
  21     81.20        3.5688        0.0077       25.0469       25.0546      21.485766       0.02709
  20     96.49        3.5677        0.0090       24.9969       25.0059      21.438217       0.02624
  19     114.6        3.5664        0.0107       24.9385       24.9492      21.382825       0.02586
  18     136.5        3.5648        0.0126       24.8713       24.8839      21.319153       0.02448
  17     162.9        3.5629        0.0150       24.7937       24.8087      21.245789       0.02345
  16     196.4        3.5604        0.0180       24.6966       24.7146      21.154143       0.02307
  15     218.7        3.5588        0.0199       24.6347       24.6546      21.095800       0.02215
  14     243.0        3.5571        0.0221       24.5688       24.5909      21.033778       0.02151
  13     269.0        3.5552        0.0244       24.4944       24.5188      20.963577       0.02277
  12     297.5        3.5532        0.0269       24.3937       24.4206      20.867415       0.02852
  11     328.5        3.5512        0.0295       24.2312       24.2607      20.709509       0.04293
  10     361.9        3.5493        0.0323       23.9597       23.9920      20.442719       0.06750
   9     398.1        3.5477        0.0351       23.5284       23.5635      20.015789       0.09947
   8     437.6        3.5466        0.0378       22.8875       22.9253      19.378723       0.13621
   7     480.5        3.5466        0.0403       22.0003       22.0406      18.493994       0.17376
   6     533.0        3.5488        0.0427       20.7079       20.7505      17.201758       0.20788
   5     589.8        3.5546        0.0446       19.3090       19.3536      15.799064       0.20821
   4     651.6        3.5659        0.0463       17.9289       17.9753      14.409344       0.19005
   3     718.7        3.5859        0.0479       16.6157       16.6635      13.077618       0.16736
   2     792.3        3.6198        0.0492       15.3753       15.4245      11.804728       0.14599
   1     891.5        3.6931        0.0509       13.9739       14.0248      10.331704       0.12535
   0    1013.0        3.8526        0.0527       12.5881       12.6408       8.788247       0.10717



 Wavenumbers:  7700. -  8050. cm-1, ATM      1
 LEVEL PRESSURE   UPWARD FLUX   DIFDOWN FLUX  DIRDOWN FLUX  DOWNWARD FLUX   NET FLUX    HEATING RATE
          mb          W/m2          W/m2          W/m2        W/m2          W/m2       degree/day
  51    .06700        1.7038        0.0000        7.2006        7.2006       5.496832       0.00000
  50    .07753        1.7038        0.0000        7.2006        7.2006       5.496814       0.01510
  49    .09103        1.7038        0.0000        7.2005        7.2005       5.496790       0.01480
  48    0.1069        1.7038        0.0000        7.2005        7.2005       5.496763       0.01449
  47    0.1255        1.7038        0.0000        7.2005        7.2005       5.496731       0.01418
  46    0.1487        1.7038        0.0000        7.2004        7.2005       5.496692       0.01439
  45    0.1794        1.7038        0.0000        7.2004        7.2004       5.496638       0.01480
  44    0.2165        1.7038        0.0000        7.2003        7.2003       5.496574       0.01452
  43    0.2613        1.7038        0.0000        7.2003        7.2003       5.496499       0.01425
  42    0.3336        1.7038        0.0000        7.2001        7.2001       5.496374       0.01458
  41    0.4307        1.7038        0.0000        7.2000        7.2000       5.496208       0.01442
  40    0.5894        1.7038        0.0000        7.1997        7.1997       5.495937       0.01440
  39     1.339        1.7038        0.0001        7.1984        7.1985       5.494656       0.01442
  38     1.782        1.7039        0.0001        7.1977        7.1978       5.493904       0.01432
  37     2.292        1.7039        0.0001        7.1968        7.1969       5.493034       0.01441
  36     2.964        1.7039        0.0002        7.1956        7.1958       5.491892       0.01433
  35     3.853        1.7039        0.0002        7.1941        7.1943       5.490385       0.01431
  34     5.035        1.7040        0.0003        7.1921        7.1924       5.488383       0.01430
  33     6.613        1.7041        0.0004        7.1894        7.1898       5.485712       0.01428
  32     8.786        1.7042        0.0005        7.1859        7.1864       5.482118       0.01396
  31     11.80        1.7044        0.0006        7.1808        7.1814       5.476989       0.01436
  30     15.07        1.7046        0.0008        7.1754        7.1761       5.471497       0.01418
  29     18.79        1.7049        0.0009        7.1693        7.1702       5.465313       0.01402
  28     23.16        1.7052        0.0011        7.1622        7.1633       5.458118       0.01391
  27     28.12        1.7055        0.0013        7.1541        7.1554       5.449927       0.01392
  26     33.73        1.7058        0.0016        7.1451        7.1467       5.440807       0.01371
  25     40.54        1.7063        0.0019        7.1343        7.1361       5.429857       0.01359
  24     48.69        1.7068        0.0023        7.1213        7.1236       5.416753       0.01356
  23     57.69        1.7074        0.0027        7.1073        7.1099       5.402482       0.01338
  22     68.43        1.7081        0.0031        7.0907        7.0938       5.385652       0.01323
  21     81.20        1.7090        0.0037        7.0711        7.0748       5.365833       0.01310
  20     96.49        1.7100        0.0043        7.0482        7.0526       5.342540       0.01286
  19     114.6        1.7113        0.0051        7.0213        7.0264       5.315124       0.01280
  18     136.5        1.7128        0.0061        6.9900        6.9961       5.283266       0.01225
  17     162.9        1.7146        0.0072        6.9536        6.9608       5.246167       0.01186
  16     196.4        1.7171        0.0086        6.9078        6.9164       5.199292       0.01180
  15     218.7        1.7187        0.0095        6.8784        6.8879       5.169211       0.01142
  14     243.0        1.7205        0.0105        6.8471        6.8576       5.137090       0.01114
  13     269.0        1.7225        0.0116        6.8138        6.8254       5.102904       0.01109
  12     297.5        1.7247        0.0128        6.7785        6.7913       5.066562       0.01078
  11     328.5        1.7271        0.0141        6.7410        6.7550       5.027905       0.01051
  10     361.9        1.7298        0.0154        6.7013        6.7167       4.986851       0.01039
   9     398.1        1.7329        0.0169        6.6591        6.6760       4.943068       0.01020
   8     437.6        1.7363        0.0184        6.6142        6.6326       4.896291       0.01000
   7     480.5        1.7402        0.0201        6.5661        6.5861       4.845959       0.00989
   6     533.0        1.7453        0.0221        6.5065        6.5286       4.783253       0.01009
   5     589.8        1.7514        0.0243        6.4414        6.4657       4.714331       0.01023
   4     651.6        1.7585        0.0266        6.3700        6.3967       4.638119       0.01042
   3     718.7        1.7670        0.0291        6.2913        6.3204       4.553374       0.01065
   2     792.3        1.7772        0.0317        6.2037        6.2354       4.458161       0.01092
   1     891.5        1.7930        0.0352        6.0798        6.1149       4.321935       0.01159
   0    1013.0        1.8156        0.0392        5.9204        5.9596       4.144050       0.01235



 Wavenumbers:  8050. - 12850. cm-1, ATM      1
 LEVEL PRESSURE   UPWARD FLUX   DIFDOWN FLUX  DIRDOWN FLUX  DOWNWARD FLUX   NET FLUX    HEATING RATE
          mb          W/m2          W/m2          W/m2        W/m2          W/m2       degree/day
  51    .06700       23.2832        0.0000      100.8135      100.8135      77.530312       0.00000
  50    .07753       23.2832        0.0000      100.8135      100.8135      77.530312       0.00000
  49    .09103       23.2832        0.0001      100.8134      100.8135      77.530312       0.00000
  48    0.1069       23.2831        0.0001      100.8134      100.8134      77.530312      -0.00000
  47    0.1255       23.2831        0.0001      100.8133      100.8134      77.530312       0.00000
  46    0.1487       23.2831        0.0002      100.8132      100.8134      77.530312       0.00000
  45    0.1794       23.2830        0.0002      100.8131      100.8133      77.530312      -0.00000
  44    0.2165       23.2829        0.0003      100.8129      100.8133      77.530312       0.00000
  43    0.2613       23.2829        0.0004      100.8127      100.8132      77.530312       0.00000
  42    0.3336       23.2827        0.0006      100.8125      100.8130      77.530312       0.00000
  41    0.4307       23.2826        0.0008      100.8121      100.8129      77.530312      -0.00000
  40    0.5894       23.2823        0.0011      100.8115      100.8126      77.530312      -0.00000
  39     1.339       23.2810        0.0028      100.8085      100.8113      77.530312       0.00000
  38     1.782       23.2802        0.0037      100.8068      100.8105      77.530312       0.00000
  37     2.292       23.2793        0.0049      100.8047      100.8096      77.530312       0.00000
  36     2.964       23.2760        0.0089      100.7974      100.8063      77.530312      -0.00000
  35     3.853       23.2737        0.0118      100.7922      100.8040      77.530312       0.00000
  34     5.035       23.2712        0.0149      100.7867      100.8015      77.530312       0.00000
  33     6.613       23.2683        0.0186      100.7800      100.7986      77.530312       0.00000
  32     8.786       23.2644        0.0233      100.7714      100.7947      77.530312      -0.00000
  31     11.80       23.2590        0.0300      100.7593      100.7893      77.530312       0.00000
  30     15.07       23.2532        0.0372      100.7463      100.7836      77.530312       0.00000
  29     18.79       23.2467        0.0453      100.7317      100.7770      77.530312       0.00000
  28     23.16       23.2391        0.0548      100.7147      100.7694      77.530312       0.00000
  27     28.12       23.2304        0.0656      100.6952      100.7607      77.530312       0.00000
  26     33.73       23.2207        0.0777      100.6733      100.7510      77.530312      -0.00000
  25     40.54       23.2089        0.0923      100.6469      100.7392      77.530312       0.00000
  24     48.69       23.1946        0.1100      100.6150      100.7249      77.530312      -0.00000
  23     57.69       23.1790        0.1294      100.5799      100.7093      77.530312       0.00000
  22     68.43       23.1603        0.1526      100.5380      100.6906      77.530312       0.00000
  21     81.20       23.1380        0.1802      100.4881      100.6683      77.530312      -0.00000
  20     96.49       23.1114        0.2132      100.4285      100.6417      77.530312      -0.00000
  19     114.6       23.0836        0.2521      100.0065      100.2586      77.175028       0.16589
  18     136.5       23.0496        0.2982       99.6825       99.9807      76.931086       0.09380
  17     162.9       23.0079        0.3532       99.3939       99.7472      76.739319       0.06130
  16     196.4       22.9520        0.4247       99.0883       99.5130      76.561012       0.04488
  15     218.7       22.9147        0.4718       98.9108       99.3826      76.467908       0.03535
  14     243.0       22.8738        0.5230       98.7293       99.2523      76.378510       0.03101
  13     269.0       22.8294        0.5785       98.5354       99.1140      76.284559       0.03048
  12     297.5       22.7815        0.6385       98.3054       98.9439      76.162423       0.03622
  11     328.5       22.7302        0.7033       97.9963       98.6996      75.969334       0.05250
  10     361.9       22.6759        0.7727       97.5592       98.3319      75.655971       0.07928
   9     398.1       22.6192        0.8468       96.9439       97.7906      75.171417       0.11289
   8     437.6       22.5611        0.9253       96.0974       97.0226      74.461527       0.15178
   7     480.5       22.5036        1.0077       94.9540       95.9617      73.458126       0.19706
   6     533.0       22.4427        1.1061       93.2036       94.3096      71.866881       0.25598
   5     589.8       22.3919        1.2082       91.0386       92.2468      69.854875       0.29865
   4     651.6       22.3586        1.3133       88.5475       89.8609      67.502272       0.32172
   3     718.7       22.3542        1.4211       85.7884       87.2096      64.855394       0.33264
   2     792.3       22.3976        1.5306       82.7553       84.2860      61.888340       0.34029
   1     891.5       22.5591        1.6693       78.6606       80.3299      57.770773       0.35039
   0    1013.0       22.9918        1.8212       73.8858       75.7070      52.715278       0.35103



 Wavenumbers: 12850. - 16000. cm-1, ATM      1
 LEVEL PRESSURE   UPWARD FLUX   DIFDOWN FLUX  DIRDOWN FLUX  DOWNWARD FLUX   NET FLUX    HEATING RATE
          mb          W/m2          W/m2          W/m2        W/m2          W/m2       degree/day
  51    .06700       32.0054        0.0000       63.1686       63.1686      31.163214       0.00000
  50    .07753       32.0053        0.0001       63.1677       63.1678      31.162435       0.62437
  49    .09103       32.0053        0.0001       63.1666       63.1668      31.161465       0.60665
  48    0.1069       32.0053        0.0002       63.1654       63.1656      31.160360       0.58812
  47    0.1255       32.0052        0.0003       63.1640       63.1643      31.159104       0.56953
  46    0.1487       32.0052        0.0004       63.1623       63.1627      31.157537       0.57088
  45    0.1794       32.0051        0.0006       63.1600       63.1606      31.155438       0.57635
  44    0.2165       32.0051        0.0008       63.1573       63.1581      31.153010       0.55220
  43    0.2613       32.0050        0.0010       63.1542       63.1552      31.150212       0.52749
  42    0.3336       32.0049        0.0014       63.1493       63.1507      31.145755       0.51969
  41    0.4307       32.0048        0.0019       63.1431       63.1450      31.140172       0.48542
  40    0.5894       32.0048        0.0027       63.1338       63.1365      31.131724       0.44924
  39     1.339       32.0056        0.0065       63.0955       63.1020      31.096352       0.39822
  38     1.782       32.0070        0.0087       63.0739       63.0826      31.075580       0.39548
  37     2.292       32.0095        0.0113       63.0474       63.0587      31.049238       0.43628
  36     2.964       32.0101        0.0208       62.9992       63.0199      31.009845       0.49451
  35     3.853       32.0163        0.0275       62.9390       62.9665      30.950165       0.56637
  34     5.035       32.0276        0.0345       62.8562       62.8908      30.863195       0.62128
  33     6.613       32.0441        0.0430       62.7447       62.7877      30.743638       0.63915
  32     8.786       32.0657        0.0540       62.6002       62.6542      30.588543       0.60233
  31     11.80       32.0933        0.0694       62.4098       62.4793      30.385962       0.56716
  30     15.07       32.1190        0.0858       62.2238       62.3096      30.190620       0.50433
  29     18.79       32.1444        0.1043       62.0302       62.1345      29.990058       0.45474
  28     23.16       32.1700        0.1257       61.8232       61.9489      29.778938       0.40824
  27     28.12       32.1943        0.1502       61.6084       61.7586      29.564267       0.36493
  26     33.73       32.2147        0.1775       61.3982       61.5757      29.361069       0.30551
  25     40.54       32.2312        0.2104       61.1788       61.3893      29.158142       0.25175
  24     48.69       32.2432        0.2501       60.9485       61.1986      28.955412       0.20979
  23     57.69       32.2489        0.2936       60.7284       61.0219      28.773051       0.17094
  22     68.43       32.2474        0.3453       60.5008       60.8461      28.598642       0.13711
  21     81.20       32.2345        0.4069       60.2745       60.6814      28.446863       0.10029
  20     96.49       32.2087        0.4802       60.0450       60.5252      28.316505       0.07195
  19     114.6       32.1782        0.5677       59.7822       60.3500      28.171782       0.06758
  18     136.5       32.1374        0.6713       59.4842       60.1554      28.017973       0.05914
  17     162.9       32.0847        0.7942       59.1399       59.9341      27.849367       0.05389
  16     196.4       32.0075        0.9531       58.7184       59.6715      27.663939       0.04667
  15     218.7       31.9536        1.0572       58.4510       59.5082      27.554574       0.04152
  14     243.0       31.8935        1.1700       58.1652       59.3352      27.441773       0.03912
  13     269.0       31.8268        1.2920       57.8613       59.1533      27.326481       0.03740
  12     297.5       31.7535        1.4235       57.5376       58.9611      27.207667       0.03524
  11     328.5       31.6738        1.5652       57.1894       58.7546      27.080832       0.03449
  10     361.9       31.5881        1.7174       56.8138       58.5312      26.943114       0.03484
   9     398.1       31.4963        1.8805       56.4068       58.2873      26.791013       0.03544
   8     437.6       31.3991        2.0551       55.9620       58.0171      26.618031       0.03698
   7     480.5       31.2973        2.2414       55.4715       57.7129      26.415558       0.03976
   6     533.0       31.1777        2.4692       54.8408       57.3100      26.132310       0.04557
   5     589.8       31.0572        2.7127       54.1276       56.8403      25.783175       0.05182
   4     651.6       30.9396        2.9718       53.3249       56.2967      25.357082       0.05827
   3     718.7       30.8306        3.2462       52.4250       55.6712      24.840655       0.06490
   2     792.3       30.7366        3.5348       51.4307       54.9655      24.228915       0.07016
   1     891.5       30.6535        3.9145       50.0622       53.9767      23.323184       0.07707
   0    1013.0       30.6397        4.3550       48.3808       52.7359      22.096200       0.08520



 Wavenumbers: 16000. - 22650. cm-1, ATM      1
 LEVEL PRESSURE   UPWARD FLUX   DIFDOWN FLUX  DIRDOWN FLUX  DOWNWARD FLUX   NET FLUX    HEATING RATE
          mb          W/m2          W/m2          W/m2        W/m2          W/m2       degree/day
  51    .06700       73.7935        0.0000      100.7153      100.7153      26.921831       0.00000
  50    .07753       73.7933        0.0003      100.7147      100.7151      26.921715       0.09331
  49    .09103       73.7932        0.0007      100.7140      100.7147      26.921546       0.10584
  48    0.1069       73.7930        0.0012      100.7131      100.7143      26.921319       0.12069
  47    0.1255       73.7928        0.0017      100.7121      100.7138      26.921015       0.13757
  46    0.1487       73.7926        0.0024      100.7108      100.7132      26.920568       0.16301
  45    0.1794       73.7924        0.0033      100.7089      100.7122      26.919869       0.19194
  44    0.2165       73.7921        0.0044      100.7066      100.7110      26.918921       0.21571
  43    0.2613       73.7918        0.0057      100.7037      100.7094      26.917634       0.24251
  42    0.3336       73.7914        0.0079      100.6987      100.7066      26.915188       0.28518
  41    0.4307       73.7910        0.0107      100.6918      100.7025      26.911501       0.32057
  40    0.5894       73.7907        0.0154      100.6797      100.6952      26.904470       0.37391
  39     1.339       73.7944        0.0375      100.6095      100.6470      26.852533       0.58471
  38     1.782       73.8006        0.0504      100.5585      100.6089      26.808303       0.84207
  37     2.292       73.8113        0.0654      100.4903      100.5556      26.744300       1.06006
  36     2.964       73.8136        0.1200      100.3342      100.4543      26.640677       1.30079
  35     3.853       73.8411        0.1590      100.1585      100.3175      26.476400       1.55901
  34     5.035       73.8911        0.1996       99.9230      100.1227      26.231601       1.74874
  33     6.613       73.9645        0.2487       99.6078       99.8564      25.891948       1.81579
  32     8.786       74.0606        0.3119       99.1996       99.5115      25.450918       1.71280
  31     11.80       74.1835        0.4007       98.6599       99.0606      24.877081       1.60656
  30     15.07       74.2980        0.4952       98.1296       98.6248      24.326780       1.42077
  29     18.79       74.4114        0.6012       97.5748       98.1759      23.764532       1.27479
  28     23.16       74.5255        0.7244       96.9768       97.7012      23.175696       1.13862
  27     28.12       74.6345        0.8646       96.3505       97.2151      22.580578       1.01166
  26     33.73       74.7255        1.0210       95.7281       96.7490      22.023518       0.83755
  25     40.54       74.7997        1.2092       95.0654       96.2746      21.474856       0.68068
  24     48.69       74.8545        1.4351       94.3530       95.7881      20.933636       0.56008
  23     57.69       74.8813        1.6824       93.6531       95.3354      20.454171       0.44943
  22     68.43       74.8772        1.9755       92.9073       94.8829      20.005682       0.35257
  21     81.20       74.8231        2.3234       92.1357       94.4591      19.635996       0.24428
  20     96.49       74.7133        2.7361       91.3242       94.0602      19.346898       0.15956
  19     114.6       74.5610        3.2225       90.4200       93.6425      19.081515       0.12392
  18     136.5       74.3659        3.7942       89.3931       93.1874      18.821448       0.10000
  17     162.9       74.1212        4.4681       88.2153       92.6833      18.562105       0.08290
  16     196.4       73.7760        5.3317       86.7742       92.1059      18.329871       0.05846
  15     218.7       73.5398        5.8926       85.8632       91.7558      18.216025       0.04322
  14     243.0       73.2795        6.4966       84.8938       91.3905      18.110926       0.03645
  13     269.0       72.9940        7.1447       83.8658       91.0105      18.016527       0.03062
  12     297.5       72.6825        7.8376       82.7782       90.6157      17.933261       0.02470
  11     328.5       72.3461        8.5776       81.6216       90.1992      17.853126       0.02179
  10     361.9       71.9847        9.3645       80.3963       89.7608      17.776131       0.01948
   9     398.1       71.5972       10.2001       79.0988       89.2989      17.701669       0.01735
   8     437.6       71.1840       11.0845       77.7271       88.8116      17.627631       0.01583
   7     480.5       70.7446       12.0181       76.2799       88.2980      17.553389       0.01458
   6     533.0       70.2099       13.1471       74.5276       87.6747      17.464806       0.01425
   5     589.8       69.6423       14.3396       72.6713       87.0110      17.368701       0.01427
   4     651.6       69.0429       15.5937       70.7111       86.3047      17.261829       0.01462
   3     718.7       68.4131       16.9072       68.6463       85.5536      17.140423       0.01526
   2     792.3       67.7560       18.2756       66.4801       84.7557      16.999673       0.01614
   1     891.5       66.9001       20.0598       63.6263       83.6861      16.786014       0.01818
   0    1013.0       65.9213       22.1106       60.2993       82.4099      16.488628       0.02065



 Wavenumbers: 22650. - 29000. cm-1, ATM      1
 LEVEL PRESSURE   UPWARD FLUX   DIFDOWN FLUX  DIRDOWN FLUX  DOWNWARD FLUX   NET FLUX    HEATING RATE
          mb          W/m2          W/m2          W/m2        W/m2          W/m2       degree/day
  51    .06700       32.0566        0.0000       38.0063       38.0063       5.949737       0.00000
  50    .07753       32.0564        0.0004       38.0057       38.0061       5.949737       0.00000
  49    .09103       32.0562        0.0009       38.0050       38.0059       5.949737       0.00000
  48    0.1069       32.0559        0.0014       38.0042       38.0056       5.949737       0.00000
  47    0.1255       32.0556        0.0020       38.0033       38.0054       5.949737      -0.00000
  46    0.1487       32.0553        0.0028       38.0022       38.0050       5.949737       0.00000
  45    0.1794       32.0548        0.0039       38.0006       38.0045       5.949737       0.00000
  44    0.2165       32.0542        0.0052       37.9987       38.0039       5.949737      -0.00000
  43    0.2613       32.0535        0.0067       37.9965       38.0032       5.949737       0.00000
  42    0.3336       32.0523        0.0092       37.9928       38.0021       5.949737       0.00000
  41    0.4307       32.0508        0.0125       37.9880       38.0005       5.949737       0.00000
  40    0.5894       32.0483        0.0180       37.9800       37.9980       5.949737       0.00000
  39     1.339       32.0365        0.0437       37.9425       37.9862       5.949737       0.00000
  38     1.782       32.0295        0.0588       37.9204       37.9793       5.949737       0.00000
  37     2.292       32.0215        0.0763       37.8949       37.9712       5.949737       0.00000
  36     2.964       31.9922        0.1400       37.8020       37.9420       5.949737       0.00000
  35     3.853       31.9714        0.1855       37.7356       37.9211       5.949737      -0.00000
  34     5.035       31.9496        0.2329       37.6664       37.8993       5.949737       0.00000
  33     6.613       31.9232        0.2901       37.5828       37.8730       5.949737       0.00000
  32     8.786       31.8892        0.3641       37.4748       37.8389       5.949737      -0.00000
  31     11.80       31.8414        0.4679       37.3232       37.7911       5.949737       0.00000
  30     15.07       31.7905        0.5783       37.1619       37.7403       5.949737       0.00000
  29     18.79       31.7334        0.7022       36.9810       37.6832       5.949737      -0.00000
  28     23.16       31.6671        0.8460       36.7708       37.6168       5.949737       0.00000
  27     28.12       31.5916        1.0094       36.5320       37.5413       5.949737      -0.00000
  26     33.73       31.5076        1.1909       36.2664       37.4573       5.949737       0.00000
  25     40.54       31.4068        1.4085       35.9480       37.3565       5.949737      -0.00000
  24     48.69       31.2862        1.6683       35.5676       37.2360       5.949737       0.00000
  23     57.69       31.1550        1.9505       35.1542       37.1047       5.949737      -0.00000
  22     68.43       31.0003        2.2824       34.6677       36.9500       5.949737      -0.00000
  21     81.20       30.8184        2.6716       34.0965       36.7681       5.949737      -0.00000
  20     96.49       30.6049        3.1267       33.4279       36.5546       5.949737       0.00000
  19     114.6       30.3560        3.6550       32.6507       36.3057       5.949737       0.00000
  18     136.5       30.0673        4.2646       31.7525       36.0171       5.949737      -0.00000
  17     162.9       29.7324        4.9674       30.7147       35.6822       5.949737       0.00000
  16     196.4       29.3118        5.8431       29.4184       35.2615       5.949737       0.00000
  15     218.7       29.0438        6.3966       28.5969       34.9935       5.949737      -0.00000
  14     243.0       28.7595        6.9797       27.7295       34.7092       5.949737       0.00000
  13     269.0       28.4596        7.5904       26.8189       34.4093       5.949737      -0.00000
  12     297.5       28.1445        8.2263       25.8679       34.0943       5.949737      -0.00000
  11     328.5       27.8142        8.8869       24.8770       33.7639       5.949737       0.00000
  10     361.9       27.4699        9.5682       23.8514       33.4196       5.949737      -0.00000
   9     398.1       27.1118       10.2683       22.7932       33.0616       5.949737       0.00000
   8     437.6       26.7414       10.9829       21.7082       32.6911       5.949737       0.00000
   7     480.5       26.3593       11.7088       20.6002       32.3090       5.949737      -0.00000
   6     533.0       25.9094       12.5477       19.3114       31.8591       5.949737       0.00000
   5     589.8       25.4480       13.3886       18.0091       31.3978       5.949737       0.00000
   4     651.6       24.9772       14.2246       16.7023       30.9269       5.949737      -0.00000
   3     718.7       24.4988       15.0488       15.3997       30.4485       5.949737       0.00000
   2     792.3       24.0157       15.8522       14.1132       29.9654       5.949737      -0.00000
   1     891.5       23.4065       16.8196       12.5367       29.3562       5.949737      -0.00000
   0    1013.0       22.7349       17.8163       10.8683       28.6846       5.949737       0.00000



 Wavenumbers: 29000. - 38000. cm-1, ATM      1
 LEVEL PRESSURE   UPWARD FLUX   DIFDOWN FLUX  DIRDOWN FLUX  DOWNWARD FLUX   NET FLUX    HEATING RATE
          mb          W/m2          W/m2          W/m2        W/m2          W/m2       degree/day
  51    .06700        4.7068        0.0000       13.4026       13.4026       8.695814       0.00000
  50    .07753        4.7066        0.0003       13.3983       13.3986       8.692024       3.03838
  49    .09103        4.7063        0.0007       13.3921       13.3928       8.686515       3.44281
  48    0.1069        4.7060        0.0011       13.3841       13.3851       8.679151       3.91997
  47    0.1255        4.7056        0.0016       13.3734       13.3750       8.669322       4.45629
  46    0.1487        4.7052        0.0022       13.3579       13.3601       8.654904       5.25530
  45    0.1794        4.7046        0.0030       13.3342       13.3372       8.632536       6.14066
  44    0.2165        4.7040        0.0040       13.3025       13.3065       8.602534       6.82487
  43    0.2613        4.7032        0.0051       13.2605       13.2657       8.562484       7.54927
  42    0.3336        4.7020        0.0070       13.1834       13.1905       8.488481       8.62797
  41    0.4307        4.7004        0.0095       13.0730       13.0824       8.382008       9.25761
  40    0.5894        4.6981        0.0133       12.8795       12.8929       8.194827       9.95407
  39     1.339        4.6897        0.0295       11.9153       11.9449       7.255144      10.57913
  38     1.782        4.6866        0.0378       11.4377       11.4755       6.788922       8.87611
  37     2.292        4.6845        0.0466       10.9754       11.0220       6.337555       7.47581
  36     2.964        4.6667        0.0802       10.4328       10.5130       5.846371       6.16584
  35     3.853        4.6615        0.1006        9.8842        9.9848       5.323375       4.96332
  34     5.035        4.6620        0.1195        9.3384        9.4580       4.796007       3.76730
  33     6.613        4.6664        0.1408        8.8134        8.9543       4.287911       2.71628
  32     8.786        4.6733        0.1674        8.3189        8.4863       3.812968       1.84451
  31     11.80        4.6821        0.2036        7.8330        8.0366       3.354512       1.28353
  30     15.07        4.6895        0.2411        7.4564        7.6975       3.007983       0.89467
  29     18.79        4.6963        0.2820        7.1252        7.4072       2.710880       0.67362
  28     23.16        4.7024        0.3282        6.8155        7.1438       2.441418       0.52105
  27     28.12        4.7067        0.3794        6.5289        6.9083       2.201573       0.40772
  26     33.73        4.7072        0.4354        6.2720        6.7074       2.000193       0.30278
  25     40.54        4.7024        0.5015        6.0205        6.5220       1.819597       0.22405
  24     48.69        4.6918        0.5790        5.7685        6.3475       1.655696       0.16961
  23     57.69        4.6757        0.6618        5.5344        6.1962       1.520546       0.12668
  22     68.43        4.6516        0.7577        5.2957        6.0533       1.401781       0.09336
  21     81.20        4.6152        0.8689        5.0555        5.9244       1.309158       0.06120
  20     96.49        4.5654        0.9975        4.8079        5.8054       1.240038       0.03815
  19     114.6        4.5050        1.1430        4.5418        5.6848       1.179857       0.02810
  18     136.5        4.4349        1.3055        4.2529        5.5584       1.123485       0.02168
  17     162.9        4.3545        1.4860        3.9384        5.4243       1.069776       0.01717
  16     196.4        4.2528        1.7016        3.5753        5.2769       1.024056       0.01151
  15     218.7        4.1887        1.8322        3.3591        5.1913       1.002572       0.00816
  14     243.0        4.1219        1.9652        3.1400        5.1052       0.983311       0.00668
  13     269.0        4.0526        2.0994        2.9196        5.0191       0.966494       0.00546
  12     297.5        3.9812        2.2337        2.6996        4.9333       0.952072       0.00428
  11     328.5        3.9086        2.3665        2.4806        4.8471       0.938555       0.00368
  10     361.9        3.8352        2.4966        2.2646        4.7612       0.925981       0.00318
   9     398.1        3.7614        2.6228        2.0529        4.6757       0.914302       0.00272
   8     437.6        3.6876        2.7438        1.8471        4.5909       0.903291       0.00235
   7     480.5        3.6142        2.8583        1.6490        4.5073       0.893045       0.00201
   6     533.0        3.5311        2.9803        1.4329        4.4132       0.882114       0.00176
   5     589.8        3.4494        3.0910        1.2303        4.3212       0.871770       0.00154
   4     651.6        3.3698        3.1885        1.0432        4.2317       0.861909       0.00135
   3     718.7        3.2924        3.2721        0.8728        4.1449       0.852487       0.00118
   2     792.3        3.2174        3.3409        0.7200        4.0609       0.843492       0.00103
   1     891.5        3.1269        3.4056        0.5540        3.9596       0.832650       0.00092
   0    1013.0        3.0311        3.4493        0.4028        3.8521       0.820977       0.00081



 Wavenumbers: 38000. - 50000. cm-1, ATM      1
 LEVEL PRESSURE   UPWARD FLUX   DIFDOWN FLUX  DIRDOWN FLUX  DOWNWARD FLUX   NET FLUX    HEATING RATE
          mb          W/m2          W/m2          W/m2        W/m2          W/m2       degree/day
  51    .06700        0.0055        0.0000        0.8267        0.8267       0.821120       0.00000
  50    .07753        0.0055        0.0001        0.8242        0.8243       0.818787       1.86965
  49    .09103        0.0054        0.0002        0.8207        0.8209       0.815463       2.07741
  48    0.1069        0.0053        0.0002        0.8162        0.8164       0.811105       2.32029
  47    0.1255        0.0052        0.0004        0.8103        0.8106       0.805390       2.59057
  46    0.1487        0.0051        0.0005        0.8018        0.8023       0.797154       3.00207
  45    0.1794        0.0050        0.0007        0.7889        0.7896       0.784598       3.44715
  44    0.2165        0.0048        0.0009        0.7720        0.7729       0.768090       3.75527
  43    0.2613        0.0046        0.0011        0.7500        0.7511       0.746535       4.06288
  42    0.3336        0.0043        0.0015        0.7106        0.7121       0.707844       4.51107
  41    0.4307        0.0039        0.0019        0.6566        0.6584       0.654544       4.63425
  40    0.5894        0.0034        0.0024        0.5680        0.5704       0.567028       4.65400
  39     1.339        0.0020        0.0030        0.2422        0.2452       0.243224       3.64545
  38     1.782        0.0016        0.0026        0.1493        0.1519       0.150347       1.76822
  37     2.292        0.0014        0.0022        0.0924        0.0946       0.093278       0.94522
  36     2.964        0.0006        0.0023        0.0530        0.0553       0.054667       0.48469
  35     3.853        0.0003        0.0018        0.0288        0.0305       0.030216       0.23205
  34     5.035        0.0002        0.0013        0.0150        0.0162       0.016070       0.10105
  33     6.613        0.0001        0.0009        0.0071        0.0080       0.007896       0.04369
  32     8.786        0.0000        0.0006        0.0029        0.0035       0.003413       0.01741
  31     11.80        0.0000        0.0003        0.0009        0.0012       0.001225       0.00612
  30     15.07        0.0000        0.0002        0.0003        0.0005       0.000482       0.00192
  29     18.79        0.0000        0.0001        0.0001        0.0002       0.000193       0.00065
  28     23.16        0.0000        0.0000        0.0000        0.0001       0.000077       0.00023
  27     28.12        0.0000        0.0000        0.0000        0.0000       0.000031       0.00008
  26     33.73        0.0000        0.0000        0.0000        0.0000       0.000013       0.00003
  25     40.54        0.0000        0.0000        0.0000        0.0000       0.000005       0.00001
  24     48.69        0.0000        0.0000        0.0000        0.0000       0.000002       0.00000
  23     57.69        0.0000        0.0000        0.0000        0.0000       0.000001       0.00000
  22     68.43        0.0000        0.0000        0.0000        0.0000       0.000000       0.00000
  21     81.20        0.0000        0.0000        0.0000        0.0000       0.000000       0.00000
  20     96.49        0.0000        0.0000        0.0000        0.0000       0.000000       0.00000
  19     114.6        0.0000        0.0000        0.0000        0.0000       0.000000       0.00000
  18     136.5        0.0000        0.0000        0.0000        0.0000       0.000000       0.00000
  17     162.9        0.0000        0.0000        0.0000        0.0000       0.000000       0.00000
  16     196.4        0.0000        0.0000        0.0000        0.0000       0.000000       0.00000
  15     218.7        0.0000        0.0000        0.0000        0.0000       0.000000       0.00000
  14     243.0        0.0000        0.0000        0.0000        0.0000       0.000000       0.00000
  13     269.0        0.0000        0.0000        0.0000        0.0000       0.000000       0.00000
  12     297.5        0.0000        0.0000        0.0000        0.0000       0.000000       0.00000
  11     328.5        0.0000        0.0000        0.0000        0.0000       0.000000       0.00000
  10     361.9        0.0000        0.0000        0.0000        0.0000       0.000000       0.00000
   9     398.1        0.0000        0.0000        0.0000        0.0000       0.000000       0.00000
   8     437.6        0.0000        0.0000        0.0000        0.0000       0.000000       0.00000
   7     480.5        0.0000        0.0000        0.0000        0.0000       0.000000       0.00000
   6     533.0        0.0000        0.0000        0.0000        0.0000       0.000000       0.00000
   5     589.8        0.0000        0.0000        0.0000        0.0000       0.000000       0.00000
   4     651.6        0.0000        0.0000        0.0000        0.0000       0.000000       0.00000
   3     718.7        0.0000        0.0000        0.0000        0.0000       0.000000       0.00000
   2     792.3        0.0000        0.0000        0.0000        0.0000       0.000000       0.00000
   1     891.5        0.0000        0.0000        0.0000        0.0000       0.000000       0.00000
   0    1013.0        0.0000        0.0000        0.0000        0.0000       0.000000       0.00000



 Wavenumbers:   820. -  2600. cm-1, ATM      1
 LEVEL PRESSURE   UPWARD FLUX   DIFDOWN FLUX  DIRDOWN FLUX  DOWNWARD FLUX   NET FLUX    HEATING RATE
          mb          W/m2          W/m2          W/m2        W/m2          W/m2       degree/day
  51    .06700        0.0956        0.0000        3.8670        3.8670       3.771419       0.00000
  50    .07753        0.0956        0.0000        3.8644        3.8644       3.768820       2.08287
  49    .09103        0.0956        0.0000        3.8638        3.8638       3.768150       0.41878
  48    0.1069        0.0956        0.0000        3.8630        3.8630       3.767401       0.39874
  47    0.1255        0.0956        0.0000        3.8622        3.8622       3.766587       0.36879
  46    0.1487        0.0956        0.0000        3.8613        3.8613       3.765660       0.33798
  45    0.1794        0.0956        0.0000        3.8602        3.8602       3.764551       0.30446
  44    0.2165        0.0956        0.0000        3.8590        3.8590       3.763417       0.25804
  43    0.2613        0.0956        0.0000        3.8579        3.8579       3.762257       0.21851
  42    0.3336        0.0956        0.0000        3.8562        3.8562       3.760572       0.19646
  41    0.4307        0.0956        0.0000        3.8540        3.8540       3.758407       0.18827
  40    0.5894        0.0956        0.0000        3.8505        3.8505       3.754919       0.18550
  39     1.339        0.0956        0.0000        3.8352        3.8352       3.739569       0.17281
  38     1.782        0.0956        0.0000        3.8267        3.8267       3.731090       0.16143
  37     2.292        0.0956        0.0000        3.8172        3.8172       3.721571       0.15766
  36     2.964        0.1115        0.0000        0.7287        0.7287       0.617237      38.96878
  35     3.853        0.1181        0.0000        0.6533        0.6533       0.535167       0.77886
  34     5.035        0.1215        0.0000        0.6218        0.6218       0.500323       0.24891
  33     6.613        0.1233        0.0000        0.6062        0.6062       0.482963       0.09281
  32     8.786        0.1243        0.0000        0.5979        0.5979       0.473639       0.03621
  31     11.80        0.1249        0.0000        0.5927        0.5927       0.467873       0.01614
  30     15.07        0.1252        0.0000        0.5900        0.5900       0.464760       0.00804
  29     18.79        0.1254        0.0000        0.5882        0.5882       0.462767       0.00452
  28     23.16        0.1256        0.0000        0.5869        0.5869       0.461269       0.00290
  27     28.12        0.1257        0.0000        0.5859        0.5859       0.460159       0.00189
  26     33.73        0.1258        0.0000        0.5851        0.5851       0.459325       0.00125
  25     40.54        0.1259        0.0000        0.5845        0.5845       0.458619       0.00088
  24     48.69        0.1260        0.0000        0.5839        0.5839       0.457944       0.00070
  23     57.69        0.1260        0.0000        0.5834        0.5834       0.457320       0.00058
  22     68.43        0.1261        0.0000        0.5828        0.5828       0.456692       0.00049
  21     81.20        0.1262        0.0000        0.5822        0.5822       0.456059       0.00042
  20     96.49        0.1263        0.0000        0.5817        0.5817       0.455421       0.00035
  19     114.6        0.1263        0.0000        0.5811        0.5811       0.454814       0.00028
  18     136.5        0.1264        0.0000        0.5806        0.5806       0.454178       0.00024
  17     162.9        0.1265        0.0000        0.5800        0.5800       0.453591       0.00019
  16     196.4        0.1265        0.0000        0.5796        0.5796       0.453112       0.00012
  15     218.7        0.1265        0.0000        0.5795        0.5795       0.452953       0.00006
  14     243.0        0.1265        0.0000        0.5794        0.5794       0.452834       0.00004
  13     269.0        0.1266        0.0000        0.5793        0.5793       0.452731       0.00003
  12     297.5        0.1266        0.0000        0.5792        0.5792       0.452607       0.00004
  11     328.5        0.1266        0.0000        0.5790        0.5790       0.452419       0.00005
  10     361.9        0.1266        0.0000        0.5787        0.5787       0.452101       0.00008
   9     398.1        0.1267        0.0000        0.5782        0.5782       0.451568       0.00012
   8     437.6        0.1268        0.0000        0.5775        0.5775       0.450692       0.00019
   7     480.5        0.1269        0.0000        0.5762        0.5762       0.449311       0.00027
   6     533.0        0.1272        0.0000        0.5739        0.5739       0.446710       0.00042
   5     589.8        0.1277        0.0000        0.5704        0.5704       0.442695       0.00060
   4     651.6        0.1285        0.0000        0.5643        0.5644       0.435864       0.00093
   3     718.7        0.1298        0.0000        0.5546        0.5546       0.424772       0.00139
   2     792.3        0.1319        0.0000        0.5398        0.5398       0.407903       0.00193
   1     891.5        0.1360        0.0000        0.5123        0.5123       0.376333       0.00269
   0    1013.0        0.1431        0.0000        0.4692        0.4693       0.326141       0.00349

  Modules and versions used in this calculation:

       rrtmg_sw.1col.f90:  $Revision$                    rrtmg_sw_init.f90:  $Revision$        
     rrtmgsw_cldprop.f90:  $Revision$                  rrtmgsw_cldprmc.f90:  NOT USED          
     rrtmg_sw_reftra.f90:  $Revision$                  rrtmg_sw_spcvrt.f90:  NOT USED          
     rrtmg_sw_spcvmc.f90:  NOT USED                    rrtmgsw_setcoef.f90:  NOT USED          
     rrtmg_sw_taumol.f90:  $Revision$                  rrtmg_sw_vrtqdr.f90:  NOT USED          
                rrtatm.f:  NOT USED                             util_xxx.f:  NOT USED          
                 extra.f:  NOT USED                       rrtmg_sw_k_g.f90:  $Revision$        

