

 Wavenumbers:   820. - 50000. cm-1, ATM      1
 LEVEL PRESSURE   UPWARD FLUX   DIFDOWN FLUX  DIRDOWN FLUX  DOWNWARD FLUX   NET FLUX    HEATING RATE
          mb          W/m2          W/m2          W/m2        W/m2          W/m2       degree/day
  51    .06700      175.3061        0.0000      397.8738      397.8738     222.567647       0.00000
  50    .07753      175.3055        0.0011      397.8579      397.8591     222.553588      11.26857
  49    .09103      175.3047        0.0026      397.8425      397.8450     222.540308       8.30009
  48    0.1069      175.3038        0.0042      397.8240      397.8282     222.524394       8.47131
  47    0.1255      175.3029        0.0061      397.8011      397.8073     222.504404       9.06229
  46    0.1487      175.3016        0.0085      397.7696      397.7782     222.476510      10.16763
  45    0.1794      175.3000        0.0118      397.7232      397.7350     222.434940      11.41207
  44    0.2165      175.2982        0.0156      397.6637      397.6793     222.381087      12.25063
  43    0.2613      175.2961        0.0202      397.5872      397.6074     222.311262      13.16172
  42    0.3336      175.2928        0.0276      397.4508      397.4784     222.185572      14.65427
  41    0.4307      175.2887        0.0374      397.2602      397.2976     222.008880      15.36295
  40    0.5894      175.2826        0.0531      396.9364      396.9895     221.706855      16.06128
  39     1.339      175.2643        0.1232      395.4499      395.5731     220.308846      15.73905
  38     1.782      175.2606        0.1625      394.7601      394.9226     219.662040      12.31414
  37     2.292      175.2625        0.2071      394.0950      394.3021     219.039607      10.30912
  36     2.964      175.2240        0.3864      380.7170      381.1034     205.879361     165.20085
  35     3.853      175.2338        0.5054      378.5208      379.0263     203.792512      19.80458
  34     5.035      175.2735        0.6243      376.9292      377.5535     202.279983      10.80488
  33     6.613      175.3396        0.7649      375.5033      376.2682     200.928602       7.22449
  32     8.786      175.4267        0.9448      374.0855      375.0303     199.603644       5.14566
  31     11.80      175.5326        1.1962      372.5053      373.7014     198.168791       4.01714
  30     15.07      175.6232        1.4624      371.0984      372.5608     196.937563       3.17879
  29     18.79      175.7047        1.7601      369.7078      371.4679     195.763194       2.66266
  28     23.16      175.7757        2.1047      368.2553      370.3600     194.584312       2.27958
  27     28.12      175.8286        2.4954      366.7632      369.2586     193.430045       1.96218
  26     33.73      175.8459        2.9294      365.2829      368.2123     192.366392       1.59923
  25     40.54      175.8184        3.4497      363.6903      367.1399     191.321545       1.29625
  24     48.69      175.7391        4.0714      361.9478      366.0191     190.279995       1.07784
  23     57.69      175.6079        4.7476      360.1959      364.9435     189.335659       0.88517
  22     68.43      175.4043        5.5447      358.2794      363.8241     188.419864       0.71994
  21     81.20      175.0962        6.4839      356.2151      362.6991     187.602832       0.53988
  20     96.49      174.6703        7.5886      353.9633      361.5518     186.881515       0.39812
  19     114.6      174.1509        8.8777      350.9671      359.8447     185.693861       0.55455
  18     136.5      173.5231       10.3738      347.7774      358.1512     184.628040       0.40983
  17     162.9      172.7695       12.1123      344.2438      356.3560     183.586513       0.33291
  16     196.4      171.7698       14.3019      339.9817      354.2837     182.513873       0.27000
  15     218.7      171.1108       15.7009      337.3224      353.0233     181.912534       0.22831
  14     243.0      170.3991       17.1881      334.5198      351.7078     181.308747       0.20941
  13     269.0      169.6341       18.7619      331.5563      350.3183     180.684199       0.20260
  12     297.5      168.8161       20.4201      328.3650      348.7851     179.969015       0.21212
  11     328.5      167.9478       22.1639      324.8060      346.9699     179.022074       0.25747
  10     361.9      167.0320       23.9875      320.7354      344.7229     177.690853       0.33681
   9     398.1      166.0693       25.8906      316.0046      341.8952     175.825909       0.43449
   8     437.6      165.0642       27.8675      310.4799      338.3474     173.283212       0.54364
   7     480.5      164.0215       29.9140      304.0510      333.9650     169.943513       0.65590
   6     533.0      162.7939       32.3332      295.5845      327.9177     165.123761       0.77534
   5     589.8      161.5432       34.8254      286.3616      321.1870     159.643755       0.81341
   4     651.6      160.2900       37.3788      276.6942      314.0730     153.783051       0.80147
   3     718.7      159.0613       39.9843      266.7022      306.6865     147.625130       0.77388
   2     792.3      157.9005       42.6236      256.3594      298.9830     141.082434       0.75037
   1     891.5      156.6320       45.9562      243.0815      289.0377     132.405732       0.73835
   0    1013.0      155.7198       49.6352      228.1746      277.8099     122.090103       0.71627



 Wavenumbers:  2600. -  3250. cm-1, ATM      1
 LEVEL PRESSURE   UPWARD FLUX   DIFDOWN FLUX  DIRDOWN FLUX  DOWNWARD FLUX   NET FLUX    HEATING RATE
          mb          W/m2          W/m2          W/m2        W/m2          W/m2       degree/day
  51    .06700        0.3310        0.0000        3.5066        3.5066       3.175627       0.00000
  50    .07753        0.3310        0.0000        3.5066        3.5066       3.175619       0.00640
  49    .09103        0.3310        0.0000        3.5066        3.5066       3.175609       0.00627
  48    0.1069        0.3310        0.0000        3.5066        3.5066       3.175598       0.00613
  47    0.1255        0.3310        0.0000        3.5066        3.5066       3.175585       0.00599
  46    0.1487        0.3310        0.0000        3.5066        3.5066       3.175568       0.00607
  45    0.1794        0.3310        0.0000        3.5065        3.5065       3.175545       0.00624
  44    0.2165        0.3310        0.0000        3.5065        3.5065       3.175518       0.00611
  43    0.2613        0.3310        0.0000        3.5065        3.5065       3.175487       0.00598
  42    0.3336        0.3310        0.0000        3.5064        3.5064       3.175434       0.00615
  41    0.4307        0.3310        0.0000        3.5064        3.5064       3.175363       0.00617
  40    0.5894        0.3310        0.0000        3.5062        3.5062       3.175244       0.00633
  39     1.339        0.3310        0.0000        3.5055        3.5055       3.174545       0.00787
  38     1.782        0.3310        0.0000        3.5050        3.5050       3.174014       0.01010
  37     2.292        0.3310        0.0000        3.5043        3.5043       3.173322       0.01147
  36     2.964        0.3310        0.0000        3.5033        3.5033       3.172332       0.01243
  35     3.853        0.3310        0.0000        3.5019        3.5019       3.170954       0.01307
  34     5.035        0.3310        0.0000        3.5001        3.5001       3.169091       0.01331
  33     6.613        0.3310        0.0000        3.4977        3.4977       3.166678       0.01290
  32     8.786        0.3310        0.0000        3.4947        3.4947       3.163699       0.01157
  31     11.80        0.3310        0.0000        3.4910        3.4910       3.160056       0.01020
  30     15.07        0.3310        0.0000        3.4878        3.4878       3.156827       0.00834
  29     18.79        0.3310        0.0000        3.4847        3.4847       3.153749       0.00698
  28     23.16        0.3310        0.0000        3.4815        3.4815       3.150507       0.00627
  27     28.12        0.3310        0.0000        3.4778        3.4779       3.146863       0.00619
  26     33.73        0.3310        0.0000        3.4733        3.4734       3.142368       0.00676
  25     40.54        0.3310        0.0000        3.4670        3.4670       3.136007       0.00789
  24     48.69        0.3310        0.0000        3.4580        3.4580       3.127051       0.00927
  23     57.69        0.3310        0.0000        3.4469        3.4469       3.115912       0.01044
  22     68.43        0.3310        0.0000        3.4324        3.4325       3.101479       0.01135
  21     81.20        0.3310        0.0000        3.4145        3.4146       3.083553       0.01185
  20     96.49        0.3310        0.0000        3.3932        3.3932       3.062207       0.01178
  19     114.6        0.3311        0.0000        3.3360        3.3360       3.004956       0.02673
  18     136.5        0.3312        0.0001        3.2887        3.2888       2.957614       0.01820
  17     162.9        0.3313        0.0001        3.2488        3.2489       2.917555       0.01280
  16     196.4        0.3315        0.0001        3.2098        3.2099       2.878391       0.00986
  15     218.7        0.3316        0.0001        3.1879        3.1880       2.856350       0.00837
  14     243.0        0.3318        0.0001        3.1657        3.1657       2.833981       0.00776
  13     269.0        0.3319        0.0001        3.1419        3.1420       2.810081       0.00775
  12     297.5        0.3322        0.0001        3.1138        3.1139       2.781738       0.00841
  11     328.5        0.3325        0.0001        3.0769        3.0770       2.744585       0.01010
  10     361.9        0.3329        0.0001        3.0266        3.0268       2.693881       0.01283
   9     398.1        0.3335        0.0001        2.9584        2.9586       2.625082       0.01603
   8     437.6        0.3343        0.0001        2.8678        2.8679       2.533592       0.01956
   7     480.5        0.3356        0.0002        2.7520        2.7521       2.416586       0.02298
   6     533.0        0.3376        0.0002        2.5903        2.5905       2.252851       0.02634
   5     589.8        0.3406        0.0002        2.4139        2.4140       2.073423       0.02663
   4     651.6        0.3450        0.0002        2.2310        2.2311       1.886137       0.02561
   3     718.7        0.3512        0.0002        2.0433        2.0435       1.692255       0.02437
   2     792.3        0.3602        0.0002        1.8461        1.8463       1.486075       0.02365
   1     891.5        0.3773        0.0002        1.5996        1.5997       1.222474       0.02243
   0    1013.0        0.4097        0.0002        1.3431        1.3432       0.933561       0.02006



 Wavenumbers:  3250. -  4000. cm-1, ATM      1
 LEVEL PRESSURE   UPWARD FLUX   DIFDOWN FLUX  DIRDOWN FLUX  DOWNWARD FLUX   NET FLUX    HEATING RATE
          mb          W/m2          W/m2          W/m2        W/m2          W/m2       degree/day
  51    .06700        0.0006        0.0000        5.9117        5.9117       5.911074       0.00000
  50    .07753        0.0006        0.0000        5.9075        5.9075       5.906912       3.33612
  49    .09103        0.0006        0.0000        5.9052        5.9052       5.904623       1.43071
  48    0.1069        0.0006        0.0000        5.9035        5.9035       5.902910       0.91191
  47    0.1255        0.0006        0.0000        5.9019        5.9019       5.901290       0.73438
  46    0.1487        0.0006        0.0000        5.9001        5.9001       5.899555       0.63248
  45    0.1794        0.0006        0.0000        5.8982        5.8982       5.897578       0.54264
  44    0.2165        0.0006        0.0000        5.8962        5.8962       5.895630       0.44317
  43    0.2613        0.0006        0.0000        5.8943        5.8943       5.893681       0.36742
  42    0.3336        0.0006        0.0000        5.8915        5.8915       5.890925       0.32132
  41    0.4307        0.0006        0.0000        5.8881        5.8881       5.887551       0.29332
  40    0.5894        0.0006        0.0000        5.8830        5.8830       5.882445       0.27154
  39     1.339        0.0006        0.0000        5.8641        5.8641       5.863525       0.21300
  38     1.782        0.0006        0.0000        5.8561        5.8561       5.855535       0.15212
  37     2.292        0.0006        0.0000        5.8483        5.8483       5.847748       0.12897
  36     2.964        0.0006        0.0000        3.1042        3.1042       3.103583      34.44757
  35     3.853        0.0006        0.0000        2.8065        2.8065       2.805924       2.82484
  34     5.035        0.0006        0.0000        2.6591        2.6591       2.658549       1.05279
  33     6.613        0.0006        0.0000        2.5722        2.5722       2.571615       0.46475
  32     8.786        0.0006        0.0000        2.5152        2.5152       2.514588       0.22147
  31     11.80        0.0006        0.0000        2.4712        2.4712       2.470617       0.12310
  30     15.07        0.0006        0.0000        2.4417        2.4417       2.441151       0.07608
  29     18.79        0.0006        0.0000        2.4187        2.4187       2.418103       0.05226
  28     23.16        0.0006        0.0000        2.3978        2.3978       2.397201       0.04042
  27     28.12        0.0006        0.0000        2.3792        2.3792       2.378589       0.03164
  26     33.73        0.0006        0.0000        2.3625        2.3625       2.361907       0.02508
  25     40.54        0.0006        0.0000        2.3455        2.3455       2.344959       0.02103
  24     48.69        0.0006        0.0000        2.3262        2.3263       2.325699       0.01993
  23     57.69        0.0006        0.0000        2.3055        2.3055       2.304930       0.01947
  22     68.43        0.0006        0.0000        2.2814        2.2814       2.280831       0.01894
  21     81.20        0.0006        0.0000        2.2538        2.2538       2.253261       0.01822
  20     96.49        0.0006        0.0001        2.2226        2.2227       2.222101       0.01720
  19     114.6        0.0005        0.0001        2.1876        2.1877       2.187140       0.01632
  18     136.5        0.0005        0.0001        2.1488        2.1489       2.148375       0.01491
  17     162.9        0.0005        0.0001        2.1062        2.1063       2.105780       0.01362
  16     196.4        0.0005        0.0001        2.0560        2.0561       2.055595       0.01263
  15     218.7        0.0005        0.0001        2.0256        2.0257       2.025241       0.01152
  14     243.0        0.0005        0.0001        1.9947        1.9948       1.994315       0.01073
  13     269.0        0.0005        0.0001        1.9613        1.9614       1.960950       0.01082
  12     297.5        0.0005        0.0002        1.9186        1.9188       1.918298       0.01265
  11     328.5        0.0004        0.0002        1.8549        1.8551       1.854665       0.01730
  10     361.9        0.0004        0.0002        1.7608        1.7610       1.760527       0.02382
   9     398.1        0.0004        0.0002        1.6322        1.6324       1.632000       0.02994
   8     437.6        0.0004        0.0002        1.4700        1.4702       1.469761       0.03469
   7     480.5        0.0004        0.0002        1.2787        1.2789       1.278473       0.03757
   6     533.0        0.0004        0.0002        1.0355        1.0357       1.035277       0.03912
   5     589.8        0.0004        0.0001        0.7900        0.7902       0.789732       0.03645
   4     651.6        0.0005        0.0001        0.5590        0.5591       0.558652       0.03160
   3     718.7        0.0006        0.0001        0.3640        0.3641       0.363518       0.02452
   2     792.3        0.0008        0.0001        0.2091        0.2092       0.208432       0.01779
   1     891.5        0.0013        0.0000        0.0768        0.0768       0.075484       0.01131
   0    1013.0        0.0039        0.0000        0.0126        0.0127       0.008801       0.00463



 Wavenumbers:  4000. -  4650. cm-1, ATM      1
 LEVEL PRESSURE   UPWARD FLUX   DIFDOWN FLUX  DIRDOWN FLUX  DOWNWARD FLUX   NET FLUX    HEATING RATE
          mb          W/m2          W/m2          W/m2        W/m2          W/m2       degree/day
  51    .06700        1.2737        0.0000        6.9421        6.9421       5.668324       0.00000
  50    .07753        1.2737        0.0000        6.9421        6.9421       5.668323       0.00080
  49    .09103        1.2737        0.0000        6.9421        6.9421       5.668321       0.00079
  48    0.1069        1.2737        0.0000        6.9421        6.9421       5.668320       0.00077
  47    0.1255        1.2737        0.0000        6.9421        6.9421       5.668318       0.00075
  46    0.1487        1.2737        0.0000        6.9421        6.9421       5.668316       0.00076
  45    0.1794        1.2737        0.0000        6.9421        6.9421       5.668313       0.00078
  44    0.2165        1.2737        0.0000        6.9421        6.9421       5.668310       0.00077
  43    0.2613        1.2737        0.0000        6.9421        6.9421       5.668306       0.00075
  42    0.3336        1.2737        0.0000        6.9420        6.9420       5.668299       0.00077
  41    0.4307        1.2737        0.0000        6.9420        6.9420       5.668290       0.00078
  40    0.5894        1.2737        0.0000        6.9420        6.9420       5.668275       0.00080
  39     1.339        1.2737        0.0000        6.9419        6.9419       5.668186       0.00101
  38     1.782        1.2737        0.0000        6.9418        6.9419       5.668116       0.00133
  37     2.292        1.2737        0.0000        6.9418        6.9418       5.668022       0.00156
  36     2.964        1.2737        0.0000        6.9416        6.9416       5.667881       0.00176
  35     3.853        1.2737        0.0000        6.9414        6.9414       5.667673       0.00198
  34     5.035        1.2737        0.0000        6.9411        6.9411       5.667366       0.00219
  33     6.613        1.2737        0.0000        6.9406        6.9406       5.666914       0.00242
  32     8.786        1.2737        0.0000        6.9399        6.9400       5.666248       0.00259
  31     11.80        1.2737        0.0001        6.9389        6.9389       5.665203       0.00292
  30     15.07        1.2737        0.0001        6.9376        6.9377       5.663981       0.00315
  29     18.79        1.2737        0.0001        6.9361        6.9362       5.662509       0.00334
  28     23.16        1.2737        0.0001        6.9343        6.9344       5.660687       0.00352
  27     28.12        1.2737        0.0001        6.9320        6.9321       5.658490       0.00373
  26     33.73        1.2736        0.0001        6.9293        6.9294       5.655795       0.00405
  25     40.54        1.2736        0.0002        6.9256        6.9258       5.652158       0.00451
  24     48.69        1.2736        0.0002        6.9208        6.9210       5.647344       0.00498
  23     57.69        1.2736        0.0002        6.9150        6.9153       5.641674       0.00532
  22     68.43        1.2736        0.0003        6.9079        6.9082       5.634622       0.00554
  21     81.20        1.2736        0.0003        6.8993        6.8996       5.625999       0.00570
  20     96.49        1.2736        0.0004        6.8888        6.8891       5.615577       0.00575
  19     114.6        1.2737        0.0004        6.8564        6.8569       5.583172       0.01513
  18     136.5        1.2739        0.0005        6.8284        6.8289       5.554976       0.01084
  17     162.9        1.2742        0.0006        6.7981        6.7987       5.524533       0.00973
  16     196.4        1.2745        0.0007        6.7609        6.7617       5.487143       0.00941
  15     218.7        1.2748        0.0008        6.7374        6.7383       5.463470       0.00899
  14     243.0        1.2751        0.0009        6.7125        6.7134       5.438294       0.00873
  13     269.0        1.2755        0.0010        6.6854        6.6864       5.410949       0.00887
  12     297.5        1.2760        0.0011        6.6542        6.6553       5.379329       0.00938
  11     328.5        1.2766        0.0012        6.6149        6.6161       5.339458       0.01084
  10     361.9        1.2776        0.0013        6.5634        6.5647       5.287106       0.01325
   9     398.1        1.2790        0.0015        6.4953        6.4968       5.217829       0.01614
   8     437.6        1.2807        0.0016        6.4085        6.4100       5.129353       0.01892
   7     480.5        1.2829        0.0017        6.3016        6.3033       5.020312       0.02142
   6     533.0        1.2864        0.0019        6.1571        6.1589       4.872481       0.02378
   5     589.8        1.2912        0.0020        5.9921        5.9941       4.702881       0.02517
   4     651.6        1.2979        0.0022        5.7951        5.7973       4.499359       0.02783
   3     718.7        1.3074        0.0023        5.5588        5.5611       4.253631       0.03088
   2     792.3        1.3212        0.0025        5.2906        5.2931       3.971851       0.03232
   1     891.5        1.3472        0.0026        4.9466        4.9492       3.602006       0.03147
   0    1013.0        1.3961        0.0028        4.5751        4.5779       3.181800       0.02918



 Wavenumbers:  4650. -  5150. cm-1, ATM      1
 LEVEL PRESSURE   UPWARD FLUX   DIFDOWN FLUX  DIRDOWN FLUX  DOWNWARD FLUX   NET FLUX    HEATING RATE
          mb          W/m2          W/m2          W/m2        W/m2          W/m2       degree/day
  51    .06700        0.8709        0.0000        6.5710        6.5710       5.700061       0.00000
  50    .07753        0.8709        0.0000        6.5708        6.5708       5.699826       0.18837
  49    .09103        0.8709        0.0000        6.5705        6.5705       5.699533       0.18312
  48    0.1069        0.8709        0.0000        6.5701        6.5701       5.699200       0.17755
  47    0.1255        0.8709        0.0000        6.5698        6.5698       5.698821       0.17187
  46    0.1487        0.8709        0.0000        6.5693        6.5693       5.698348       0.17214
  45    0.1794        0.8709        0.0000        6.5686        6.5686       5.697714       0.17417
  44    0.2165        0.8709        0.0000        6.5679        6.5679       5.696978       0.16733
  43    0.2613        0.8709        0.0000        6.5671        6.5671       5.696128       0.16027
  42    0.3336        0.8709        0.0000        6.5657        6.5657       5.694769       0.15843
  41    0.4307        0.8709        0.0000        6.5640        6.5640       5.693048       0.14965
  40    0.5894        0.8709        0.0000        6.5614        6.5614       5.690434       0.13901
  39     1.339        0.8709        0.0000        6.5516        6.5516       5.680669       0.10994
  38     1.782        0.8709        0.0000        6.5474        6.5474       5.676442       0.08049
  37     2.292        0.8709        0.0000        6.5434        6.5434       5.672518       0.06498
  36     2.964        0.8709        0.0000        6.5394        6.5394       5.668494       0.05051
  35     3.853        0.8709        0.0000        6.5353        6.5354       5.664458       0.03830
  34     5.035        0.8709        0.0000        6.5312        6.5313       5.660359       0.02929
  33     6.613        0.8709        0.0001        6.5267        6.5268       5.655880       0.02394
  32     8.786        0.8709        0.0001        6.5211        6.5212       5.650325       0.02158
  31     11.80        0.8709        0.0001        6.5130        6.5130       5.642182       0.02280
  30     15.07        0.8709        0.0001        6.5035        6.5036       5.632752       0.02435
  29     18.79        0.8708        0.0001        6.4919        6.4920       5.621168       0.02626
  28     23.16        0.8708        0.0001        6.4772        6.4773       5.606492       0.02838
  27     28.12        0.8708        0.0002        6.4591        6.4593       5.588461       0.03065
  26     33.73        0.8708        0.0002        6.4376        6.4378       5.567002       0.03226
  25     40.54        0.8708        0.0002        6.4104        6.4107       5.539883       0.03364
  24     48.69        0.8708        0.0003        6.3768        6.3771       5.506274       0.03478
  23     57.69        0.8708        0.0003        6.3396        6.3400       5.469205       0.03475
  22     68.43        0.8708        0.0004        6.2964        6.2968       5.426018       0.03395
  21     81.20        0.8708        0.0005        6.2475        6.2480       5.377154       0.03229
  20     96.49        0.8708        0.0005        6.1939        6.1945       5.323664       0.02952
  19     114.6        0.8710        0.0006        6.1269        6.1275       5.256555       0.03134
  18     136.5        0.8712        0.0008        6.0591        6.0598       5.188638       0.02612
  17     162.9        0.8715        0.0009        5.9883        5.9891       5.117677       0.02268
  16     196.4        0.8719        0.0011        5.9042        5.9053       5.033416       0.02121
  15     218.7        0.8722        0.0012        5.8509        5.8521       4.979904       0.02032
  14     243.0        0.8725        0.0013        5.7932        5.7944       4.921904       0.02012
  13     269.0        0.8730        0.0014        5.7298        5.7312       4.858269       0.02064
  12     297.5        0.8735        0.0015        5.6583        5.6598       4.786336       0.02133
  11     328.5        0.8743        0.0017        5.5749        5.5765       4.702274       0.02286
  10     361.9        0.8753        0.0018        5.4763        5.4782       4.602865       0.02515
   9     398.1        0.8767        0.0020        5.3616        5.3636       4.486893       0.02702
   8     437.6        0.8786        0.0021        5.2279        5.2301       4.351450       0.02896
   7     480.5        0.8811        0.0023        5.0736        5.0759       4.194728       0.03078
   6     533.0        0.8852        0.0025        4.8702        4.8726       3.987448       0.03334
   5     589.8        0.8907        0.0026        4.6461        4.6487       3.758000       0.03406
   4     651.6        0.8984        0.0028        4.4095        4.4123       3.513969       0.03337
   3     718.7        0.9088        0.0029        4.1663        4.1692       3.260357       0.03187
   2     792.3        0.9234        0.0031        3.9174        3.9205       2.997101       0.03019
   1     891.5        0.9499        0.0032        3.6042        3.6074       2.657499       0.02890
   0    1013.0        0.9962        0.0034        3.2636        3.2670       2.270735       0.02686



 Wavenumbers:  5150. -  6150. cm-1, ATM      1
 LEVEL PRESSURE   UPWARD FLUX   DIFDOWN FLUX  DIRDOWN FLUX  DOWNWARD FLUX   NET FLUX    HEATING RATE
          mb          W/m2          W/m2          W/m2        W/m2          W/m2       degree/day
  51    .06700        2.2721        0.0000       16.4735       16.4735      14.201426       0.00000
  50    .07753        2.2721        0.0000       16.4735       16.4735      14.201426       0.00019
  49    .09103        2.2721        0.0000       16.4735       16.4735      14.201426       0.00018
  48    0.1069        2.2721        0.0000       16.4735       16.4735      14.201425       0.00018
  47    0.1255        2.2721        0.0000       16.4735       16.4735      14.201425       0.00017
  46    0.1487        2.2721        0.0000       16.4735       16.4735      14.201424       0.00018
  45    0.1794        2.2721        0.0000       16.4735       16.4735      14.201424       0.00018
  44    0.2165        2.2721        0.0000       16.4735       16.4735      14.201423       0.00018
  43    0.2613        2.2721        0.0000       16.4735       16.4735      14.201422       0.00018
  42    0.3336        2.2721        0.0000       16.4735       16.4735      14.201420       0.00018
  41    0.4307        2.2721        0.0000       16.4735       16.4735      14.201418       0.00018
  40    0.5894        2.2721        0.0000       16.4735       16.4735      14.201415       0.00019
  39     1.339        2.2721        0.0000       16.4734       16.4734      14.201394       0.00024
  38     1.782        2.2720        0.0000       16.4734       16.4734      14.201377       0.00031
  37     2.292        2.2720        0.0001       16.4733       16.4734      14.201355       0.00037
  36     2.964        2.2730        0.0001       13.9677       13.9678      11.694807      31.46476
  35     3.853        2.2735        0.0001       13.6112       13.6113      11.337735       3.38868
  34     5.035        2.2739        0.0002       13.4358       13.4360      11.162132       1.25443
  33     6.613        2.2741        0.0002       13.3317       13.3319      11.057827       0.55762
  32     8.786        2.2742        0.0002       13.2627       13.2630      10.988748       0.26828
  31     11.80        2.2743        0.0003       13.2090       13.2093      10.934982       0.15053
  30     15.07        2.2744        0.0004       13.1727       13.1731      10.898697       0.09368
  29     18.79        2.2744        0.0005       13.1442       13.1446      10.870203       0.06460
  28     23.16        2.2745        0.0005       13.1182       13.1188      10.844292       0.05010
  27     28.12        2.2745        0.0007       13.0950       13.0957      10.821186       0.03928
  26     33.73        2.2745        0.0008       13.0741       13.0749      10.800403       0.03125
  25     40.54        2.2745        0.0009       13.0527       13.0536      10.779111       0.02642
  24     48.69        2.2745        0.0011       13.0280       13.0291      10.754578       0.02539
  23     57.69        2.2746        0.0013       13.0010       13.0023      10.727686       0.02521
  22     68.43        2.2747        0.0015       12.9690       12.9705      10.695883       0.02500
  21     81.20        2.2747        0.0018       12.9315       12.9333      10.658555       0.02467
  20     96.49        2.2749        0.0021       12.8881       12.8901      10.615290       0.02388
  19     114.6        2.2750        0.0025       12.8384       12.8409      10.565870       0.02308
  18     136.5        2.2751        0.0029       12.7833       12.7862      10.511019       0.02109
  17     162.9        2.2753        0.0034       12.7243       12.7277      10.452415       0.01873
  16     196.4        2.2754        0.0041       12.6587       12.6628      10.387428       0.01636
  15     218.7        2.2754        0.0046       12.6222       12.6268      10.351378       0.01369
  14     243.0        2.2754        0.0050       12.5849       12.5899      10.314556       0.01277
  13     269.0        2.2753        0.0056       12.5437       12.5493      10.273909       0.01319
  12     297.5        2.2753        0.0061       12.4884       12.4946      10.219215       0.01622
  11     328.5        2.2754        0.0067       12.3999       12.4067      10.131278       0.02391
  10     361.9        2.2755        0.0074       12.2534       12.2608       9.985243       0.03695
   9     398.1        2.2759        0.0080       12.0243       12.0323       9.756422       0.05331
   8     437.6        2.2764        0.0086       11.6933       11.7019       9.425458       0.07076
   7     480.5        2.2774        0.0092       11.2571       11.2663       8.988866       0.08575
   6     533.0        2.2794        0.0097       10.6690       10.6787       8.399396       0.09483
   5     589.8        2.2825        0.0103       10.0997       10.1100       7.827470       0.08489
   4     651.6        2.2876        0.0108        9.6130        9.6238       7.336235       0.06718
   3     718.7        2.2958        0.0114        9.2101        9.2215       6.925767       0.05158
   2     792.3        2.3089        0.0121        8.8473        8.8595       6.550555       0.04303
   1     891.5        2.3370        0.0131        8.3836        8.3967       6.059639       0.04177
   0    1013.0        2.3988        0.0141        7.8534        7.8675       5.468649       0.04104



 Wavenumbers:  6150. -  7700. cm-1, ATM      1
 LEVEL PRESSURE   UPWARD FLUX   DIFDOWN FLUX  DIRDOWN FLUX  DOWNWARD FLUX   NET FLUX    HEATING RATE
          mb          W/m2          W/m2          W/m2        W/m2          W/m2       degree/day
  51    .06700        3.4867        0.0000       30.4684       30.4684      26.981692       0.00000
  50    .07753        3.4867        0.0000       30.4684       30.4684      26.981676       0.01303
  49    .09103        3.4867        0.0000       30.4683       30.4683      26.981656       0.01277
  48    0.1069        3.4867        0.0000       30.4683       30.4683      26.981632       0.01250
  47    0.1255        3.4867        0.0000       30.4683       30.4683      26.981605       0.01223
  46    0.1487        3.4867        0.0000       30.4682       30.4683      26.981571       0.01241
  45    0.1794        3.4867        0.0000       30.4682       30.4682      26.981525       0.01276
  44    0.2165        3.4867        0.0000       30.4681       30.4681      26.981470       0.01252
  43    0.2613        3.4867        0.0000       30.4681       30.4681      26.981405       0.01228
  42    0.3336        3.4867        0.0000       30.4679       30.4680      26.981297       0.01256
  41    0.4307        3.4867        0.0000       30.4678       30.4678      26.981154       0.01241
  40    0.5894        3.4866        0.0001       30.4675       30.4676      26.980921       0.01239
  39     1.339        3.4866        0.0001       30.4662       30.4664      26.979821       0.01238
  38     1.782        3.4865        0.0002       30.4655       30.4657      26.979177       0.01227
  37     2.292        3.4865        0.0002       30.4647       30.4649      26.978432       0.01234
  36     2.964        3.4874        0.0004       26.3657       26.3661      22.878705      51.46397
  35     3.853        3.4879        0.0005       25.7970       25.7976      22.309697       5.39999
  34     5.035        3.4882        0.0007       25.5250       25.5257      22.037564       1.94401
  33     6.613        3.4883        0.0008       25.3678       25.3686      21.880304       0.84071
  32     8.786        3.4883        0.0010       25.2661       25.2671      21.778816       0.39414
  31     11.80        3.4882        0.0013       25.1886       25.1900      21.701781       0.21567
  30     15.07        3.4880        0.0016       25.1374       25.1390      21.650991       0.13113
  29     18.79        3.4878        0.0020       25.0978       25.0997      21.611922       0.08858
  28     23.16        3.4875        0.0024       25.0622       25.0645      21.577023       0.06748
  27     28.12        3.4872        0.0028       25.0309       25.0337      21.546513       0.05187
  26     33.73        3.4868        0.0033       25.0033       25.0066      21.519815       0.04014
  25     40.54        3.4863        0.0039       24.9758       24.9797      21.493414       0.03275
  24     48.69        3.4857        0.0047       24.9449       24.9496      21.463918       0.03052
  23     57.69        3.4850        0.0055       24.9119       24.9173      21.432323       0.02962
  22     68.43        3.4842        0.0065       24.8734       24.8798      21.395591       0.02888
  21     81.20        3.4833        0.0076       24.8286       24.8362      21.352882       0.02822
  20     96.49        3.4822        0.0090       24.7765       24.7855      21.303332       0.02735
  19     114.6        3.4809        0.0106       24.7159       24.7265      21.245662       0.02693
  18     136.5        3.4793        0.0126       24.6461       24.6587      21.179372       0.02549
  17     162.9        3.4774        0.0148       24.5656       24.5805      21.103049       0.02440
  16     196.4        3.4750        0.0178       24.4649       24.4827      21.007721       0.02400
  15     218.7        3.4734        0.0198       24.4007       24.4205      20.947064       0.02303
  14     243.0        3.4717        0.0219       24.3324       24.3543      20.882622       0.02235
  13     269.0        3.4698        0.0242       24.2553       24.2795      20.809698       0.02366
  12     297.5        3.4678        0.0266       24.1509       24.1775      20.709685       0.02966
  11     328.5        3.4659        0.0292       23.9819       24.0111      20.545294       0.04470
  10     361.9        3.4640        0.0320       23.6993       23.7312      20.267261       0.07035
   9     398.1        3.4623        0.0347       23.2515       23.2862      19.823882       0.10330
   8     437.6        3.4613        0.0373       22.5886       22.6259      19.164626       0.14095
   7     480.5        3.4612        0.0397       21.6784       21.7182      18.256943       0.17827
   6     533.0        3.4633        0.0420       20.3687       20.4107      16.947329       0.21068
   5     589.8        3.4690        0.0439       18.9648       19.0087      15.539710       0.20894
   4     651.6        3.4801        0.0455       17.5881       17.6336      14.153562       0.18956
   3     718.7        3.4996        0.0469       16.2822       16.3291      12.829525       0.16639
   2     792.3        3.5328        0.0483       15.0506       15.0989      11.566127       0.14490
   1     891.5        3.6047        0.0499       13.6617       13.7116      10.106874       0.12418
   0    1013.0        3.7615        0.0516       12.2905       12.3421       8.580541       0.10598



 Wavenumbers:  7700. -  8050. cm-1, ATM      1
 LEVEL PRESSURE   UPWARD FLUX   DIFDOWN FLUX  DIRDOWN FLUX  DOWNWARD FLUX   NET FLUX    HEATING RATE
          mb          W/m2          W/m2          W/m2        W/m2          W/m2       degree/day
  51    .06700        1.6976        0.0000        7.2006        7.2006       5.503026       0.00000
  50    .07753        1.6976        0.0000        7.2006        7.2006       5.503007       0.01509
  49    .09103        1.6976        0.0000        7.2005        7.2005       5.502984       0.01479
  48    0.1069        1.6976        0.0000        7.2005        7.2005       5.502957       0.01448
  47    0.1255        1.6976        0.0000        7.2005        7.2005       5.502925       0.01417
  46    0.1487        1.6976        0.0000        7.2004        7.2005       5.502886       0.01438
  45    0.1794        1.6976        0.0000        7.2004        7.2004       5.502832       0.01480
  44    0.2165        1.6976        0.0000        7.2003        7.2003       5.502768       0.01451
  43    0.2613        1.6976        0.0000        7.2003        7.2003       5.502693       0.01424
  42    0.3336        1.6976        0.0000        7.2001        7.2001       5.502568       0.01457
  41    0.4307        1.6976        0.0000        7.2000        7.2000       5.502402       0.01441
  40    0.5894        1.6976        0.0000        7.1997        7.1997       5.502131       0.01439
  39     1.339        1.6976        0.0001        7.1984        7.1985       5.500851       0.01441
  38     1.782        1.6977        0.0001        7.1977        7.1978       5.500100       0.01431
  37     2.292        1.6977        0.0001        7.1968        7.1969       5.499230       0.01440
  36     2.964        1.6977        0.0002        7.1956        7.1958       5.498089       0.01433
  35     3.853        1.6977        0.0003        7.1941        7.1943       5.496582       0.01430
  34     5.035        1.6978        0.0003        7.1921        7.1924       5.494581       0.01429
  33     6.613        1.6979        0.0004        7.1894        7.1898       5.491911       0.01427
  32     8.786        1.6980        0.0005        7.1859        7.1863       5.488319       0.01395
  31     11.80        1.6982        0.0006        7.1808        7.1814       5.483192       0.01435
  30     15.07        1.6984        0.0008        7.1754        7.1761       5.477702       0.01417
  29     18.79        1.6987        0.0009        7.1692        7.1702       5.471522       0.01401
  28     23.16        1.6989        0.0011        7.1621        7.1633       5.464330       0.01391
  27     28.12        1.6993        0.0014        7.1540        7.1554       5.456142       0.01392
  26     33.73        1.6996        0.0016        7.1450        7.1467       5.447027       0.01370
  25     40.54        1.7001        0.0019        7.1342        7.1361       5.436082       0.01358
  24     48.69        1.7006        0.0023        7.1213        7.1236       5.422984       0.01355
  23     57.69        1.7012        0.0027        7.1072        7.1099       5.408721       0.01337
  22     68.43        1.7019        0.0031        7.0907        7.0938       5.391898       0.01322
  21     81.20        1.7027        0.0037        7.0711        7.0748       5.372090       0.01309
  20     96.49        1.7038        0.0044        7.0482        7.0526       5.348808       0.01285
  19     114.6        1.7050        0.0051        7.0212        7.0264       5.321381       0.01281
  18     136.5        1.7065        0.0061        6.9900        6.9960       5.289516       0.01225
  17     162.9        1.7083        0.0072        6.9536        6.9607       5.252413       0.01186
  16     196.4        1.7107        0.0086        6.9077        6.9163       5.205550       0.01180
  15     218.7        1.7124        0.0095        6.8783        6.8878       5.175472       0.01142
  14     243.0        1.7142        0.0105        6.8470        6.8575       5.143357       0.01114
  13     269.0        1.7161        0.0116        6.8137        6.8253       5.109177       0.01109
  12     297.5        1.7183        0.0128        6.7783        6.7911       5.072844       0.01078
  11     328.5        1.7207        0.0141        6.7408        6.7549       5.034184       0.01051
  10     361.9        1.7234        0.0154        6.7011        6.7165       4.993105       0.01039
   9     398.1        1.7264        0.0169        6.6588        6.6757       4.949255       0.01022
   8     437.6        1.7298        0.0184        6.6137        6.6321       4.902281       0.01004
   7     480.5        1.7337        0.0201        6.5653        6.5854       4.851694       0.00994
   6     533.0        1.7389        0.0221        6.5053        6.5274       4.788520       0.01016
   5     589.8        1.7450        0.0243        6.4395        6.4638       4.718824       0.01035
   4     651.6        1.7522        0.0266        6.3672        6.3938       4.641555       0.01057
   3     718.7        1.7609        0.0291        6.2870        6.3161       4.555207       0.01085
   2     792.3        1.7713        0.0317        6.1974        6.2291       4.457776       0.01117
   1     891.5        1.7876        0.0351        6.0702        6.1053       4.317728       0.01192
   0    1013.0        1.8110        0.0391        5.9055        5.9447       4.133667       0.01278



 Wavenumbers:  8050. - 12850. cm-1, ATM      1
 LEVEL PRESSURE   UPWARD FLUX   DIFDOWN FLUX  DIRDOWN FLUX  DOWNWARD FLUX   NET FLUX    HEATING RATE
          mb          W/m2          W/m2          W/m2        W/m2          W/m2       degree/day
  51    .06700       22.9341        0.0000      100.8135      100.8135      77.879387       0.00000
  50    .07753       22.9341        0.0000      100.8135      100.8135      77.879387       0.00000
  49    .09103       22.9341        0.0001      100.8134      100.8135      77.879387      -0.00000
  48    0.1069       22.9341        0.0001      100.8134      100.8134      77.879387       0.00000
  47    0.1255       22.9340        0.0001      100.8133      100.8134      77.879387      -0.00000
  46    0.1487       22.9340        0.0002      100.8132      100.8134      77.879387       0.00000
  45    0.1794       22.9339        0.0002      100.8131      100.8133      77.879387      -0.00000
  44    0.2165       22.9339        0.0003      100.8129      100.8133      77.879387       0.00000
  43    0.2613       22.9338        0.0004      100.8127      100.8132      77.879387      -0.00000
  42    0.3336       22.9337        0.0006      100.8125      100.8130      77.879387       0.00000
  41    0.4307       22.9335        0.0008      100.8121      100.8129      77.879387       0.00000
  40    0.5894       22.9332        0.0011      100.8115      100.8126      77.879387      -0.00000
  39     1.339       22.9319        0.0028      100.8085      100.8113      77.879387      -0.00000
  38     1.782       22.9311        0.0037      100.8068      100.8105      77.879387       0.00000
  37     2.292       22.9302        0.0049      100.8047      100.8096      77.879387       0.00000
  36     2.964       22.9267        0.0092      100.7968      100.8061      77.879387      -0.00000
  35     3.853       22.9242        0.0123      100.7913      100.8036      77.879387       0.00000
  34     5.035       22.9217        0.0154      100.7858      100.8011      77.879387       0.00000
  33     6.613       22.9187        0.0191      100.7791      100.7981      77.879387      -0.00000
  32     8.786       22.9149        0.0238      100.7704      100.7943      77.879387       0.00000
  31     11.80       22.9095        0.0306      100.7583      100.7888      77.879387       0.00000
  30     15.07       22.9037        0.0377      100.7453      100.7831      77.879387       0.00000
  29     18.79       22.8971        0.0458      100.7307      100.7765      77.879387       0.00000
  28     23.16       22.8895        0.0553      100.7136      100.7689      77.879387       0.00000
  27     28.12       22.8808        0.0661      100.6941      100.7602      77.879387      -0.00000
  26     33.73       22.8710        0.0782      100.6723      100.7504      77.879387       0.00000
  25     40.54       22.8592        0.0928      100.6458      100.7386      77.879387      -0.00000
  24     48.69       22.8450        0.1104      100.6139      100.7243      77.879387      -0.00000
  23     57.69       22.8293        0.1298      100.5788      100.7087      77.879387       0.00000
  22     68.43       22.8106        0.1530      100.5370      100.6899      77.879387       0.00000
  21     81.20       22.7882        0.1806      100.4871      100.6676      77.879387      -0.00000
  20     96.49       22.7616        0.2135      100.4275      100.6410      77.879387      -0.00000
  19     114.6       22.7340        0.2523       99.9714      100.2236      77.489627       0.18199
  18     136.5       22.7003        0.2983       99.6326       99.9309      77.230652       0.09958
  17     162.9       22.6587        0.3533       99.3336       99.6869      77.028150       0.06473
  16     196.4       22.6030        0.4246       99.0167       99.4413      76.838320       0.04778
  15     218.7       22.5656        0.4716       98.8326       99.3041      76.738530       0.03789
  14     243.0       22.5247        0.5226       98.6443       99.1669      76.642162       0.03342
  13     269.0       22.4803        0.5781       98.4428       99.0209      76.540557       0.03296
  12     297.5       22.4324        0.6379       98.2025       98.8405      76.408029       0.03931
  11     328.5       22.3811        0.7025       97.8770       98.5795      76.198390       0.05700
  10     361.9       22.3269        0.7717       97.4135       98.1852      75.858304       0.08605
   9     398.1       22.2702        0.8454       96.7586       97.6041      75.333869       0.12218
   8     437.6       22.2122        0.9235       95.8588       96.7823      74.570049       0.16331
   7     480.5       22.1549        1.0053       94.6454       95.6507      73.495735       0.21099
   6     533.0       22.0945        1.1026       92.7929       93.8955      71.801085       0.27262
   5     589.8       22.0443        1.2033       90.5175       91.7209      69.676575       0.31535
   4     651.6       22.0120        1.3069       87.9219       89.2288      67.216843       0.33638
   3     718.7       22.0091        1.4129       85.0615       86.4744      64.465349       0.34579
   2     792.3       22.0550        1.5201       81.9189       83.4390      61.384006       0.35340
   1     891.5       22.2212        1.6552       77.6990       79.3542      57.133018       0.36174
   0    1013.0       22.6647        1.8028       72.8287       74.6314      51.966731       0.35872



 Wavenumbers: 12850. - 16000. cm-1, ATM      1
 LEVEL PRESSURE   UPWARD FLUX   DIFDOWN FLUX  DIRDOWN FLUX  DOWNWARD FLUX   NET FLUX    HEATING RATE
          mb          W/m2          W/m2          W/m2        W/m2          W/m2       degree/day
  51    .06700       31.8465        0.0000       63.1686       63.1686      31.322069       0.00000
  50    .07753       31.8465        0.0001       63.1677       63.1678      31.321290       0.62430
  49    .09103       31.8464        0.0001       63.1666       63.1668      31.320319       0.60657
  48    0.1069       31.8464        0.0002       63.1654       63.1656      31.319214       0.58804
  47    0.1255       31.8464        0.0003       63.1640       63.1643      31.317958       0.56944
  46    0.1487       31.8463        0.0004       63.1623       63.1627      31.316393       0.57077
  45    0.1794       31.8463        0.0006       63.1600       63.1606      31.314294       0.57622
  44    0.2165       31.8462        0.0008       63.1573       63.1581      31.311867       0.55205
  43    0.2613       31.8461        0.0010       63.1542       63.1552      31.309069       0.52732
  42    0.3336       31.8460        0.0014       63.1493       63.1507      31.304614       0.51949
  41    0.4307       31.8460        0.0019       63.1431       63.1450      31.299033       0.48520
  40    0.5894       31.8459        0.0027       63.1338       63.1365      31.290590       0.44898
  39     1.339       31.8467        0.0065       63.0955       63.1020      31.255255       0.39782
  38     1.782       31.8481        0.0087       63.0739       63.0826      31.234513       0.39489
  37     2.292       31.8505        0.0113       63.0474       63.0587      31.208216       0.43554
  36     2.964       31.8505        0.0215       62.9979       63.0194      31.168894       0.49360
  35     3.853       31.8564        0.0285       62.9372       62.9658      31.109330       0.56527
  34     5.035       31.8674        0.0357       62.8543       62.8900      31.022534       0.62004
  33     6.613       31.8836        0.0442       62.7426       62.7868      30.903218       0.63786
  32     8.786       31.9049        0.0552       62.5981       62.6533      30.748438       0.60111
  31     11.80       31.9320        0.0706       62.4077       62.4783      30.546270       0.56601
  30     15.07       31.9573        0.0870       62.2216       62.3086      30.351328       0.50330
  29     18.79       31.9823        0.1055       62.0280       62.1334      30.151177       0.45380
  28     23.16       32.0073        0.1269       61.8209       61.9478      29.940492       0.40740
  27     28.12       32.0312        0.1513       61.6062       61.7575      29.726266       0.36417
  26     33.73       32.0511        0.1786       61.3959       61.5746      29.523487       0.30488
  25     40.54       32.0671        0.2115       61.1766       61.3881      29.320978       0.25124
  24     48.69       32.0787        0.2511       60.9462       61.1973      29.118666       0.20936
  23     57.69       32.0839        0.2945       60.7261       61.0206      28.936682       0.17058
  22     68.43       32.0820        0.3462       60.4985       60.8447      28.762633       0.13683
  21     81.20       32.0687        0.4077       60.2722       60.6799      28.611160       0.10009
  20     96.49       32.0425        0.4809       60.0427       60.5236      28.481055       0.07181
  19     114.6       32.0118        0.5684       59.7791       60.3475      28.335640       0.06790
  18     136.5       31.9709        0.6718       59.4803       60.1521      28.181166       0.05940
  17     162.9       31.9179        0.7945       59.1353       59.9299      28.011934       0.05409
  16     196.4       31.8404        0.9533       58.7130       59.6662      27.825823       0.04685
  15     218.7       31.7863        1.0572       58.4452       59.5025      27.716177       0.04163
  14     243.0       31.7259        1.1699       58.1591       59.3291      27.603133       0.03921
  13     269.0       31.6590        1.2918       57.8548       59.1466      27.487558       0.03749
  12     297.5       31.5854        1.4231       57.5307       58.9538      27.368392       0.03534
  11     328.5       31.5055        1.5646       57.1817       58.7463      27.240808       0.03469
  10     361.9       31.4195        1.7166       56.8046       58.5211      27.101624       0.03521
   9     398.1       31.3275        1.8795       56.3950       58.2745      26.946958       0.03603
   8     437.6       31.2302        2.0538       55.9462       58.0000      26.769747       0.03789
   7     480.5       31.1286        2.2398       55.4495       57.6892      26.560594       0.04108
   6     533.0       31.0096        2.4672       54.8070       57.2742      26.264583       0.04762
   5     589.8       30.8905        2.7101       54.0772       56.7873      25.896850       0.05458
   4     651.6       30.7754        2.9684       53.2527       56.2212      25.445801       0.06168
   3     718.7       30.6701        3.2417       52.3269       55.5686      24.898515       0.06878
   2     792.3       30.5803        3.5286       51.3086       54.8372      24.256863       0.07359
   1     891.5       30.5062        3.9056       49.9023       53.8079      23.301758       0.08127
   0    1013.0       30.5096        4.3418       48.1705       52.5123      22.002640       0.09020



 Wavenumbers: 16000. - 22650. cm-1, ATM      1
 LEVEL PRESSURE   UPWARD FLUX   DIFDOWN FLUX  DIRDOWN FLUX  DOWNWARD FLUX   NET FLUX    HEATING RATE
          mb          W/m2          W/m2          W/m2        W/m2          W/m2       degree/day
  51    .06700       73.7398        0.0000      100.7153      100.7153      26.975513       0.00000
  50    .07753       73.7397        0.0003      100.7147      100.7151      26.975396       0.09327
  49    .09103       73.7395        0.0007      100.7140      100.7147      26.975227       0.10579
  48    0.1069       73.7393        0.0012      100.7131      100.7143      26.975001       0.12063
  47    0.1255       73.7392        0.0017      100.7121      100.7138      26.974697       0.13750
  46    0.1487       73.7389        0.0024      100.7108      100.7132      26.974250       0.16294
  45    0.1794       73.7387        0.0033      100.7089      100.7122      26.973551       0.19185
  44    0.2165       73.7384        0.0044      100.7066      100.7110      26.972604       0.21561
  43    0.2613       73.7381        0.0057      100.7037      100.7094      26.971318       0.24240
  42    0.3336       73.7377        0.0079      100.6987      100.7066      26.968873       0.28505
  41    0.4307       73.7373        0.0107      100.6918      100.7025      26.965188       0.32042
  40    0.5894       73.7370        0.0154      100.6797      100.6952      26.958160       0.37374
  39     1.339       73.7407        0.0375      100.6095      100.6470      26.906247       0.58444
  38     1.782       73.7468        0.0504      100.5585      100.6089      26.862037       0.84168
  37     2.292       73.7576        0.0654      100.4903      100.5556      26.798064       1.05956
  36     2.964       73.7576        0.1244      100.3277      100.4520      26.694490       1.30016
  35     3.853       73.7842        0.1650      100.1495      100.3145      26.530296       1.55823
  34     5.035       73.8336        0.2064       99.9129      100.1193      26.285622       1.74785
  33     6.613       73.9067        0.2558       99.5970       99.8528      25.946144       1.81485
  32     8.786       74.0024        0.3193       99.1885       99.5078      25.505345       1.71191
  31     11.80       74.1250        0.4082       98.6487       99.0568      24.931811       1.60572
  30     15.07       74.2392        0.5026       98.1183       98.6210      24.381803       1.42001
  29     18.79       74.3523        0.6087       97.5635       98.1721      23.819858       1.27410
  28     23.16       74.4661        0.7318       96.9656       97.6974      23.231340       1.13800
  27     28.12       74.5747        0.8721       96.3392       97.2113      22.636548       1.01111
  26     33.73       74.6654        1.0284       95.7169       96.7452      22.079796       0.83709
  25     40.54       74.7393        1.2165       95.0542       96.2708      21.531440       0.68030
  24     48.69       74.7938        1.4425       94.3419       95.7843      20.990525       0.55976
  23     57.69       74.8203        1.6896       93.6420       95.3316      20.511333       0.44917
  22     68.43       74.8159        1.9827       92.8963       94.8790      20.063100       0.35237
  21     81.20       74.7616        2.3305       92.1248       94.4553      19.693629       0.24414
  20     96.49       74.6517        2.7430       91.3133       94.0564      19.404700       0.15947
  19     114.6       74.4992        3.2294       90.4091       93.6385      19.139264       0.12394
  18     136.5       74.3040        3.8009       89.3823       93.1832      18.879144       0.10002
  17     162.9       74.0592        4.4746       88.2044       92.6790      18.619750       0.08291
  16     196.4       73.7138        5.3380       86.7633       92.1013      18.387444       0.05847
  15     218.7       73.4776        5.8987       85.8524       91.7511      18.273553       0.04324
  14     243.0       73.2172        6.5026       84.8831       91.3856      18.168411       0.03647
  13     269.0       72.9316        7.1504       83.8551       91.0056      18.073961       0.03064
  12     297.5       72.6200        7.8431       82.7675       90.6106      17.990611       0.02472
  11     328.5       72.2835        8.5829       81.6109       90.1938      17.910317       0.02183
  10     361.9       71.9220        9.3696       80.3855       89.7551      17.833032       0.01955
   9     398.1       71.5346       10.2049       79.0877       89.2927      17.758076       0.01746
   8     437.6       71.1214       11.0891       77.7155       88.8046      17.683236       0.01600
   7     480.5       70.6821       12.0225       76.2673       88.2898      17.607719       0.01483
   6     533.0       70.1477       13.1512       74.5133       87.6645      17.516793       0.01463
   5     589.8       69.5806       14.3434       72.6544       86.9978      17.417176       0.01479
   4     651.6       68.9821       15.5971       70.6904       86.2874      17.305352       0.01529
   3     718.7       68.3536       16.9102       68.6206       85.5308      17.177187       0.01611
   2     792.3       67.6985       18.2781       66.4479       84.7260      17.027419       0.01718
   1     891.5       66.8467       20.0611       63.5839       83.6450      16.798252       0.01950
   0    1013.0       65.8751       22.1098       60.2428       82.3526      16.477459       0.02227



 Wavenumbers: 22650. - 29000. cm-1, ATM      1
 LEVEL PRESSURE   UPWARD FLUX   DIFDOWN FLUX  DIRDOWN FLUX  DOWNWARD FLUX   NET FLUX    HEATING RATE
          mb          W/m2          W/m2          W/m2        W/m2          W/m2       degree/day
  51    .06700       32.0570        0.0000       38.0063       38.0063       5.949306       0.00000
  50    .07753       32.0568        0.0004       38.0057       38.0061       5.949306       0.00000
  49    .09103       32.0566        0.0009       38.0050       38.0059       5.949306      -0.00000
  48    0.1069       32.0563        0.0014       38.0042       38.0056       5.949306       0.00000
  47    0.1255       32.0561        0.0020       38.0033       38.0054       5.949306       0.00000
  46    0.1487       32.0557        0.0028       38.0022       38.0050       5.949306       0.00000
  45    0.1794       32.0552        0.0039       38.0006       38.0045       5.949306       0.00000
  44    0.2165       32.0546        0.0052       37.9987       38.0039       5.949306       0.00000
  43    0.2613       32.0539        0.0067       37.9965       38.0032       5.949306       0.00000
  42    0.3336       32.0528        0.0092       37.9928       38.0021       5.949306       0.00000
  41    0.4307       32.0512        0.0125       37.9880       38.0005       5.949306       0.00000
  40    0.5894       32.0487        0.0180       37.9800       37.9980       5.949306       0.00000
  39     1.339       32.0369        0.0437       37.9425       37.9862       5.949306      -0.00000
  38     1.782       32.0300        0.0588       37.9204       37.9793       5.949306       0.00000
  37     2.292       32.0219        0.0763       37.8949       37.9712       5.949306       0.00000
  36     2.964       31.9903        0.1451       37.7946       37.9396       5.949306       0.00000
  35     3.853       31.9686        0.1924       37.7254       37.9179       5.949306       0.00000
  34     5.035       31.9464        0.2407       37.6549       37.8957       5.949306       0.00000
  33     6.613       31.9198        0.2985       37.5707       37.8691       5.949306       0.00000
  32     8.786       31.8857        0.3727       37.4623       37.8350       5.949306      -0.00000
  31     11.80       31.8378        0.4766       37.3105       37.7871       5.949306       0.00000
  30     15.07       31.7869        0.5871       37.1492       37.7362       5.949306       0.00000
  29     18.79       31.7298        0.7109       36.9682       37.6791       5.949306       0.00000
  28     23.16       31.6635        0.8547       36.7581       37.6128       5.949306      -0.00000
  27     28.12       31.5880        1.0181       36.5193       37.5373       5.949306       0.00000
  26     33.73       31.5040        1.1996       36.2538       37.4533       5.949306       0.00000
  25     40.54       31.4033        1.4171       35.9355       37.3526       5.949306      -0.00000
  24     48.69       31.2827        1.6768       35.5552       37.2320       5.949306      -0.00000
  23     57.69       31.1515        1.9589       35.1419       37.1008       5.949306       0.00000
  22     68.43       30.9969        2.2906       34.6555       36.9462       5.949306       0.00000
  21     81.20       30.8150        2.6797       34.0846       36.7643       5.949306       0.00000
  20     96.49       30.6016        3.1347       33.4162       36.5509       5.949306      -0.00000
  19     114.6       30.3528        3.6628       32.6393       36.3021       5.949306      -0.00000
  18     136.5       30.0642        4.2721       31.7414       36.0135       5.949306       0.00000
  17     162.9       29.7294        4.9747       30.7040       35.6787       5.949306       0.00000
  16     196.4       29.3089        5.8501       29.4081       35.2582       5.949306      -0.00000
  15     218.7       29.0410        6.4034       28.5869       34.9903       5.949306      -0.00000
  14     243.0       28.7568        6.9862       27.7199       34.7061       5.949306       0.00000
  13     269.0       28.4569        7.5967       26.8096       34.4062       5.949306       0.00000
  12     297.5       28.1420        8.2324       25.8589       34.0913       5.949306       0.00000
  11     328.5       27.8118        8.8927       24.8684       33.7611       5.949306       0.00000
  10     361.9       27.4676        9.5737       23.8432       33.4169       5.949306       0.00000
   9     398.1       27.1096       10.2736       22.7853       33.0589       5.949306       0.00000
   8     437.6       26.7392       10.9879       21.7007       32.6886       5.949306       0.00000
   7     480.5       26.3572       11.7136       20.5930       32.3066       5.949306      -0.00000
   6     533.0       25.9075       12.5522       19.3046       31.8568       5.949306       0.00000
   5     589.8       25.4460       13.3932       18.0022       31.3953       5.949306      -0.00000
   4     651.6       24.9753       14.2288       16.6958       30.9246       5.949306      -0.00000
   3     718.7       24.4966       15.0537       15.3922       30.4459       5.949306       0.00000
   2     792.3       24.0133       15.8575       14.1050       29.9626       5.949306       0.00000
   1     891.5       23.4042       16.8241       12.5295       29.3535       5.949306      -0.00000
   0    1013.0       22.7327       17.8201       10.8619       28.6820       5.949306       0.00000



 Wavenumbers: 29000. - 38000. cm-1, ATM      1
 LEVEL PRESSURE   UPWARD FLUX   DIFDOWN FLUX  DIRDOWN FLUX  DOWNWARD FLUX   NET FLUX    HEATING RATE
          mb          W/m2          W/m2          W/m2        W/m2          W/m2       degree/day
  51    .06700        4.7088        0.0000       13.4026       13.4026       8.693789       0.00000
  50    .07753        4.7086        0.0003       13.3983       13.3986       8.689998       3.03844
  49    .09103        4.7083        0.0007       13.3921       13.3928       8.684490       3.44288
  48    0.1069        4.7080        0.0011       13.3841       13.3851       8.677125       3.92006
  47    0.1255        4.7077        0.0016       13.3734       13.3750       8.667296       4.45638
  46    0.1487        4.7072        0.0022       13.3579       13.3601       8.652878       5.25541
  45    0.1794        4.7067        0.0030       13.3342       13.3372       8.630509       6.14079
  44    0.2165        4.7060        0.0040       13.3025       13.3065       8.600507       6.82502
  43    0.2613        4.7052        0.0051       13.2605       13.2657       8.560456       7.54944
  42    0.3336        4.7040        0.0070       13.1834       13.1905       8.486451       8.62818
  41    0.4307        4.7025        0.0095       13.0730       13.0824       8.379975       9.25784
  40    0.5894        4.7001        0.0133       12.8795       12.8929       8.192788       9.95436
  39     1.339        4.6918        0.0295       11.9153       11.9449       7.253064      10.57960
  38     1.782        4.6887        0.0378       11.4377       11.4755       6.786803       8.87685
  37     2.292        4.6866        0.0466       10.9754       11.0220       6.335375       7.47683
  36     2.964        4.6668        0.0831       10.4281       10.5112       5.844401       6.16320
  35     3.853        4.6609        0.1044        9.8780        9.9824       5.321461       4.96280
  34     5.035        4.6611        0.1235        9.3319        9.4554       4.794312       3.76573
  33     6.613        4.6654        0.1449        8.8071        8.9520       4.286557       2.71446
  32     8.786        4.6723        0.1714        8.3127        8.4841       3.811800       1.84379
  31     11.80        4.6810        0.2074        7.8272        8.0346       3.353596       1.28283
  30     15.07        4.6885        0.2448        7.4509        7.6957       3.007231       0.89425
  29     18.79        4.6953        0.2856        7.1200        7.4055       2.710257       0.67333
  28     23.16        4.7013        0.3317        6.8105        7.1422       2.440905       0.52084
  27     28.12        4.7057        0.3827        6.5241        6.9068       2.201152       0.40756
  26     33.73        4.7061        0.4386        6.2674        6.7060       1.999845       0.30267
  25     40.54        4.7013        0.5046        6.0161        6.5206       1.819311       0.22397
  24     48.69        4.6908        0.5820        5.7643        6.3462       1.655463       0.16956
  23     57.69        4.6747        0.6647        5.5304        6.1950       1.520354       0.12664
  22     68.43        4.6506        0.7604        5.2918        6.0522       1.401624       0.09334
  21     81.20        4.6143        0.8715        5.0518        5.9233       1.309027       0.06119
  20     96.49        4.5645        1.0000        4.8044        5.8044       1.239925       0.03814
  19     114.6        4.5041        1.1454        4.5385        5.6839       1.179758       0.02809
  18     136.5        4.4341        1.3077        4.2498        5.5575       1.123398       0.02167
  17     162.9        4.3538        1.4880        3.9355        5.4235       1.069700       0.01716
  16     196.4        4.2522        1.7035        3.5727        5.2762       1.023988       0.01151
  15     218.7        4.1881        1.8340        3.3566        5.1906       1.002507       0.00816
  14     243.0        4.1213        1.9668        3.1377        5.1045       0.983250       0.00668
  13     269.0        4.0520        2.1009        2.9175        5.0185       0.966434       0.00545
  12     297.5        3.9807        2.2351        2.6976        4.9327       0.952014       0.00428
  11     328.5        3.9081        2.3678        2.4788        4.8466       0.938498       0.00367
  10     361.9        3.8348        2.4978        2.2629        4.7607       0.925925       0.00318
   9     398.1        3.7610        2.6238        2.0514        4.6753       0.914246       0.00272
   8     437.6        3.6873        2.7447        1.8458        4.5905       0.903235       0.00235
   7     480.5        3.6138        2.8596        1.6472        4.5068       0.892984       0.00201
   6     533.0        3.5307        2.9815        1.4313        4.4127       0.882054       0.00176
   5     589.8        3.4491        3.0919        1.2289        4.3208       0.871710       0.00154
   4     651.6        3.3695        3.1893        1.0420        4.2314       0.861850       0.00135
   3     718.7        3.2922        3.2727        0.8719        4.1446       0.852428       0.00118
   2     792.3        3.2172        3.3414        0.7192        4.0606       0.843434       0.00103
   1     891.5        3.1267        3.4061        0.5532        3.9592       0.832591       0.00092
   0    1013.0        3.0308        3.4497        0.4021        3.8517       0.820917       0.00081



 Wavenumbers: 38000. - 50000. cm-1, ATM      1
 LEVEL PRESSURE   UPWARD FLUX   DIFDOWN FLUX  DIRDOWN FLUX  DOWNWARD FLUX   NET FLUX    HEATING RATE
          mb          W/m2          W/m2          W/m2        W/m2          W/m2       degree/day
  51    .06700        0.0056        0.0000        0.8267        0.8267       0.821070       0.00000
  50    .07753        0.0055        0.0001        0.8242        0.8243       0.818737       1.86968
  49    .09103        0.0055        0.0002        0.8207        0.8209       0.815413       2.07745
  48    0.1069        0.0054        0.0002        0.8162        0.8164       0.811054       2.32032
  47    0.1255        0.0053        0.0004        0.8103        0.8106       0.805340       2.59060
  46    0.1487        0.0052        0.0005        0.8018        0.8023       0.797104       3.00210
  45    0.1794        0.0050        0.0007        0.7889        0.7896       0.784547       3.44719
  44    0.2165        0.0048        0.0009        0.7720        0.7729       0.768039       3.75532
  43    0.2613        0.0046        0.0011        0.7500        0.7511       0.746484       4.06292
  42    0.3336        0.0043        0.0015        0.7106        0.7121       0.707792       4.51112
  41    0.4307        0.0040        0.0019        0.6566        0.6584       0.654492       4.63430
  40    0.5894        0.0034        0.0024        0.5680        0.5704       0.566975       4.65406
  39     1.339        0.0020        0.0030        0.2422        0.2452       0.243163       3.64554
  38     1.782        0.0016        0.0026        0.1493        0.1519       0.150279       1.76836
  37     2.292        0.0014        0.0022        0.0924        0.0946       0.093197       0.94543
  36     2.964        0.0006        0.0023        0.0529        0.0552       0.054601       0.48450
  35     3.853        0.0003        0.0018        0.0287        0.0305       0.030180       0.23176
  34     5.035        0.0002        0.0013        0.0149        0.0162       0.016059       0.10087
  33     6.613        0.0001        0.0009        0.0071        0.0080       0.007898       0.04363
  32     8.786        0.0000        0.0006        0.0029        0.0035       0.003418       0.01740
  31     11.80        0.0000        0.0003        0.0009        0.0012       0.001230       0.00613
  30     15.07        0.0000        0.0002        0.0003        0.0005       0.000484       0.00192
  29     18.79        0.0000        0.0001        0.0001        0.0002       0.000195       0.00066
  28     23.16        0.0000        0.0000        0.0000        0.0001       0.000077       0.00023
  27     28.12        0.0000        0.0000        0.0000        0.0000       0.000031       0.00008
  26     33.73        0.0000        0.0000        0.0000        0.0000       0.000013       0.00003
  25     40.54        0.0000        0.0000        0.0000        0.0000       0.000005       0.00001
  24     48.69        0.0000        0.0000        0.0000        0.0000       0.000002       0.00000
  23     57.69        0.0000        0.0000        0.0000        0.0000       0.000001       0.00000
  22     68.43        0.0000        0.0000        0.0000        0.0000       0.000000       0.00000
  21     81.20        0.0000        0.0000        0.0000        0.0000       0.000000       0.00000
  20     96.49        0.0000        0.0000        0.0000        0.0000       0.000000       0.00000
  19     114.6        0.0000        0.0000        0.0000        0.0000       0.000000       0.00000
  18     136.5        0.0000        0.0000        0.0000        0.0000       0.000000       0.00000
  17     162.9        0.0000        0.0000        0.0000        0.0000       0.000000       0.00000
  16     196.4        0.0000        0.0000        0.0000        0.0000       0.000000       0.00000
  15     218.7        0.0000        0.0000        0.0000        0.0000       0.000000       0.00000
  14     243.0        0.0000        0.0000        0.0000        0.0000       0.000000       0.00000
  13     269.0        0.0000        0.0000        0.0000        0.0000       0.000000       0.00000
  12     297.5        0.0000        0.0000        0.0000        0.0000       0.000000       0.00000
  11     328.5        0.0000        0.0000        0.0000        0.0000       0.000000       0.00000
  10     361.9        0.0000        0.0000        0.0000        0.0000       0.000000       0.00000
   9     398.1        0.0000        0.0000        0.0000        0.0000       0.000000       0.00000
   8     437.6        0.0000        0.0000        0.0000        0.0000       0.000000       0.00000
   7     480.5        0.0000        0.0000        0.0000        0.0000       0.000000       0.00000
   6     533.0        0.0000        0.0000        0.0000        0.0000       0.000000       0.00000
   5     589.8        0.0000        0.0000        0.0000        0.0000       0.000000       0.00000
   4     651.6        0.0000        0.0000        0.0000        0.0000       0.000000       0.00000
   3     718.7        0.0000        0.0000        0.0000        0.0000       0.000000       0.00000
   2     792.3        0.0000        0.0000        0.0000        0.0000       0.000000       0.00000
   1     891.5        0.0000        0.0000        0.0000        0.0000       0.000000       0.00000
   0    1013.0        0.0000        0.0000        0.0000        0.0000       0.000000       0.00000



 Wavenumbers:   820. -  2600. cm-1, ATM      1
 LEVEL PRESSURE   UPWARD FLUX   DIFDOWN FLUX  DIRDOWN FLUX  DOWNWARD FLUX   NET FLUX    HEATING RATE
          mb          W/m2          W/m2          W/m2        W/m2          W/m2       degree/day
  51    .06700        0.0817        0.0000        3.8670        3.8670       3.785283       0.00000
  50    .07753        0.0817        0.0000        3.8644        3.8644       3.782685       2.08287
  49    .09103        0.0817        0.0000        3.8638        3.8638       3.782015       0.41878
  48    0.1069        0.0817        0.0000        3.8630        3.8630       3.781265       0.39874
  47    0.1255        0.0817        0.0000        3.8622        3.8622       3.780452       0.36879
  46    0.1487        0.0817        0.0000        3.8613        3.8613       3.779525       0.33798
  45    0.1794        0.0817        0.0000        3.8602        3.8602       3.778416       0.30446
  44    0.2165        0.0817        0.0000        3.8590        3.8590       3.777281       0.25804
  43    0.2613        0.0817        0.0000        3.8579        3.8579       3.776122       0.21851
  42    0.3336        0.0817        0.0000        3.8562        3.8562       3.774437       0.19646
  41    0.4307        0.0817        0.0000        3.8540        3.8540       3.772272       0.18827
  40    0.5894        0.0817        0.0000        3.8505        3.8505       3.768784       0.18550
  39     1.339        0.0817        0.0000        3.8352        3.8352       3.753434       0.17281
  38     1.782        0.0817        0.0000        3.8267        3.8267       3.744955       0.16143
  37     2.292        0.0817        0.0000        3.8172        3.8172       3.735436       0.15766
  36     2.964        0.0972        0.0000        0.7016        0.7016       0.604391      39.30407
  35     3.853        0.1037        0.0000        0.6232        0.6232       0.519529       0.80535
  34     5.035        0.1070        0.0000        0.5901        0.5901       0.483123       0.26008
  33     6.613        0.1088        0.0000        0.5737        0.5737       0.464962       0.09709
  32     8.786        0.1097        0.0000        0.5649        0.5649       0.455208       0.03788
  31     11.80        0.1103        0.0000        0.5595        0.5595       0.449178       0.01688
  30     15.07        0.1107        0.0000        0.5566        0.5566       0.445923       0.00840
  29     18.79        0.1109        0.0000        0.5547        0.5547       0.443839       0.00473
  28     23.16        0.1111        0.0000        0.5533        0.5533       0.442273       0.00303
  27     28.12        0.1112        0.0000        0.5523        0.5523       0.441112       0.00197
  26     33.73        0.1113        0.0000        0.5515        0.5515       0.440241       0.00131
  25     40.54        0.1114        0.0000        0.5509        0.5509       0.439504       0.00092
  24     48.69        0.1114        0.0000        0.5502        0.5502       0.438798       0.00073
  23     57.69        0.1115        0.0000        0.5496        0.5496       0.438146       0.00061
  22     68.43        0.1116        0.0000        0.5491        0.5491       0.437490       0.00052
  21     81.20        0.1116        0.0000        0.5485        0.5485       0.436829       0.00044
  20     96.49        0.1117        0.0000        0.5479        0.5479       0.436163       0.00037
  19     114.6        0.1118        0.0000        0.5473        0.5473       0.435528       0.00030
  18     136.5        0.1118        0.0000        0.5467        0.5467       0.434863       0.00026
  17     162.9        0.1119        0.0000        0.5462        0.5462       0.434249       0.00020
  16     196.4        0.1120        0.0000        0.5457        0.5457       0.433748       0.00013
  15     218.7        0.1120        0.0000        0.5456        0.5456       0.433582       0.00006
  14     243.0        0.1120        0.0000        0.5454        0.5454       0.433457       0.00004
  13     269.0        0.1120        0.0000        0.5453        0.5454       0.433349       0.00003
  12     297.5        0.1120        0.0000        0.5452        0.5452       0.433219       0.00004
  11     328.5        0.1120        0.0000        0.5450        0.5451       0.433018       0.00005
  10     361.9        0.1121        0.0000        0.5447        0.5447       0.432675       0.00009
   9     398.1        0.1121        0.0000        0.5442        0.5442       0.432090       0.00014
   8     437.6        0.1122        0.0000        0.5433        0.5434       0.431119       0.00021
   7     480.5        0.1124        0.0000        0.5420        0.5420       0.429573       0.00030
   6     533.0        0.1127        0.0000        0.5394        0.5394       0.426640       0.00047
   5     589.8        0.1132        0.0000        0.5353        0.5353       0.422097       0.00067
   4     651.6        0.1141        0.0000        0.5285        0.5285       0.414430       0.00105
   3     718.7        0.1155        0.0000        0.5175        0.5176       0.402084       0.00155
   2     792.3        0.1177        0.0000        0.5011        0.5012       0.383492       0.00213
   1     891.5        0.1220        0.0000        0.4711        0.4711       0.349104       0.00293
   0    1013.0        0.1296        0.0000        0.4249        0.4249       0.295296       0.00374

  Modules and versions used in this calculation:

       rrtmg_sw.1col.f90:  $Revision$                    rrtmg_sw_init.f90:  $Revision$        
     rrtmgsw_cldprop.f90:  $Revision$                  rrtmgsw_cldprmc.f90:  NOT USED          
     rrtmg_sw_reftra.f90:  $Revision$                  rrtmg_sw_spcvrt.f90:  NOT USED          
     rrtmg_sw_spcvmc.f90:  NOT USED                    rrtmgsw_setcoef.f90:  NOT USED          
     rrtmg_sw_taumol.f90:  $Revision$                  rrtmg_sw_vrtqdr.f90:  NOT USED          
                rrtatm.f:  NOT USED                             util_xxx.f:  NOT USED          
                 extra.f:  NOT USED                       rrtmg_sw_k_g.f90:  $Revision$        

