

 Wavenumbers:   820. - 50000. cm-1, ATM      1
 LEVEL PRESSURE   UPWARD FLUX   DIFDOWN FLUX  DIRDOWN FLUX  DOWNWARD FLUX   NET FLUX    HEATING RATE
          mb          W/m2          W/m2          W/m2        W/m2          W/m2       degree/day
  51    .06700      179.6479        0.0000      397.8738      397.8738     218.225880       0.00000
  50    .07753      179.6473        0.0012      397.8580      397.8591     218.211824      11.26655
  49    .09103      179.6465        0.0026      397.8425      397.8451     218.198547       8.29833
  48    0.1069      179.6457        0.0043      397.8240      397.8283     218.182636       8.46983
  47    0.1255      179.6447        0.0062      397.8011      397.8073     218.162649       9.06113
  46    0.1487      179.6435        0.0086      397.7697      397.7783     218.134757      10.16679
  45    0.1794      179.6419        0.0119      397.7232      397.7351     218.093188      11.41158
  44    0.2165      179.6401        0.0158      397.6637      397.6795     218.039336      12.25056
  43    0.2613      179.6381        0.0203      397.5873      397.6076     217.969508      13.16212
  42    0.3336      179.6349        0.0279      397.4509      397.4787     217.843810      14.65524
  41    0.4307      179.6310        0.0377      397.2603      397.2981     217.667100      15.36453
  40    0.5894      179.6251        0.0536      396.9365      396.9901     217.365030      16.06370
  39     1.339      179.6081        0.1245      395.4502      395.5747     215.966539      15.74447
  38     1.782      179.6053        0.1642      394.7605      394.9246     215.319277      12.32282
  37     2.292      179.6085        0.2093      394.0953      394.3047     214.696191      10.31993
  36     2.964      179.6034        0.3225      383.2239      383.5464     203.942947     134.98571
  35     3.853      179.6275        0.4186      381.3133      381.7319     202.104359      17.44854
  34     5.035      179.6774        0.5280      379.8576      380.3856     200.708204       9.97355
  33     6.613      179.7531        0.6655      378.5096      379.1751     199.421941       6.87637
  32     8.786      179.8511        0.8456      377.1419      377.9875     198.136460       4.99234
  31     11.80      179.9705        1.0994      375.5982      376.6976     196.727142       3.94565
  30     15.07      180.0741        1.3691      374.2144      375.5835     195.509452       3.14384
  29     18.79      180.1691        1.6710      372.8407      374.5117     194.342619       2.64557
  28     23.16      180.2548        2.0207      371.4025      373.4232     193.168406       2.27055
  27     28.12      180.3230        2.4172      369.9219      372.3391     192.016019       1.95898
  26     33.73      180.3557        2.8576      368.4506      371.3082     190.952496       1.59903
  25     40.54      180.3446        3.3858      366.8659      370.2517     189.907148       1.29687
  24     48.69      180.2829        4.0168      365.1327      369.1495     188.866619       1.07678
  23     57.69      180.1690        4.7034      363.3911      368.0945     187.925449       0.88221
  22     68.43      179.9839        5.5127      361.4866      366.9993     187.015393       0.71543
  21     81.20      179.6949        6.4664      359.4361      365.9025     186.207648       0.53375
  20     96.49      179.2888        7.5883      357.1996      364.7878     185.499060       0.39109
  19     114.6      178.7882        8.8980      354.4433      363.3413     184.553069       0.44171
  18     136.5      178.1826       10.4186      351.3909      361.8095     183.626943       0.35612
  17     162.9      177.4554       12.1862      347.9600      360.1462     182.690778       0.29924
  16     196.4      176.4895       14.4138      343.7974      358.2112     181.721707       0.24393
  15     218.7      175.8527       15.8376      341.1927      357.0303     181.177610       0.20657
  14     243.0      175.1651       17.3518      338.4453      355.7971     180.632049       0.18922
  13     269.0      174.4261       18.9550      335.5437      354.4987     180.072690       0.18145
  12     297.5      173.6359       20.6450      332.4403      353.0852     179.449335       0.18488
  11     328.5      172.7972       22.4232      329.0339      351.4572     178.659931       0.21464
  10     361.9      171.9125       24.2843      325.2252      349.5095     177.597006       0.26893
   9     398.1      170.9820       26.2283      320.9021      347.1304     176.148390       0.33749
   8     437.6      170.0096       28.2498      315.9478      344.1976     174.187998       0.41914
   7     480.5      168.9993       30.3449      310.2387      340.5836     171.584292       0.51136
   6     533.0      167.8052       32.8264      302.7031      335.5295     167.724319       0.62095
   5     589.8      166.5819       35.3877      294.3870      329.7747     163.192779       0.67263
   4     651.6      165.3450       38.0180      285.5517      323.5697     158.224686       0.67940
   3     718.7      164.1156       40.7080      276.3472      317.0552     152.939604       0.66419
   2     792.3      162.9287       43.4429      266.8468      310.2897     147.361064       0.63980
   1     891.5      161.5695       46.9121      254.7395      301.6516     140.082142       0.61940
   0    1013.0      160.4172       50.7681      241.0054      291.7735     131.356259       0.60588



 Wavenumbers:  2600. -  3250. cm-1, ATM      1
 LEVEL PRESSURE   UPWARD FLUX   DIFDOWN FLUX  DIRDOWN FLUX  DOWNWARD FLUX   NET FLUX    HEATING RATE
          mb          W/m2          W/m2          W/m2        W/m2          W/m2       degree/day
  51    .06700        0.3620        0.0000        3.5066        3.5066       3.144649       0.00000
  50    .07753        0.3620        0.0000        3.5066        3.5066       3.144641       0.00640
  49    .09103        0.3620        0.0000        3.5066        3.5066       3.144631       0.00627
  48    0.1069        0.3620        0.0000        3.5066        3.5066       3.144620       0.00613
  47    0.1255        0.3620        0.0000        3.5066        3.5066       3.144607       0.00599
  46    0.1487        0.3620        0.0000        3.5066        3.5066       3.144590       0.00607
  45    0.1794        0.3620        0.0000        3.5065        3.5065       3.144567       0.00624
  44    0.2165        0.3620        0.0000        3.5065        3.5065       3.144540       0.00611
  43    0.2613        0.3620        0.0000        3.5065        3.5065       3.144509       0.00598
  42    0.3336        0.3620        0.0000        3.5064        3.5064       3.144456       0.00615
  41    0.4307        0.3620        0.0000        3.5064        3.5064       3.144385       0.00617
  40    0.5894        0.3620        0.0000        3.5062        3.5062       3.144266       0.00633
  39     1.339        0.3620        0.0000        3.5055        3.5055       3.143567       0.00787
  38     1.782        0.3620        0.0000        3.5050        3.5050       3.143036       0.01010
  37     2.292        0.3620        0.0000        3.5043        3.5043       3.142344       0.01147
  36     2.964        0.3620        0.0000        3.5033        3.5033       3.141354       0.01243
  35     3.853        0.3620        0.0000        3.5019        3.5019       3.139976       0.01307
  34     5.035        0.3620        0.0000        3.5001        3.5001       3.138113       0.01331
  33     6.613        0.3620        0.0000        3.4977        3.4977       3.135700       0.01290
  32     8.786        0.3620        0.0000        3.4947        3.4947       3.132721       0.01157
  31     11.80        0.3620        0.0000        3.4910        3.4910       3.129078       0.01020
  30     15.07        0.3620        0.0000        3.4878        3.4878       3.125848       0.00834
  29     18.79        0.3620        0.0000        3.4847        3.4847       3.122770       0.00698
  28     23.16        0.3620        0.0000        3.4815        3.4815       3.119527       0.00627
  27     28.12        0.3620        0.0000        3.4778        3.4779       3.115883       0.00620
  26     33.73        0.3620        0.0000        3.4733        3.4734       3.111387       0.00676
  25     40.54        0.3620        0.0000        3.4670        3.4670       3.105024       0.00789
  24     48.69        0.3620        0.0000        3.4580        3.4580       3.096067       0.00927
  23     57.69        0.3620        0.0000        3.4469        3.4469       3.084924       0.01044
  22     68.43        0.3620        0.0000        3.4324        3.4325       3.070487       0.01135
  21     81.20        0.3620        0.0000        3.4145        3.4146       3.052554       0.01185
  20     96.49        0.3620        0.0000        3.3932        3.3932       3.031200       0.01179
  19     114.6        0.3621        0.0000        3.3504        3.3504       2.988327       0.02002
  18     136.5        0.3622        0.0001        3.3113        3.3114       2.949193       0.01505
  17     162.9        0.3623        0.0001        3.2758        3.2758       2.913498       0.01141
  16     196.4        0.3625        0.0001        3.2401        3.2402       2.877664       0.00902
  15     218.7        0.3627        0.0001        3.2204        3.2205       2.857814       0.00754
  14     243.0        0.3628        0.0001        3.2008        3.2009       2.838096       0.00684
  13     269.0        0.3630        0.0001        3.1807        3.1808       2.817741       0.00660
  12     297.5        0.3633        0.0001        3.1578        3.1579       2.794628       0.00686
  11     328.5        0.3636        0.0001        3.1296        3.1297       2.766113       0.00775
  10     361.9        0.3640        0.0001        3.0928        3.0930       2.728952       0.00940
   9     398.1        0.3646        0.0001        3.0448        3.0449       2.680260       0.01134
   8     437.6        0.3655        0.0001        2.9815        2.9817       2.616194       0.01370
   7     480.5        0.3666        0.0002        2.8989        2.8991       2.532418       0.01645
   6     533.0        0.3686        0.0002        2.7769        2.7770       2.408446       0.01994
   5     589.8        0.3714        0.0002        2.6338        2.6340       2.262615       0.02165
   4     651.6        0.3753        0.0002        2.4786        2.4788       2.103476       0.02176
   3     718.7        0.3809        0.0002        2.3189        2.3191       1.938233       0.02077
   2     792.3        0.3889        0.0002        2.1534        2.1537       1.764717       0.01990
   1     891.5        0.4040        0.0002        1.9374        1.9376       1.533613       0.01967
   0    1013.0        0.4317        0.0002        1.6921        1.6923       1.260637       0.01895



 Wavenumbers:  3250. -  4000. cm-1, ATM      1
 LEVEL PRESSURE   UPWARD FLUX   DIFDOWN FLUX  DIRDOWN FLUX  DOWNWARD FLUX   NET FLUX    HEATING RATE
          mb          W/m2          W/m2          W/m2        W/m2          W/m2       degree/day
  51    .06700        0.0429        0.0000        5.9117        5.9117       5.868776       0.00000
  50    .07753        0.0429        0.0000        5.9075        5.9075       5.864614       3.33611
  49    .09103        0.0429        0.0000        5.9052        5.9052       5.862325       1.43070
  48    0.1069        0.0429        0.0000        5.9035        5.9035       5.860612       0.91190
  47    0.1255        0.0429        0.0000        5.9019        5.9019       5.858992       0.73438
  46    0.1487        0.0429        0.0000        5.9001        5.9001       5.857257       0.63248
  45    0.1794        0.0429        0.0000        5.8982        5.8982       5.855280       0.54263
  44    0.2165        0.0429        0.0000        5.8962        5.8962       5.853332       0.44317
  43    0.2613        0.0429        0.0000        5.8943        5.8943       5.851383       0.36742
  42    0.3336        0.0429        0.0000        5.8915        5.8915       5.848627       0.32131
  41    0.4307        0.0429        0.0000        5.8881        5.8881       5.845253       0.29332
  40    0.5894        0.0429        0.0000        5.8830        5.8830       5.840147       0.27154
  39     1.339        0.0429        0.0000        5.8641        5.8641       5.821227       0.21300
  38     1.782        0.0429        0.0000        5.8561        5.8561       5.813237       0.15212
  37     2.292        0.0429        0.0000        5.8483        5.8483       5.805450       0.12897
  36     2.964        0.0430        0.0000        3.6604        3.6604       3.617431      27.46626
  35     3.853        0.0430        0.0000        3.3779        3.3779       3.334838       2.68185
  34     5.035        0.0431        0.0000        3.2463        3.2464       3.203296       0.93968
  33     6.613        0.0431        0.0000        3.1697        3.1697       3.126636       0.40983
  32     8.786        0.0431        0.0000        3.1190        3.1190       3.075893       0.19706
  31     11.80        0.0431        0.0000        3.0792        3.0792       3.036063       0.11151
  30     15.07        0.0431        0.0000        3.0518        3.0518       3.008661       0.07075
  29     18.79        0.0431        0.0000        3.0296        3.0296       2.986528       0.05018
  28     23.16        0.0431        0.0000        3.0088        3.0088       2.965724       0.04023
  27     28.12        0.0431        0.0000        2.9894        2.9894       2.946305       0.03301
  26     33.73        0.0431        0.0000        2.9710        2.9710       2.927922       0.02764
  25     40.54        0.0431        0.0000        2.9515        2.9516       2.908451       0.02416
  24     48.69        0.0431        0.0000        2.9295        2.9295       2.886409       0.02281
  23     57.69        0.0431        0.0000        2.9057        2.9058       2.862654       0.02227
  22     68.43        0.0431        0.0001        2.8780        2.8780       2.834892       0.02182
  21     81.20        0.0431        0.0001        2.8457        2.8457       2.802603       0.02134
  20     96.49        0.0431        0.0001        2.8082        2.8083       2.765180       0.02065
  19     114.6        0.0431        0.0001        2.7658        2.7659       2.722742       0.01982
  18     136.5        0.0431        0.0001        2.7184        2.7185       2.675340       0.01823
  17     162.9        0.0431        0.0001        2.6657        2.6658       2.622648       0.01684
  16     196.4        0.0431        0.0001        2.6029        2.6031       2.559955       0.01578
  15     218.7        0.0431        0.0001        2.5650        2.5651       2.522022       0.01440
  14     243.0        0.0431        0.0002        2.5262        2.5263       2.483232       0.01345
  13     269.0        0.0431        0.0002        2.4845        2.4846       2.441526       0.01353
  12     297.5        0.0431        0.0002        2.4319        2.4321       2.388934       0.01560
  11     328.5        0.0432        0.0002        2.3556        2.3558       2.312645       0.02074
  10     361.9        0.0432        0.0002        2.2453        2.2455       2.202329       0.02791
   9     398.1        0.0433        0.0002        2.0976        2.0978       2.054453       0.03445
   8     437.6        0.0436        0.0002        1.9158        1.9160       1.872437       0.03892
   7     480.5        0.0440        0.0002        1.7056        1.7059       1.661884       0.04135
   6     533.0        0.0448        0.0002        1.4421        1.4423       1.397514       0.04253
   5     589.8        0.0463        0.0002        1.1825        1.1827       1.136358       0.03876
   4     651.6        0.0489        0.0002        0.9384        0.9386       0.889749       0.03372
   3     718.7        0.0532        0.0002        0.7088        0.7089       0.655756       0.02941
   2     792.3        0.0606        0.0001        0.5010        0.5011       0.440533       0.02468
   1     891.5        0.0781        0.0001        0.2952        0.2953       0.217261       0.01900
   0    1013.0        0.1239        0.0001        0.1306        0.1307       0.006788       0.01461



 Wavenumbers:  4000. -  4650. cm-1, ATM      1
 LEVEL PRESSURE   UPWARD FLUX   DIFDOWN FLUX  DIRDOWN FLUX  DOWNWARD FLUX   NET FLUX    HEATING RATE
          mb          W/m2          W/m2          W/m2        W/m2          W/m2       degree/day
  51    .06700        0.7514        0.0000        6.9421        6.9421       6.190673       0.00000
  50    .07753        0.7514        0.0000        6.9421        6.9421       6.190672       0.00081
  49    .09103        0.7514        0.0000        6.9421        6.9421       6.190671       0.00079
  48    0.1069        0.7514        0.0000        6.9421        6.9421       6.190669       0.00078
  47    0.1255        0.7514        0.0000        6.9421        6.9421       6.190668       0.00076
  46    0.1487        0.7514        0.0000        6.9421        6.9421       6.190666       0.00077
  45    0.1794        0.7514        0.0000        6.9421        6.9421       6.190663       0.00079
  44    0.2165        0.7514        0.0000        6.9421        6.9421       6.190659       0.00078
  43    0.2613        0.7514        0.0000        6.9421        6.9421       6.190655       0.00076
  42    0.3336        0.7514        0.0000        6.9420        6.9420       6.190648       0.00078
  41    0.4307        0.7514        0.0000        6.9420        6.9420       6.190639       0.00079
  40    0.5894        0.7514        0.0000        6.9420        6.9420       6.190624       0.00081
  39     1.339        0.7514        0.0000        6.9419        6.9419       6.190534       0.00102
  38     1.782        0.7514        0.0000        6.9418        6.9419       6.190463       0.00135
  37     2.292        0.7514        0.0000        6.9417        6.9418       6.190367       0.00158
  36     2.964        0.7514        0.0000        6.9416        6.9416       6.190225       0.00178
  35     3.853        0.7514        0.0000        6.9414        6.9414       6.190015       0.00200
  34     5.035        0.7514        0.0000        6.9411        6.9411       6.189704       0.00222
  33     6.613        0.7514        0.0000        6.9406        6.9406       6.189248       0.00244
  32     8.786        0.7514        0.0000        6.9399        6.9399       6.188574       0.00261
  31     11.80        0.7514        0.0000        6.9388        6.9389       6.187519       0.00296
  30     15.07        0.7513        0.0001        6.9376        6.9376       6.186284       0.00319
  29     18.79        0.7513        0.0001        6.9361        6.9361       6.184795       0.00338
  28     23.16        0.7513        0.0001        6.9342        6.9343       6.182953       0.00356
  27     28.12        0.7513        0.0001        6.9319        6.9320       6.180732       0.00378
  26     33.73        0.7513        0.0001        6.9292        6.9293       6.178006       0.00410
  25     40.54        0.7513        0.0002        6.9255        6.9256       6.174327       0.00456
  24     48.69        0.7513        0.0002        6.9205        6.9207       6.169456       0.00504
  23     57.69        0.7512        0.0002        6.9147        6.9150       6.163717       0.00538
  22     68.43        0.7512        0.0003        6.9076        6.9078       6.156577       0.00561
  21     81.20        0.7512        0.0003        6.8988        6.8991       6.147844       0.00577
  20     96.49        0.7512        0.0004        6.8881        6.8885       6.137285       0.00583
  19     114.6        0.7513        0.0004        6.8642        6.8646       6.113312       0.01119
  18     136.5        0.7514        0.0005        6.8402        6.8407       6.089386       0.00920
  17     162.9        0.7515        0.0006        6.8143        6.8149       6.063388       0.00831
  16     196.4        0.7517        0.0007        6.7823        6.7831       6.031377       0.00806
  15     218.7        0.7518        0.0008        6.7620        6.7627       6.010924       0.00776
  14     243.0        0.7520        0.0009        6.7401        6.7410       5.989020       0.00760
  13     269.0        0.7522        0.0010        6.7164        6.7174       5.965201       0.00773
  12     297.5        0.7525        0.0011        6.6896        6.6906       5.938165       0.00802
  11     328.5        0.7528        0.0012        6.6574        6.6586       5.905745       0.00881
  10     361.9        0.7533        0.0013        6.6178        6.6191       5.865753       0.01012
   9     398.1        0.7540        0.0014        6.5679        6.5693       5.815232       0.01177
   8     437.6        0.7550        0.0015        6.5040        6.5056       5.750584       0.01382
   7     480.5        0.7563        0.0017        6.4219        6.4235       5.667190       0.01638
   6     533.0        0.7583        0.0018        6.3045        6.3063       5.547930       0.01919
   5     589.8        0.7610        0.0020        6.1698        6.1718       5.410763       0.02036
   4     651.6        0.7646        0.0022        6.0220        6.0242       5.259588       0.02067
   3     718.7        0.7695        0.0023        5.8552        5.8575       5.088026       0.02156
   2     792.3        0.7764        0.0025        5.6591        5.6616       4.885229       0.02326
   1     891.5        0.7890        0.0027        5.3782        5.3809       4.591832       0.02497
   0    1013.0        0.8126        0.0029        5.0428        5.0457       4.233178       0.02490



 Wavenumbers:  4650. -  5150. cm-1, ATM      1
 LEVEL PRESSURE   UPWARD FLUX   DIFDOWN FLUX  DIRDOWN FLUX  DOWNWARD FLUX   NET FLUX    HEATING RATE
          mb          W/m2          W/m2          W/m2        W/m2          W/m2       degree/day
  51    .06700        0.5298        0.0000        6.5710        6.5710       6.041147       0.00000
  50    .07753        0.5298        0.0000        6.5708        6.5708       6.040916       0.18562
  49    .09103        0.5298        0.0000        6.5705        6.5705       6.040627       0.18044
  48    0.1069        0.5298        0.0000        6.5701        6.5701       6.040298       0.17497
  47    0.1255        0.5298        0.0000        6.5698        6.5698       6.039925       0.16939
  46    0.1487        0.5298        0.0000        6.5693        6.5693       6.039459       0.16966
  45    0.1794        0.5298        0.0000        6.5687        6.5687       6.038834       0.17167
  44    0.2165        0.5298        0.0000        6.5680        6.5680       6.038109       0.16496
  43    0.2613        0.5298        0.0000        6.5671        6.5671       6.037271       0.15801
  42    0.3336        0.5298        0.0000        6.5658        6.5658       6.035931       0.15621
  41    0.4307        0.5298        0.0000        6.5641        6.5641       6.034233       0.14758
  40    0.5894        0.5298        0.0000        6.5615        6.5615       6.031655       0.13712
  39     1.339        0.5298        0.0000        6.5518        6.5519       6.022017       0.10851
  38     1.782        0.5298        0.0000        6.5477        6.5477       6.017840       0.07951
  37     2.292        0.5298        0.0000        6.5438        6.5438       6.013961       0.06425
  36     2.964        0.5298        0.0000        6.5398        6.5398       6.009979       0.04999
  35     3.853        0.5298        0.0000        6.5358        6.5358       6.005979       0.03797
  34     5.035        0.5298        0.0000        6.5317        6.5317       6.001907       0.02909
  33     6.613        0.5298        0.0000        6.5272        6.5273       5.997450       0.02383
  32     8.786        0.5298        0.0001        6.5217        6.5217       5.991913       0.02150
  31     11.80        0.5298        0.0001        6.5135        6.5136       5.983793       0.02273
  30     15.07        0.5298        0.0001        6.5041        6.5042       5.974388       0.02428
  29     18.79        0.5298        0.0001        6.4925        6.4926       5.962835       0.02619
  28     23.16        0.5297        0.0001        6.4778        6.4779       5.948198       0.02830
  27     28.12        0.5297        0.0002        6.4598        6.4599       5.930214       0.03057
  26     33.73        0.5297        0.0002        6.4383        6.4385       5.908811       0.03218
  25     40.54        0.5297        0.0002        6.4112        6.4115       5.881764       0.03356
  24     48.69        0.5297        0.0003        6.3776        6.3779       5.848243       0.03469
  23     57.69        0.5297        0.0003        6.3406        6.3409       5.811272       0.03466
  22     68.43        0.5297        0.0004        6.2975        6.2979       5.768199       0.03386
  21     81.20        0.5297        0.0004        6.2487        6.2491       5.719465       0.03220
  20     96.49        0.5297        0.0005        6.1953        6.1958       5.666116       0.02944
  19     114.6        0.5297        0.0006        6.1340        6.1347       5.604922       0.02857
  18     136.5        0.5298        0.0007        6.0710        6.0717       5.541893       0.02424
  17     162.9        0.5300        0.0009        6.0045        6.0054       5.475357       0.02127
  16     196.4        0.5302        0.0010        5.9251        5.9261       5.395891       0.02000
  15     218.7        0.5304        0.0011        5.8744        5.8756       5.345115       0.01928
  14     243.0        0.5307        0.0013        5.8192        5.8205       5.289797       0.01919
  13     269.0        0.5309        0.0014        5.7586        5.7600       5.229015       0.01972
  12     297.5        0.5313        0.0015        5.6907        5.6922       5.160908       0.02020
  11     328.5        0.5318        0.0016        5.6138        5.6155       5.083704       0.02099
  10     361.9        0.5324        0.0018        5.5255        5.5273       4.994909       0.02247
   9     398.1        0.5333        0.0019        5.4236        5.4256       4.892319       0.02390
   8     437.6        0.5344        0.0021        5.3065        5.3086       4.774163       0.02526
   7     480.5        0.5360        0.0023        5.1741        5.1763       4.640307       0.02629
   6     533.0        0.5384        0.0024        5.0010        5.0034       4.464967       0.02821
   5     589.8        0.5417        0.0026        4.8101        4.8127       4.271016       0.02879
   4     651.6        0.5461        0.0028        4.6060        4.6087       4.062639       0.02850
   3     718.7        0.5520        0.0030        4.3926        4.3955       3.843503       0.02754
   2     792.3        0.5600        0.0031        4.1726        4.1758       3.615736       0.02612
   1     891.5        0.5741        0.0033        3.8944        3.8977       3.323593       0.02486
   0    1013.0        0.5978        0.0035        3.5849        3.5884       2.990563       0.02312



 Wavenumbers:  5150. -  6150. cm-1, ATM      1
 LEVEL PRESSURE   UPWARD FLUX   DIFDOWN FLUX  DIRDOWN FLUX  DOWNWARD FLUX   NET FLUX    HEATING RATE
          mb          W/m2          W/m2          W/m2        W/m2          W/m2       degree/day
  51    .06700        1.4252        0.0000       16.4735       16.4735      15.048296       0.00000
  50    .07753        1.4252        0.0000       16.4735       16.4735      15.048296       0.00018
  49    .09103        1.4252        0.0000       16.4735       16.4735      15.048296       0.00018
  48    0.1069        1.4252        0.0000       16.4735       16.4735      15.048295       0.00018
  47    0.1255        1.4252        0.0000       16.4735       16.4735      15.048295       0.00017
  46    0.1487        1.4252        0.0000       16.4735       16.4735      15.048294       0.00017
  45    0.1794        1.4252        0.0000       16.4735       16.4735      15.048294       0.00018
  44    0.2165        1.4252        0.0000       16.4735       16.4735      15.048293       0.00018
  43    0.2613        1.4252        0.0000       16.4735       16.4735      15.048292       0.00017
  42    0.3336        1.4252        0.0000       16.4735       16.4735      15.048290       0.00018
  41    0.4307        1.4252        0.0000       16.4735       16.4735      15.048288       0.00018
  40    0.5894        1.4252        0.0000       16.4735       16.4735      15.048285       0.00019
  39     1.339        1.4252        0.0000       16.4734       16.4734      15.048264       0.00023
  38     1.782        1.4252        0.0000       16.4734       16.4734      15.048248       0.00031
  37     2.292        1.4252        0.0001       16.4733       16.4734      15.048226       0.00036
  36     2.964        1.4258        0.0001       14.6166       14.6167      13.190923      23.31476
  35     3.853        1.4261        0.0001       14.3304       14.3305      12.904466       2.71853
  34     5.035        1.4262        0.0001       14.1887       14.1888      12.762594       1.01347
  33     6.613        1.4264        0.0002       14.1058       14.1059      12.679567       0.44386
  32     8.786        1.4264        0.0002       14.0517       14.0519      12.625475       0.21007
  31     11.80        1.4264        0.0003       14.0102       14.0105      12.584005       0.11610
  30     15.07        1.4265        0.0004       13.9824       13.9827      12.556286       0.07157
  29     18.79        1.4264        0.0004       13.9607       13.9611      12.534689       0.04897
  28     23.16        1.4264        0.0005       13.9411       13.9416      12.515179       0.03772
  27     28.12        1.4264        0.0006       13.9236       13.9243      12.497869       0.02943
  26     33.73        1.4263        0.0008       13.9079       13.9087      12.482348       0.02334
  25     40.54        1.4263        0.0009       13.8919       13.8928      12.466474       0.01969
  24     48.69        1.4262        0.0011       13.8734       13.8745      12.448248       0.01886
  23     57.69        1.4262        0.0013       13.8533       13.8546      12.428357       0.01865
  22     68.43        1.4261        0.0015       13.8296       13.8311      12.404934       0.01841
  21     81.20        1.4261        0.0018       13.8019       13.8036      12.377557       0.01809
  20     96.49        1.4260        0.0021       13.7698       13.7719      12.345911       0.01747
  19     114.6        1.4260        0.0025       13.7332       13.7358      12.309796       0.01686
  18     136.5        1.4259        0.0030       13.6925       13.6955      12.269613       0.01545
  17     162.9        1.4258        0.0035       13.6485       13.6520      12.226258       0.01386
  16     196.4        1.4256        0.0042       13.5982       13.6025      12.176863       0.01243
  15     218.7        1.4255        0.0047       13.5689       13.5736      12.148192       0.01089
  14     243.0        1.4253        0.0052       13.5385       13.5437      12.118383       0.01034
  13     269.0        1.4251        0.0058       13.5045       13.5103      12.085160       0.01078
  12     297.5        1.4249        0.0064       13.4591       13.4655      12.040523       0.01324
  11     328.5        1.4248        0.0070       13.3867       13.3937      11.968952       0.01946
  10     361.9        1.4247        0.0077       13.2664       13.2741      11.849400       0.03025
   9     398.1        1.4246        0.0083       13.0754       13.0838      11.659149       0.04432
   8     437.6        1.4248        0.0090       12.7892       12.7982      11.373466       0.06108
   7     480.5        1.4251        0.0097       12.3876       12.3972      10.972112       0.07882
   6     533.0        1.4260        0.0103       11.7915       11.8018      10.375760       0.09593
   5     589.8        1.4277        0.0109       11.1438       11.1547       9.726946       0.09631
   4     651.6        1.4307        0.0114       10.5277       10.5391       9.108467       0.08458
   3     718.7        1.4355        0.0120        9.9891       10.0011       8.565631       0.06822
   2     792.3        1.4433        0.0126        9.5389        9.5515       8.108172       0.05247
   1     891.5        1.4595        0.0135        9.0848        9.0983       7.638723       0.03995
   0    1013.0        1.4928        0.0146        8.6241        8.6386       7.145799       0.03423



 Wavenumbers:  6150. -  7700. cm-1, ATM      1
 LEVEL PRESSURE   UPWARD FLUX   DIFDOWN FLUX  DIRDOWN FLUX  DOWNWARD FLUX   NET FLUX    HEATING RATE
          mb          W/m2          W/m2          W/m2        W/m2          W/m2       degree/day
  51    .06700        2.3961        0.0000       30.4684       30.4684      28.072281       0.00000
  50    .07753        2.3961        0.0000       30.4684       30.4684      28.072265       0.01303
  49    .09103        2.3961        0.0000       30.4683       30.4683      28.072244       0.01277
  48    0.1069        2.3961        0.0000       30.4683       30.4683      28.072221       0.01250
  47    0.1255        2.3961        0.0000       30.4683       30.4683      28.072194       0.01223
  46    0.1487        2.3961        0.0000       30.4682       30.4683      28.072160       0.01241
  45    0.1794        2.3961        0.0000       30.4682       30.4682      28.072113       0.01276
  44    0.2165        2.3961        0.0000       30.4681       30.4681      28.072058       0.01252
  43    0.2613        2.3961        0.0000       30.4681       30.4681      28.071993       0.01228
  42    0.3336        2.3961        0.0000       30.4679       30.4680      28.071885       0.01256
  41    0.4307        2.3961        0.0000       30.4678       30.4678      28.071743       0.01241
  40    0.5894        2.3960        0.0001       30.4675       30.4676      28.071510       0.01239
  39     1.339        2.3960        0.0001       30.4662       30.4664      28.070410       0.01238
  38     1.782        2.3959        0.0002       30.4655       30.4657      28.069765       0.01227
  37     2.292        2.3959        0.0002       30.4647       30.4649      28.069020       0.01234
  36     2.964        2.3967        0.0003       27.3834       27.3838      24.987091      38.68752
  35     3.853        2.3970        0.0005       26.9700       26.9705      24.573423       3.92579
  34     5.035        2.3972        0.0006       26.7629       26.7635      24.366286       1.47970
  33     6.613        2.3973        0.0007       26.6425       26.6433      24.246025       0.64292
  32     8.786        2.3972        0.0009       26.5650       26.5659      24.168719       0.30023
  31     11.80        2.3970        0.0012       26.5061       26.5074      24.110352       0.16341
  30     15.07        2.3968        0.0015       26.4673       26.4688      24.072041       0.09891
  29     18.79        2.3965        0.0019       26.4373       26.4392      24.042681       0.06657
  28     23.16        2.3962        0.0023       26.4104       26.4127      24.016532       0.05056
  27     28.12        2.3958        0.0028       26.3867       26.3895      23.993717       0.03878
  26     33.73        2.3954        0.0033       26.3658       26.3691      23.973773       0.02999
  25     40.54        2.3948        0.0039       26.3449       26.3489      23.954060       0.02446
  24     48.69        2.3941        0.0047       26.3215       26.3262      23.932055       0.02277
  23     57.69        2.3934        0.0055       26.2964       26.3019      23.908506       0.02207
  22     68.43        2.3925        0.0065       26.2671       26.2737      23.881140       0.02151
  21     81.20        2.3915        0.0077       26.2331       26.2408      23.849322       0.02102
  20     96.49        2.3902        0.0092       26.1934       26.2026      23.812388       0.02038
  19     114.6        2.3887        0.0109       26.1468       26.1577      23.768952       0.02028
  18     136.5        2.3870        0.0129       26.0930       26.1058      23.718846       0.01927
  17     162.9        2.3849        0.0153       26.0305       26.0458      23.660887       0.01853
  16     196.4        2.3822        0.0184       25.9519       25.9702      23.588058       0.01833
  15     218.7        2.3804        0.0204       25.9015       25.9218      23.541449       0.01770
  14     243.0        2.3785        0.0226       25.8475       25.8701      23.491692       0.01726
  13     269.0        2.3764        0.0250       25.7867       25.8117      23.435322       0.01829
  12     297.5        2.3741        0.0276       25.7053       25.7328      23.358716       0.02272
  11     328.5        2.3718        0.0303       25.5757       25.6061      23.234265       0.03384
  10     361.9        2.3694        0.0332       25.3610       25.3942      23.024792       0.05300
   9     398.1        2.3672        0.0362       25.0185       25.0547      22.687541       0.07857
   8     437.6        2.3652        0.0392       24.5013       24.5405      22.175273       0.10953
   7     480.5        2.3639        0.0420       23.7639       23.8060      21.442121       0.14399
   6     533.0        2.3637        0.0449       22.6326       22.6775      20.313859       0.18150
   5     589.8        2.3657        0.0475       21.3194       21.3669      19.001155       0.19485
   4     651.6        2.3713        0.0496       19.9527       20.0023      17.631067       0.18736
   3     718.7        2.3822        0.0515       18.6149       18.6665      16.284275       0.16925
   2     792.3        2.4017        0.0532       17.3347       17.3879      14.986135       0.14888
   1     891.5        2.4452        0.0553       15.8677       15.9230      13.477768       0.12835
   0    1013.0        2.5407        0.0574       14.3985       14.4560      11.915297       0.10849



 Wavenumbers:  7700. -  8050. cm-1, ATM      1
 LEVEL PRESSURE   UPWARD FLUX   DIFDOWN FLUX  DIRDOWN FLUX  DOWNWARD FLUX   NET FLUX    HEATING RATE
          mb          W/m2          W/m2          W/m2        W/m2          W/m2       degree/day
  51    .06700        1.0577        0.0000        7.2006        7.2006       6.142858       0.00000
  50    .07753        1.0577        0.0000        7.2006        7.2006       6.142840       0.01478
  49    .09103        1.0577        0.0000        7.2005        7.2005       6.142817       0.01449
  48    0.1069        1.0577        0.0000        7.2005        7.2005       6.142790       0.01418
  47    0.1255        1.0577        0.0000        7.2005        7.2005       6.142759       0.01388
  46    0.1487        1.0577        0.0000        7.2004        7.2005       6.142721       0.01408
  45    0.1794        1.0577        0.0000        7.2004        7.2004       6.142668       0.01449
  44    0.2165        1.0577        0.0000        7.2003        7.2003       6.142606       0.01422
  43    0.2613        1.0577        0.0000        7.2003        7.2003       6.142532       0.01395
  42    0.3336        1.0577        0.0000        7.2001        7.2001       6.142409       0.01427
  41    0.4307        1.0577        0.0000        7.2000        7.2000       6.142247       0.01411
  40    0.5894        1.0577        0.0000        7.1997        7.1997       6.141982       0.01410
  39     1.339        1.0578        0.0001        7.1984        7.1985       6.140728       0.01411
  38     1.782        1.0578        0.0001        7.1977        7.1978       6.139992       0.01401
  37     2.292        1.0578        0.0001        7.1968        7.1969       6.139140       0.01411
  36     2.964        1.0578        0.0002        7.1957        7.1958       6.138022       0.01403
  35     3.853        1.0578        0.0002        7.1941        7.1943       6.136546       0.01401
  34     5.035        1.0578        0.0003        7.1922        7.1924       6.134587       0.01400
  33     6.613        1.0579        0.0003        7.1895        7.1898       6.131972       0.01398
  32     8.786        1.0579        0.0004        7.1859        7.1864       6.128455       0.01366
  31     11.80        1.0580        0.0006        7.1809        7.1814       6.123434       0.01406
  30     15.07        1.0581        0.0007        7.1754        7.1761       6.118060       0.01387
  29     18.79        1.0582        0.0009        7.1693        7.1702       6.112010       0.01372
  28     23.16        1.0583        0.0010        7.1622        7.1632       6.104971       0.01361
  27     28.12        1.0584        0.0013        7.1541        7.1554       6.096959       0.01362
  26     33.73        1.0586        0.0015        7.1451        7.1466       6.088041       0.01341
  25     40.54        1.0587        0.0018        7.1343        7.1361       6.077335       0.01328
  24     48.69        1.0589        0.0021        7.1213        7.1235       6.064528       0.01325
  23     57.69        1.0592        0.0025        7.1073        7.1098       6.050585       0.01307
  22     68.43        1.0595        0.0030        7.0907        7.0936       6.034148       0.01292
  21     81.20        1.0598        0.0035        7.0711        7.0746       6.014801       0.01278
  20     96.49        1.0602        0.0041        7.0482        7.0523       5.992076       0.01254
  19     114.6        1.0608        0.0049        7.0213        7.0262       5.965445       0.01243
  18     136.5        1.0614        0.0058        6.9901        6.9959       5.934505       0.01190
  17     162.9        1.0622        0.0069        6.9538        6.9607       5.898491       0.01151
  16     196.4        1.0632        0.0082        6.9079        6.9162       5.852982       0.01146
  15     218.7        1.0639        0.0091        6.8786        6.8877       5.823829       0.01107
  14     243.0        1.0647        0.0101        6.8473        6.8574       5.792722       0.01079
  13     269.0        1.0655        0.0111        6.8140        6.8252       5.759648       0.01073
  12     297.5        1.0665        0.0123        6.7787        6.7910       5.724526       0.01042
  11     328.5        1.0676        0.0135        6.7414        6.7549       5.687331       0.01011
  10     361.9        1.0688        0.0148        6.7019        6.7167       5.647888       0.00998
   9     398.1        1.0701        0.0162        6.6600        6.6762       5.606099       0.00974
   8     437.6        1.0717        0.0177        6.6157        6.6334       5.561763       0.00948
   7     480.5        1.0734        0.0193        6.5688        6.5881       5.514663       0.00925
   6     533.0        1.0757        0.0212        6.5112        6.5325       5.456749       0.00932
   5     589.8        1.0784        0.0233        6.4491        6.4725       5.394027       0.00931
   4     651.6        1.0817        0.0256        6.3821        6.4077       5.326017       0.00930
   3     718.7        1.0854        0.0280        6.3094        6.3374       5.251947       0.00931
   2     792.3        1.0900        0.0305        6.2302        6.2607       5.170708       0.00932
   1     891.5        1.0969        0.0338        6.1205        6.1543       5.057380       0.00964
   0    1013.0        1.1066        0.0378        5.9833        6.0210       4.914410       0.00993



 Wavenumbers:  8050. - 12850. cm-1, ATM      1
 LEVEL PRESSURE   UPWARD FLUX   DIFDOWN FLUX  DIRDOWN FLUX  DOWNWARD FLUX   NET FLUX    HEATING RATE
          mb          W/m2          W/m2          W/m2        W/m2          W/m2       degree/day
  51    .06700       24.5750        0.0000      100.8135      100.8135      76.238480       0.00000
  50    .07753       24.5750        0.0000      100.8135      100.8135      76.238480       0.00000
  49    .09103       24.5750        0.0001      100.8134      100.8135      76.238480      -0.00000
  48    0.1069       24.5750        0.0001      100.8134      100.8134      76.238480       0.00000
  47    0.1255       24.5749        0.0001      100.8133      100.8134      76.238480      -0.00000
  46    0.1487       24.5749        0.0002      100.8132      100.8134      76.238480       0.00000
  45    0.1794       24.5748        0.0002      100.8131      100.8133      76.238480      -0.00000
  44    0.2165       24.5748        0.0003      100.8129      100.8133      76.238480      -0.00000
  43    0.2613       24.5747        0.0004      100.8127      100.8132      76.238480      -0.00000
  42    0.3336       24.5746        0.0006      100.8125      100.8130      76.238480       0.00000
  41    0.4307       24.5744        0.0008      100.8121      100.8129      76.238480      -0.00000
  40    0.5894       24.5741        0.0011      100.8115      100.8126      76.238480       0.00000
  39     1.339       24.5728        0.0028      100.8085      100.8113      76.238480       0.00000
  38     1.782       24.5720        0.0038      100.8068      100.8105      76.238480       0.00000
  37     2.292       24.5711        0.0049      100.8047      100.8096      76.238480       0.00000
  36     2.964       24.5689        0.0077      100.7998      100.8074      76.238480      -0.00000
  35     3.853       24.5670        0.0101      100.7954      100.8055      76.238480       0.00000
  34     5.035       24.5647        0.0129      100.7903      100.8032      76.238480       0.00000
  33     6.613       24.5619        0.0165      100.7839      100.8004      76.238480      -0.00000
  32     8.786       24.5581        0.0212      100.7754      100.7966      76.238480       0.00000
  31     11.80       24.5528        0.0279      100.7634      100.7913      76.238480      -0.00000
  30     15.07       24.5471        0.0351      100.7504      100.7855      76.238480       0.00000
  29     18.79       24.5406        0.0432      100.7359      100.7791      76.238480       0.00000
  28     23.16       24.5330        0.0527      100.7188      100.7715      76.238480      -0.00000
  27     28.12       24.5244        0.0635      100.6993      100.7628      76.238480       0.00000
  26     33.73       24.5147        0.0757      100.6775      100.7531      76.238480       0.00000
  25     40.54       24.5029        0.0904      100.6511      100.7414      76.238480       0.00000
  24     48.69       24.4888        0.1081      100.6192      100.7273      76.238480      -0.00000
  23     57.69       24.4732        0.1276      100.5841      100.7117      76.238480       0.00000
  22     68.43       24.4546        0.1509      100.5422      100.6931      76.238480       0.00000
  21     81.20       24.4324        0.1786      100.4923      100.6709      76.238480       0.00000
  20     96.49       24.4060        0.2117      100.4327      100.6445      76.238480      -0.00000
  19     114.6       24.3768        0.2509      100.1663      100.4172      76.040390       0.09249
  18     136.5       24.3416        0.2974       99.9246      100.2220      75.880435       0.06151
  17     162.9       24.2989        0.3529       99.6916      100.0445      75.745608       0.04310
  16     196.4       24.2424        0.4249       99.4363       99.8612      75.618762       0.03193
  15     218.7       24.2049        0.4723       99.2859       99.7582      75.553295       0.02486
  14     243.0       24.1640        0.5239       99.1320       99.6559      75.491867       0.02131
  13     269.0       24.1196        0.5799       98.9686       99.5485      75.428856       0.02044
  12     297.5       24.0717        0.6405       98.7801       99.4206      75.348948       0.02370
  11     328.5       24.0202        0.7059       98.5399       99.2458      75.225623       0.03353
  10     361.9       23.9656        0.7763       98.2187       98.9950      75.029383       0.04965
   9     398.1       23.9083        0.8517       97.7840       98.6357      74.727458       0.07034
   8     437.6       23.8491        0.9322       97.1948       98.1269      74.277858       0.09613
   7     480.5       23.7898        1.0175       96.3957       97.4132      73.623465       0.12852
   6     533.0       23.7254        1.1206       95.1583       96.2788      72.553429       0.17213
   5     589.8       23.6689        1.2291       93.5924       94.8214      71.152518       0.20794
   4     651.6       23.6267        1.3425       91.7127       93.0552      69.428509       0.23576
   3     718.7       23.6085        1.4602       89.5326       90.9928      67.384233       0.25691
   2     792.3       23.6307        1.5812       87.0777       88.6589      65.028279       0.27020
   1     891.5       23.7470        1.7371       83.7311       85.4682      61.721227       0.28141
   0    1013.0       24.0799        1.9130       79.6759       81.5888      57.508911       0.29248



 Wavenumbers: 12850. - 16000. cm-1, ATM      1
 LEVEL PRESSURE   UPWARD FLUX   DIFDOWN FLUX  DIRDOWN FLUX  DOWNWARD FLUX   NET FLUX    HEATING RATE
          mb          W/m2          W/m2          W/m2        W/m2          W/m2       degree/day
  51    .06700       33.4261        0.0000       63.1686       63.1686      29.742429       0.00000
  50    .07753       33.4261        0.0001       63.1677       63.1678      29.741650       0.62480
  49    .09103       33.4261        0.0001       63.1666       63.1668      29.740679       0.60714
  48    0.1069       33.4261        0.0002       63.1654       63.1656      29.739573       0.58868
  47    0.1255       33.4260        0.0003       63.1640       63.1643      29.738315       0.57017
  46    0.1487       33.4260        0.0004       63.1623       63.1627      29.736747       0.57164
  45    0.1794       33.4259        0.0006       63.1600       63.1606      29.734644       0.57725
  44    0.2165       33.4259        0.0008       63.1573       63.1581      29.732212       0.55321
  43    0.2613       33.4258        0.0010       63.1542       63.1552      29.729408       0.52862
  42    0.3336       33.4257        0.0014       63.1493       63.1507      29.724939       0.52102
  41    0.4307       33.4257        0.0019       63.1431       63.1450      29.719339       0.48692
  40    0.5894       33.4257        0.0027       63.1338       63.1365      29.710858       0.45099
  39     1.339       33.4268        0.0065       63.0955       63.1021      29.675244       0.40096
  38     1.782       33.4285        0.0088       63.0739       63.0827      29.654264       0.39942
  37     2.292       33.4312        0.0114       63.0474       63.0589      29.627623       0.44124
  36     2.964       33.4343        0.0179       63.0042       63.0221      29.587742       0.50062
  35     3.853       33.4421        0.0236       62.9458       62.9694      29.527287       0.57373
  34     5.035       33.4550        0.0301       62.8640       62.8941      29.439156       0.62957
  33     6.613       33.4734        0.0384       62.7530       62.7914      29.317981       0.64780
  32     8.786       33.4973        0.0493       62.6088       62.6581      29.160773       0.61054
  31     11.80       33.5280        0.0648       62.4186       62.4834      28.955423       0.57492
  30     15.07       33.5566        0.0813       62.2326       62.3140      28.757405       0.51124
  29     18.79       33.5850        0.0999       62.0392       62.1391      28.554087       0.46099
  28     23.16       33.6137        0.1216       61.8322       61.9538      28.340055       0.41387
  27     28.12       33.6413        0.1463       61.6175       61.7638      28.122414       0.36998
  26     33.73       33.6648        0.1738       61.4074       61.5812      27.916407       0.30974
  25     40.54       33.6844        0.2071       61.1880       61.3951      27.710684       0.25522
  24     48.69       33.6997        0.2471       60.9578       61.2049      27.505160       0.21269
  23     57.69       33.7084        0.2910       60.7376       61.0286      27.320283       0.17329
  22     68.43       33.7099        0.3432       60.5101       60.8533      27.143470       0.13900
  21     81.20       33.6996        0.4054       60.2838       60.6893      26.989649       0.10164
  20     96.49       33.6762        0.4795       60.0544       60.5338      26.857614       0.07287
  19     114.6       33.6475        0.5678       59.7948       60.3627      26.715154       0.06652
  18     136.5       33.6088        0.6724       59.4998       60.1721      26.563363       0.05837
  17     162.9       33.5584        0.7965       59.1585       59.9549      26.396561       0.05332
  16     196.4       33.4839        0.9570       58.7398       59.6967      26.212831       0.04625
  15     218.7       33.4317        1.0621       58.4739       59.5360      26.104276       0.04121
  14     243.0       33.3735        1.1760       58.1895       59.3656      25.992088       0.03891
  13     269.0       33.3089        1.2993       57.8869       59.1862      25.877309       0.03723
  12     297.5       33.2378        1.4321       57.5652       58.9973      25.759541       0.03493
  11     328.5       33.1605        1.5753       57.2204       58.7957      25.635239       0.03380
  10     361.9       33.0771        1.7290       56.8509       58.5799      25.502829       0.03350
   9     398.1       32.9875        1.8939       56.4540       58.3480      25.360458       0.03317
   8     437.6       32.8921        2.0705       56.0256       58.0961      25.203972       0.03346
   7     480.5       32.7914        2.2590       55.5611       57.8201      25.028644       0.03443
   6     533.0       32.6710        2.4898       54.9774       57.4672      24.796192       0.03739
   5     589.8       32.5467        2.7372       54.3321       57.0692      24.522531       0.04062
   4     651.6       32.4209        3.0011       53.6203       56.6214      24.200500       0.04404
   3     718.7       32.2970        3.2818       52.8372       56.1190      23.822003       0.04757
   2     792.3       32.1807        3.5786       51.9784       55.5571      23.376360       0.05111
   1     891.5       32.0563        3.9728       50.7953       54.7680      22.711758       0.05655
   0    1013.0       31.9703        4.4352       49.3438       53.7789      21.808627       0.06271



 Wavenumbers: 16000. - 22650. cm-1, ATM      1
 LEVEL PRESSURE   UPWARD FLUX   DIFDOWN FLUX  DIRDOWN FLUX  DOWNWARD FLUX   NET FLUX    HEATING RATE
          mb          W/m2          W/m2          W/m2        W/m2          W/m2       degree/day
  51    .06700       75.7354        0.0000      100.7153      100.7153      24.979928       0.00000
  50    .07753       75.7352        0.0003      100.7147      100.7151      24.979811       0.09414
  49    .09103       75.7351        0.0007      100.7140      100.7147      24.979640       0.10678
  48    0.1069       75.7349        0.0012      100.7131      100.7143      24.979411       0.12176
  47    0.1255       75.7348        0.0017      100.7121      100.7139      24.979105       0.13879
  46    0.1487       75.7345        0.0024      100.7108      100.7132      24.978654       0.16446
  45    0.1794       75.7343        0.0034      100.7089      100.7122      24.977949       0.19364
  44    0.2165       75.7340        0.0045      100.7066      100.7110      24.976992       0.21763
  43    0.2613       75.7338        0.0058      100.7037      100.7095      24.975694       0.24467
  42    0.3336       75.7334        0.0079      100.6987      100.7066      24.973226       0.28772
  41    0.4307       75.7331        0.0108      100.6918      100.7026      24.969506       0.32342
  40    0.5894       75.7328        0.0155      100.6797      100.6952      24.962413       0.37724
  39     1.339       75.7372        0.0377      100.6095      100.6472      24.910013       0.58992
  38     1.782       75.7438        0.0507      100.5585      100.6092      24.865389       0.84957
  37     2.292       75.7552        0.0658      100.4903      100.5561      24.800816       1.06951
  36     2.964       75.7674        0.1032      100.3605      100.4637      24.696261       1.31248
  35     3.853       75.7999        0.1358      100.1945      100.3304      24.530491       1.57319
  34     5.035       75.8539        0.1736       99.9637      100.1373      24.283451       1.76475
  33     6.613       75.9315        0.2213       99.6508       99.8721      23.940671       1.83251
  32     8.786       76.0324        0.2842       99.2438       99.5280      23.495554       1.72867
  31     11.80       76.1614        0.3731       98.7047       99.0778      22.916360       1.62156
  30     15.07       76.2817        0.4679       98.1747       98.6426      22.360878       1.43415
  29     18.79       76.4011        0.5745       97.6199       98.1944      21.793293       1.28689
  28     23.16       76.5216        0.6984       97.0220       97.7204      21.198819       1.14952
  27     28.12       76.6372        0.8396       96.3955       97.2351      20.597952       1.02143
  26     33.73       76.7346        0.9970       95.7730       96.7700      20.035463       0.84572
  25     40.54       76.8153        1.1866       95.1101       96.2967      19.481406       0.68737
  24     48.69       76.8768        1.4142       94.3975       95.8116      18.934814       0.56564
  23     57.69       76.9099        1.6631       93.6973       95.3605      18.450547       0.45393
  22     68.43       76.9122        1.9584       92.9513       94.9098      17.997525       0.35614
  21     81.20       76.8642        2.3088       92.1794       94.4882      17.624070       0.24677
  20     96.49       76.7601        2.7245       91.3676       94.0921      17.331999       0.16120
  19     114.6       76.6133        3.2145       90.4635       93.6780      17.064715       0.12480
  18     136.5       76.4245        3.7905       89.4367       93.2273      16.802770       0.10072
  17     162.9       76.1868        4.4695       88.2588       92.7283      16.541522       0.08351
  16     196.4       75.8497        5.3398       86.8175       92.1574      16.307675       0.05886
  15     218.7       75.6185        5.9051       85.9064       91.8116      16.193069       0.04351
  14     243.0       75.3636        6.5140       84.9369       91.4509      16.087274       0.03669
  13     269.0       75.0836        7.1673       83.9086       91.0759      15.992295       0.03081
  12     297.5       74.7780        7.8658       82.8208       90.6867      15.908676       0.02480
  11     328.5       74.4478        8.6120       81.6643       90.2763      15.828524       0.02179
  10     361.9       74.0929        9.4055       80.4395       89.8450      15.752086       0.01934
   9     398.1       73.7123       10.2481       79.1432       89.3914      15.679057       0.01701
   8     437.6       73.3062       11.1403       77.7736       88.9139      15.607745       0.01525
   7     480.5       72.8739       12.0820       76.3301       88.4122      15.538231       0.01365
   6     533.0       72.3473       13.2211       74.5850       87.8061      15.458778       0.01278
   5     589.8       71.7874       14.4246       72.7395       87.1641      15.376738       0.01218
   4     651.6       71.1951       15.6906       70.7945       86.4851      15.290049       0.01185
   3     718.7       70.5711       17.0172       68.7504       85.7677      15.196593       0.01174
   2     792.3       69.9177       18.4001       66.6113       85.0114      15.093731       0.01180
   1     891.5       69.0613       20.2060       63.8008       84.0069      14.945608       0.01260
   0    1013.0       68.0733       22.2830       60.5393       82.8224      14.749042       0.01365



 Wavenumbers: 22650. - 29000. cm-1, ATM      1
 LEVEL PRESSURE   UPWARD FLUX   DIFDOWN FLUX  DIRDOWN FLUX  DOWNWARD FLUX   NET FLUX    HEATING RATE
          mb          W/m2          W/m2          W/m2        W/m2          W/m2       degree/day
  51    .06700       34.3503        0.0000       38.0063       38.0063       3.655982       0.00000
  50    .07753       34.3501        0.0004       38.0057       38.0061       3.655982       0.00000
  49    .09103       34.3499        0.0009       38.0050       38.0059       3.655982       0.00000
  48    0.1069       34.3497        0.0014       38.0042       38.0057       3.655982      -0.00000
  47    0.1255       34.3494        0.0021       38.0033       38.0054       3.655982       0.00000
  46    0.1487       34.3491        0.0029       38.0022       38.0050       3.655982       0.00000
  45    0.1794       34.3486        0.0040       38.0006       38.0046       3.655982      -0.00000
  44    0.2165       34.3480        0.0053       37.9987       38.0040       3.655982       0.00000
  43    0.2613       34.3474        0.0068       37.9965       38.0033       3.655982      -0.00000
  42    0.3336       34.3463        0.0094       37.9928       38.0022       3.655982       0.00000
  41    0.4307       34.3448        0.0128       37.9880       38.0008       3.655982       0.00000
  40    0.5894       34.3424        0.0183       37.9800       37.9984       3.655982      -0.00000
  39     1.339       34.3311        0.0446       37.9425       37.9870       3.655982       0.00000
  38     1.782       34.3244        0.0600       37.9204       37.9804       3.655982      -0.00000
  37     2.292       34.3167        0.0778       37.8949       37.9727       3.655982       0.00000
  36     2.964       34.2976        0.1219       37.8317       37.9536       3.655982      -0.00000
  35     3.853       34.2810        0.1605       37.7764       37.9369       3.655982       0.00000
  34     5.035       34.2617        0.2052       37.7125       37.9176       3.655982      -0.00000
  33     6.613       34.2372        0.2617       37.6315       37.8932       3.655982       0.00000
  32     8.786       34.2050        0.3361       37.5249       37.8610       3.655982      -0.00000
  31     11.80       34.1595        0.4415       37.3740       37.8155       3.655982       0.00000
  30     15.07       34.1108        0.5538       37.2130       37.7668       3.655982       0.00000
  29     18.79       34.0562        0.6801       37.0321       37.7122       3.655982       0.00000
  28     23.16       33.9926        0.8267       36.8219       37.6486       3.655982      -0.00000
  27     28.12       33.9203        0.9935       36.5828       37.5763       3.655982       0.00000
  26     33.73       33.8399        1.1789       36.3170       37.4959       3.655982       0.00000
  25     40.54       33.7434        1.4011       35.9983       37.3994       3.655982       0.00000
  24     48.69       33.6280        1.6666       35.6174       37.2840       3.655982      -0.00000
  23     57.69       33.5024        1.9550       35.2034       37.1584       3.655982       0.00000
  22     68.43       33.3545        2.2942       34.7163       37.0105       3.655982       0.00000
  21     81.20       33.1807        2.6923       34.1444       36.8366       3.655982      -0.00000
  20     96.49       32.9768        3.1580       33.4748       36.6328       3.655982       0.00000
  19     114.6       32.7394        3.6989       32.6965       36.3954       3.655982      -0.00000
  18     136.5       32.4644        4.3234       31.7970       36.1204       3.655982       0.00000
  17     162.9       32.1458        5.0440       30.7577       35.8018       3.655982       0.00000
  16     196.4       31.7464        5.9429       29.4595       35.4024       3.655982      -0.00000
  15     218.7       31.4924        6.5116       28.6368       35.1484       3.655982      -0.00000
  14     243.0       31.2235        7.1112       27.7682       34.8794       3.655982       0.00000
  13     269.0       30.9401        7.7399       26.8562       34.5961       3.655982      -0.00000
  12     297.5       30.6432        8.3953       25.9039       34.2992       3.655982      -0.00000
  11     328.5       30.3325        9.0769       24.9116       33.9885       3.655982       0.00000
  10     361.9       30.0094        9.7808       23.8846       33.6654       3.655982      -0.00000
   9     398.1       29.6744       10.5054       22.8250       33.3304       3.655982      -0.00000
   8     437.6       29.3288       11.2463       21.7385       32.9848       3.655982       0.00000
   7     480.5       28.9736       12.0005       20.6292       32.6296       3.655982       0.00000
   6     533.0       28.5572       12.8743       19.3389       32.2132       3.655982      -0.00000
   5     589.8       28.1322       13.7531       18.0351       31.7882       3.655982       0.00000
   4     651.6       27.7012       14.6297       16.7274       31.3571       3.655982       0.00000
   3     718.7       27.2660       15.4977       15.4243       30.9220       3.655982       0.00000
   2     792.3       26.8295       16.3489       14.1366       30.4855       3.655982      -0.00000
   1     891.5       26.2853       17.3785       12.5628       29.9413       3.655982      -0.00000
   0    1013.0       25.6925       18.4529       10.8956       29.3485       3.655982       0.00000



 Wavenumbers: 29000. - 38000. cm-1, ATM      1
 LEVEL PRESSURE   UPWARD FLUX   DIFDOWN FLUX  DIRDOWN FLUX  DOWNWARD FLUX   NET FLUX    HEATING RATE
          mb          W/m2          W/m2          W/m2        W/m2          W/m2       degree/day
  51    .06700        4.8811        0.0000       13.4026       13.4026       8.521464       0.00000
  50    .07753        4.8809        0.0003       13.3983       13.3986       8.517674       3.03828
  49    .09103        4.8806        0.0007       13.3921       13.3928       8.512166       3.44270
  48    0.1069        4.8803        0.0011       13.3841       13.3851       8.504802       3.91985
  47    0.1255        4.8800        0.0016       13.3734       13.3750       8.494972       4.45615
  46    0.1487        4.8796        0.0022       13.3579       13.3601       8.480555       5.25514
  45    0.1794        4.8790        0.0030       13.3342       13.3372       8.458188       6.14047
  44    0.2165        4.8783        0.0040       13.3025       13.3065       8.428187       6.82466
  43    0.2613        4.8776        0.0052       13.2605       13.2657       8.388138       7.54904
  42    0.3336        4.8763        0.0070       13.1834       13.1905       8.314138       8.62771
  41    0.4307        4.8748        0.0095       13.0730       13.0825       8.207668       9.25732
  40    0.5894        4.8724        0.0134       12.8795       12.8929       8.020492       9.95375
  39     1.339        4.8641        0.0297       11.9153       11.9450       7.080860      10.57855
  38     1.782        4.8610        0.0380       11.4377       11.4757       6.614694       8.87506
  37     2.292        4.8588        0.0468       10.9754       11.0222       6.163432       7.47407
  36     2.964        4.8495        0.0692       10.4523       10.5215       5.672060       6.16820
  35     3.853        4.8475        0.0862        9.9089        9.9951       5.147581       4.97740
  34     5.035        4.8498        0.1041        9.3643        9.4684       4.618580       3.77896
  33     6.613        4.8557        0.1255        8.8385        8.9640       4.108362       2.72763
  32     8.786        4.8641        0.1526        8.3434        8.4960       3.631950       1.85021
  31     11.80        4.8745        0.1897        7.8561        8.0459       3.171411       1.28936
  30     15.07        4.8835        0.2281        7.4785        7.7066       2.823075       0.89934
  29     18.79        4.8919        0.2699        7.1463        7.4162       2.524249       0.67753
  28     23.16        4.8997        0.3171        6.8356        7.1527       2.253049       0.52441
  27     28.12        4.9059        0.3693        6.5481        6.9174       2.011487       0.41064
  26     33.73        4.9082        0.4263        6.2904        6.7167       1.808518       0.30517
  25     40.54        4.9054        0.4936        6.0381        6.5317       1.626359       0.22599
  24     48.69        4.8970        0.5725        5.7854        6.3579       1.460906       0.17122
  23     57.69        4.8830        0.6567        5.5506        6.2073       1.324361       0.12799
  22     68.43        4.8611        0.7542        5.3112        6.0654       1.204268       0.09441
  21     81.20        4.8271        0.8674        5.0702        5.9377       1.110525       0.06194
  20     96.49        4.7797        0.9982        4.8220        5.8202       1.040533       0.03863
  19     114.6        4.7219        1.1464        4.5551        5.7015       0.979512       0.02849
  18     136.5        4.6550        1.3119        4.2653        5.5773       0.922295       0.02200
  17     162.9        4.5782        1.4961        3.9499        5.4459       0.867715       0.01745
  16     196.4        4.4809        1.7164        3.5857        5.3021       0.821186       0.01171
  15     218.7        4.4196        1.8501        3.3689        5.2189       0.799291       0.00831
  14     243.0        4.3558        1.9863        3.1491        5.1355       0.779641       0.00682
  13     269.0        4.2898        2.1241        2.9281        5.0523       0.762462       0.00557
  12     297.5        4.2219        2.2622        2.7074        4.9696       0.747711       0.00438
  11     328.5        4.1531        2.3992        2.4878        4.8870       0.733865       0.00376
  10     361.9        4.0839        2.5337        2.2711        4.8048       0.720963       0.00326
   9     398.1        4.0145        2.6646        2.0589        4.7235       0.708960       0.00280
   8     437.6        3.9455        2.7907        1.8524        4.6431       0.697618       0.00242
   7     480.5        3.8774        2.9106        1.6538        4.5644       0.687044       0.00208
   6     533.0        3.8007        3.0394        1.4370        4.4764       0.675732       0.00182
   5     589.8        3.7262        3.1570        1.2342        4.3912       0.664998       0.00159
   4     651.6        3.6543        3.2622        1.0469        4.3091       0.654733       0.00140
   3     718.7        3.5854        3.3540        0.8763        4.2303       0.644889       0.00124
   2     792.3        3.5195        3.4318        0.7231        4.1549       0.635454       0.00108
   1     891.5        3.4415        3.5088        0.5567        4.0655       0.624026       0.00097
   0    1013.0        3.3610        3.5675        0.4051        3.9727       0.611644       0.00086



 Wavenumbers: 38000. - 50000. cm-1, ATM      1
 LEVEL PRESSURE   UPWARD FLUX   DIFDOWN FLUX  DIRDOWN FLUX  DOWNWARD FLUX   NET FLUX    HEATING RATE
          mb          W/m2          W/m2          W/m2        W/m2          W/m2       degree/day
  51    .06700        0.0053        0.0000        0.8267        0.8267       0.821323       0.00000
  50    .07753        0.0053        0.0001        0.8242        0.8243       0.818990       1.86952
  49    .09103        0.0052        0.0002        0.8207        0.8209       0.815667       2.07728
  48    0.1069        0.0051        0.0002        0.8162        0.8164       0.811308       2.32015
  47    0.1255        0.0050        0.0004        0.8103        0.8106       0.805594       2.59043
  46    0.1487        0.0049        0.0005        0.8018        0.8023       0.797359       3.00192
  45    0.1794        0.0048        0.0007        0.7889        0.7896       0.784802       3.44699
  44    0.2165        0.0046        0.0009        0.7720        0.7729       0.768295       3.75510
  43    0.2613        0.0044        0.0011        0.7500        0.7511       0.746742       4.06270
  42    0.3336        0.0041        0.0015        0.7106        0.7121       0.708052       4.51087
  41    0.4307        0.0037        0.0019        0.6566        0.6584       0.654755       4.63403
  40    0.5894        0.0031        0.0024        0.5680        0.5704       0.567244       4.65376
  39     1.339        0.0017        0.0030        0.2422        0.2452       0.243471       3.64509
  38     1.782        0.0013        0.0026        0.1493        0.1519       0.150624       1.76766
  37     2.292        0.0010        0.0022        0.0924        0.0946       0.093605       0.94438
  36     2.964        0.0005        0.0020        0.0535        0.0555       0.054941       0.48535
  35     3.853        0.0003        0.0016        0.0291        0.0307       0.030353       0.23335
  34     5.035        0.0002        0.0011        0.0152        0.0163       0.016123       0.10165
  33     6.613        0.0001        0.0008        0.0072        0.0080       0.007905       0.04394
  32     8.786        0.0000        0.0005        0.0029        0.0034       0.003402       0.01749
  31     11.80        0.0000        0.0003        0.0009        0.0012       0.001212       0.00613
  30     15.07        0.0000        0.0002        0.0003        0.0005       0.000473       0.00191
  29     18.79        0.0000        0.0001        0.0001        0.0002       0.000188       0.00065
  28     23.16        0.0000        0.0000        0.0000        0.0001       0.000074       0.00022
  27     28.12        0.0000        0.0000        0.0000        0.0000       0.000029       0.00008
  26     33.73        0.0000        0.0000        0.0000        0.0000       0.000012       0.00003
  25     40.54        0.0000        0.0000        0.0000        0.0000       0.000005       0.00001
  24     48.69        0.0000        0.0000        0.0000        0.0000       0.000002       0.00000
  23     57.69        0.0000        0.0000        0.0000        0.0000       0.000001       0.00000
  22     68.43        0.0000        0.0000        0.0000        0.0000       0.000000       0.00000
  21     81.20        0.0000        0.0000        0.0000        0.0000       0.000000       0.00000
  20     96.49        0.0000        0.0000        0.0000        0.0000       0.000000       0.00000
  19     114.6        0.0000        0.0000        0.0000        0.0000       0.000000       0.00000
  18     136.5        0.0000        0.0000        0.0000        0.0000       0.000000       0.00000
  17     162.9        0.0000        0.0000        0.0000        0.0000       0.000000       0.00000
  16     196.4        0.0000        0.0000        0.0000        0.0000       0.000000       0.00000
  15     218.7        0.0000        0.0000        0.0000        0.0000       0.000000       0.00000
  14     243.0        0.0000        0.0000        0.0000        0.0000       0.000000       0.00000
  13     269.0        0.0000        0.0000        0.0000        0.0000       0.000000       0.00000
  12     297.5        0.0000        0.0000        0.0000        0.0000       0.000000       0.00000
  11     328.5        0.0000        0.0000        0.0000        0.0000       0.000000       0.00000
  10     361.9        0.0000        0.0000        0.0000        0.0000       0.000000       0.00000
   9     398.1        0.0000        0.0000        0.0000        0.0000       0.000000       0.00000
   8     437.6        0.0000        0.0000        0.0000        0.0000       0.000000       0.00000
   7     480.5        0.0000        0.0000        0.0000        0.0000       0.000000       0.00000
   6     533.0        0.0000        0.0000        0.0000        0.0000       0.000000       0.00000
   5     589.8        0.0000        0.0000        0.0000        0.0000       0.000000       0.00000
   4     651.6        0.0000        0.0000        0.0000        0.0000       0.000000       0.00000
   3     718.7        0.0000        0.0000        0.0000        0.0000       0.000000       0.00000
   2     792.3        0.0000        0.0000        0.0000        0.0000       0.000000       0.00000
   1     891.5        0.0000        0.0000        0.0000        0.0000       0.000000       0.00000
   0    1013.0        0.0000        0.0000        0.0000        0.0000       0.000000       0.00000



 Wavenumbers:   820. -  2600. cm-1, ATM      1
 LEVEL PRESSURE   UPWARD FLUX   DIFDOWN FLUX  DIRDOWN FLUX  DOWNWARD FLUX   NET FLUX    HEATING RATE
          mb          W/m2          W/m2          W/m2        W/m2          W/m2       degree/day
  51    .06700        0.1094        0.0000        3.8670        3.8670       3.757592       0.00000
  50    .07753        0.1094        0.0000        3.8644        3.8644       3.754994       2.08287
  49    .09103        0.1094        0.0000        3.8638        3.8638       3.754324       0.41878
  48    0.1069        0.1094        0.0000        3.8630        3.8630       3.753574       0.39874
  47    0.1255        0.1094        0.0000        3.8622        3.8622       3.752761       0.36879
  46    0.1487        0.1094        0.0000        3.8613        3.8613       3.751834       0.33798
  45    0.1794        0.1094        0.0000        3.8602        3.8602       3.750725       0.30446
  44    0.2165        0.1094        0.0000        3.8590        3.8590       3.749590       0.25804
  43    0.2613        0.1094        0.0000        3.8579        3.8579       3.748431       0.21851
  42    0.3336        0.1094        0.0000        3.8562        3.8562       3.746746       0.19646
  41    0.4307        0.1094        0.0000        3.8540        3.8540       3.744581       0.18827
  40    0.5894        0.1094        0.0000        3.8505        3.8505       3.741093       0.18550
  39     1.339        0.1094        0.0000        3.8352        3.8352       3.725743       0.17281
  38     1.782        0.1094        0.0000        3.8267        3.8267       3.717264       0.16143
  37     2.292        0.1094        0.0000        3.8172        3.8172       3.707745       0.15766
  36     2.964        0.1188        0.0000        0.8812        0.8812       0.762456      36.97227
  35     3.853        0.1227        0.0000        0.8116        0.8116       0.688943       0.69765
  34     5.035        0.1246        0.0000        0.7846        0.7846       0.659945       0.20715
  33     6.613        0.1257        0.0000        0.7717        0.7717       0.645963       0.07475
  32     8.786        0.1263        0.0000        0.7649        0.7649       0.638568       0.02872
  31     11.80        0.1267        0.0000        0.7607        0.7607       0.634030       0.01271
  30     15.07        0.1269        0.0000        0.7585        0.7585       0.631590       0.00630
  29     18.79        0.1270        0.0000        0.7571        0.7571       0.630031       0.00353
  28     23.16        0.1271        0.0000        0.7560        0.7560       0.628862       0.00226
  27     28.12        0.1272        0.0000        0.7552        0.7552       0.627996       0.00147
  26     33.73        0.1273        0.0000        0.7546        0.7546       0.627346       0.00098
  25     40.54        0.1273        0.0000        0.7541        0.7541       0.626796       0.00068
  24     48.69        0.1273        0.0000        0.7536        0.7536       0.626268       0.00055
  23     57.69        0.1274        0.0000        0.7532        0.7532       0.625782       0.00046
  22     68.43        0.1274        0.0000        0.7527        0.7527       0.625291       0.00039
  21     81.20        0.1275        0.0000        0.7523        0.7523       0.624796       0.00033
  20     96.49        0.1275        0.0000        0.7518        0.7518       0.624295       0.00028
  19     114.6        0.1276        0.0000        0.7514        0.7514       0.623820       0.00022
  18     136.5        0.1276        0.0000        0.7509        0.7509       0.623322       0.00019
  17     162.9        0.1276        0.0000        0.7505        0.7505       0.622860       0.00015
  16     196.4        0.1277        0.0000        0.7501        0.7502       0.622480       0.00010
  15     218.7        0.1277        0.0000        0.7500        0.7500       0.622352       0.00005
  14     243.0        0.1277        0.0000        0.7499        0.7499       0.622255       0.00003
  13     269.0        0.1277        0.0000        0.7499        0.7499       0.622173       0.00003
  12     297.5        0.1277        0.0000        0.7498        0.7498       0.622077       0.00003
  11     328.5        0.1277        0.0000        0.7497        0.7497       0.621943       0.00004
  10     361.9        0.1277        0.0000        0.7495        0.7495       0.621737       0.00005
   9     398.1        0.1278        0.0000        0.7492        0.7492       0.621421       0.00007
   8     437.6        0.1278        0.0000        0.7487        0.7487       0.620940       0.00010
   7     480.5        0.1279        0.0000        0.7481        0.7481       0.620231       0.00014
   6     533.0        0.1280        0.0000        0.7469        0.7470       0.618980       0.00020
   5     589.8        0.1281        0.0000        0.7453        0.7453       0.617132       0.00027
   4     651.6        0.1284        0.0000        0.7423        0.7424       0.613911       0.00044
   3     718.7        0.1289        0.0000        0.7374        0.7375       0.608532       0.00068
   2     792.3        0.1297        0.0000        0.7297        0.7298       0.600027       0.00098
   1     891.5        0.1313        0.0000        0.7147        0.7147       0.583371       0.00142
   0    1013.0        0.1341        0.0000        0.6895        0.6895       0.555380       0.00194

  Modules and versions used in this calculation:

       rrtmg_sw.1col.f90:  $Revision$                    rrtmg_sw_init.f90:  $Revision$        
     rrtmgsw_cldprop.f90:  $Revision$                  rrtmgsw_cldprmc.f90:  NOT USED          
     rrtmg_sw_reftra.f90:  $Revision$                  rrtmg_sw_spcvrt.f90:  NOT USED          
     rrtmg_sw_spcvmc.f90:  NOT USED                    rrtmgsw_setcoef.f90:  NOT USED          
     rrtmg_sw_taumol.f90:  $Revision$                  rrtmg_sw_vrtqdr.f90:  NOT USED          
                rrtatm.f:  NOT USED                             util_xxx.f:  NOT USED          
                 extra.f:  NOT USED                       rrtmg_sw_k_g.f90:  $Revision$        

