

 Wavenumbers:   820. - 50000. cm-1, ATM      1
 LEVEL PRESSURE   UPWARD FLUX   DIFDOWN FLUX  DIRDOWN FLUX  DOWNWARD FLUX   NET FLUX    HEATING RATE
          mb          W/m2          W/m2          W/m2        W/m2          W/m2       degree/day
  51    .06700      844.2791        0.0000     1340.1748     1340.1748     495.895691       0.00000
  50    .07753      844.2794        0.0019     1340.1530     1340.1549     495.875507      16.17771
  49    .09103      844.2797        0.0042     1340.1336     1340.1377     495.858020      10.93012
  48    0.1069      844.2802        0.0069     1340.1118     1340.1187     495.838465      10.40910
  47    0.1255      844.2809        0.0099     1340.0859     1340.0958     495.814929      10.67021
  46    0.1487      844.2818        0.0138     1340.0508     1340.0646     495.782788      11.71568
  45    0.1794      844.2833        0.0191     1339.9994     1340.0185     495.735214      13.06026
  44    0.2165      844.2853        0.0253     1339.9334     1339.9588     495.673473      14.04488
  43    0.2613      844.2880        0.0327     1339.8481     1339.8808     495.592836      15.19974
  42    0.3336      844.2931        0.0449     1339.6936     1339.7386     495.445475      17.18093
  41    0.4307      844.3008        0.0610     1339.4722     1339.5333     495.232498      18.51779
  40    0.5894      844.3154        0.0872     1339.0754     1339.1626     494.847196      20.48992
  39     1.339      844.4225        0.2075     1336.7083     1336.9158     492.493249      26.50116
  38     1.782      844.5125        0.2759     1335.1825     1335.4584     490.945849      29.46000
  37     2.292      844.6415        0.3539     1333.4810     1333.8349     489.193309      29.02664
  36     2.964      844.8489        0.4555     1331.5040     1331.9595     487.110601      26.14428
  35     3.853      845.1761        0.5890     1329.3834     1329.9724     484.796261      21.96351
  34     5.035      845.6633        0.7658     1327.2141     1327.9799     482.316515      17.71428
  33     6.613      846.3421        1.0013     1324.9913     1325.9926     479.650521      14.25241
  32     8.786      847.2316        1.3180     1322.6921     1324.0101     476.778506      11.15387
  31     11.80      848.4068        1.7702     1320.1561     1321.9263     473.519536       9.12409
  30     15.07      849.5556        2.2549     1317.9530     1320.2078     470.652215       7.40286
  29     18.79      850.7528        2.8013     1315.8221     1318.6235     467.870629       6.30671
  28     23.16      852.0355        3.4388     1313.6539     1317.0928     465.057247       5.44017
  27     28.12      853.3663        4.1672     1311.4736     1315.6408     462.274464       4.73054
  26     33.73      854.6539        4.9826     1309.3560     1314.3386     459.684710       3.89376
  25     40.54      855.9719        5.9683     1307.1183     1313.0866     457.114754       3.18832
  24     48.69      857.3296        7.1568     1304.7171     1311.8739     454.544275       2.66004
  23     57.69      858.5941        8.4625     1302.3394     1310.8019     452.207851       2.19005
  22     68.43      859.8504       10.0178     1299.7648     1309.7826     449.932235       1.78894
  21     81.20      860.9937       11.8731     1297.0115     1308.8845     447.890846       1.34892
  20     96.49      862.0220       14.0849     1294.0106     1308.0954     446.073474       1.00306
  19     114.6      863.0945       16.7062     1290.5867     1307.2929     444.198425       0.87552
  18     136.5      864.2452       19.8003     1286.6496     1306.4499     442.204696       0.76664
  17     162.9      865.5051       23.4666     1282.0191     1305.4858     439.980670       0.71089
  16     196.4      866.8919       28.1982     1275.9576     1304.1557     437.263866       0.68385
  15     218.7      867.7113       31.2887     1271.4824     1302.7710     435.059674       0.83685
  14     243.0      868.5619       34.6318     1265.8861     1300.5178     431.955972       1.07647
  13     269.0      869.4437       38.2361     1258.7999     1297.0360     427.592269       1.41557
  12     297.5      870.3641       42.1097     1249.9386     1292.0482     421.684186       1.75227
  11     328.5      871.3504       46.2693     1240.0725     1286.3419     414.991524       1.81972
  10     361.9      872.4109       50.7183     1229.4079     1280.1261     407.715198       1.84098
   9     398.1      873.5624       55.4726     1217.7013     1273.1738     399.611426       1.88800
   8     437.6      874.8330       60.5392     1204.5502     1265.0894     390.256356       2.00017
   7     480.5      876.2485       65.9267     1189.9975     1255.9242     379.675703       2.07800
   6     533.0      878.1085       72.4980     1171.6763     1244.1742     366.065765       2.18941
   5     589.8      880.3534       79.5087     1151.3349     1230.8437     350.490302       2.31191
   4     651.6      883.2914       86.9615     1127.8552     1214.8168     331.525356       2.59351
   3     718.7      887.2849       94.8597     1101.9726     1196.8323     309.547441       2.76201
   2     792.3      893.1952      103.1942     1073.5270     1176.7212     283.525988       2.98437
   1     891.5      905.7592      114.2375     1035.1788     1149.4163     243.657079       3.39265
   0    1013.0      935.4199      127.1956      990.7218     1117.9174     182.497486       4.24662



 Wavenumbers:  2600. -  3250. cm-1, ATM      1
 LEVEL PRESSURE   UPWARD FLUX   DIFDOWN FLUX  DIRDOWN FLUX  DOWNWARD FLUX   NET FLUX    HEATING RATE
          mb          W/m2          W/m2          W/m2        W/m2          W/m2       degree/day
  51    .06700        2.5744        0.0000       11.8115       11.8115       9.237084       0.00000
  50    .07753        2.5744        0.0000       11.8115       11.8115       9.237076       0.00640
  49    .09103        2.5744        0.0000       11.8115       11.8115       9.237066       0.00627
  48    0.1069        2.5744        0.0000       11.8115       11.8115       9.237055       0.00613
  47    0.1255        2.5744        0.0000       11.8115       11.8115       9.237042       0.00600
  46    0.1487        2.5744        0.0000       11.8114       11.8114       9.237025       0.00608
  45    0.1794        2.5744        0.0000       11.8114       11.8114       9.237002       0.00625
  44    0.2165        2.5744        0.0000       11.8114       11.8114       9.236975       0.00613
  43    0.2613        2.5744        0.0000       11.8114       11.8114       9.236943       0.00601
  42    0.3336        2.5744        0.0000       11.8113       11.8113       9.236890       0.00618
  41    0.4307        2.5744        0.0000       11.8112       11.8112       9.236819       0.00622
  40    0.5894        2.5744        0.0000       11.8111       11.8111       9.236698       0.00640
  39     1.339        2.5744        0.0000       11.8104       11.8104       9.235982       0.00806
  38     1.782        2.5744        0.0000       11.8098       11.8098       9.235427       0.01057
  37     2.292        2.5744        0.0000       11.8091       11.8091       9.234687       0.01225
  36     2.964        2.5744        0.0000       11.8080       11.8080       9.233598       0.01367
  35     3.853        2.5744        0.0000       11.8064       11.8064       9.232015       0.01503
  34     5.035        2.5744        0.0000       11.8042       11.8042       9.229744       0.01622
  33     6.613        2.5744        0.0000       11.8010       11.8010       9.226534       0.01716
  32     8.786        2.5744        0.0000       11.7965       11.7965       9.222053       0.01740
  31     11.80        2.5744        0.0000       11.7900       11.7900       9.215611       0.01804
  30     15.07        2.5744        0.0000       11.7833       11.7833       9.208841       0.01748
  29     18.79        2.5744        0.0000       11.7760       11.7760       9.201605       0.01641
  28     23.16        2.5744        0.0000       11.7682       11.7682       9.193746       0.01520
  27     28.12        2.5744        0.0000       11.7599       11.7599       9.185489       0.01404
  26     33.73        2.5745        0.0000       11.7510       11.7511       9.176613       0.01334
  25     40.54        2.5745        0.0000       11.7405       11.7405       9.166013       0.01315
  24     48.69        2.5745        0.0000       11.7277       11.7278       9.153268       0.01319
  23     57.69        2.5745        0.0000       11.7134       11.7135       9.138937       0.01343
  22     68.43        2.5746        0.0000       11.6956       11.6956       9.121058       0.01406
  21     81.20        2.5747        0.0000       11.6730       11.6731       9.098382       0.01498
  20     96.49        2.5748        0.0000       11.6443       11.6444       9.069605       0.01588
  19     114.6        2.5749        0.0001       11.6074       11.6075       9.032552       0.01730
  18     136.5        2.5752        0.0001       11.5620       11.5620       8.986847       0.01757
  17     162.9        2.5755        0.0001       11.5062       11.5063       8.930799       0.01792
  16     196.4        2.5761        0.0001       11.4326       11.4327       8.856628       0.01867
  15     218.7        2.5767        0.0001       11.3805       11.3806       8.803956       0.02000
  14     243.0        2.5777        0.0001       11.3162       11.3163       8.738676       0.02264
  13     269.0        2.5792        0.0001       11.2343       11.2345       8.655274       0.02706
  12     297.5        2.5815        0.0001       11.1325       11.1327       8.551174       0.03088
  11     328.5        2.5847        0.0002       11.0171       11.0172       8.432512       0.03226
  10     361.9        2.5890        0.0002       10.8885       10.8887       8.299630       0.03362
   9     398.1        2.5950        0.0002       10.7418       10.7420       8.146994       0.03556
   8     437.6        2.6031        0.0002       10.5669       10.5671       7.963981       0.03913
   7     480.5        2.6141        0.0002       10.3526       10.3528       7.738680       0.04425
   6     533.0        2.6319        0.0002       10.0456       10.0458       7.413970       0.05224
   5     589.8        2.6583        0.0002        9.6489        9.6491       6.990852       0.06280
   4     651.6        2.7006        0.0002        9.1379        9.1381       6.437556       0.07566
   3     718.7        2.7672        0.0003        8.5523        8.5526       5.785342       0.08197
   2     792.3        2.8793        0.0003        7.9060        7.9063       5.026913       0.08698
   1     891.5        3.1492        0.0003        7.0277        7.0279       3.878710       0.09771
   0    1013.0        3.9137        0.0003        5.9894        5.9896       2.075974       0.12517



 Wavenumbers:  3250. -  4000. cm-1, ATM      1
 LEVEL PRESSURE   UPWARD FLUX   DIFDOWN FLUX  DIRDOWN FLUX  DOWNWARD FLUX   NET FLUX    HEATING RATE
          mb          W/m2          W/m2          W/m2        W/m2          W/m2       degree/day
  51    .06700        0.0026        0.0000       19.9125       19.9125      19.909848       0.00000
  50    .07753        0.0026        0.0000       19.9068       19.9068      19.904190       4.53473
  49    .09103        0.0026        0.0000       19.9016       19.9016      19.898991       3.24924
  48    0.1069        0.0026        0.0000       19.8972       19.8972      19.894608       2.33328
  47    0.1255        0.0026        0.0000       19.8934       19.8934      19.890766       1.74195
  46    0.1487        0.0026        0.0000       19.8895       19.8895      19.886887       1.41380
  45    0.1794        0.0026        0.0000       19.8851       19.8851      19.882484       1.20870
  44    0.2165        0.0026        0.0000       19.8806       19.8806      19.877955       1.03032
  43    0.2613        0.0026        0.0000       19.8758       19.8758      19.873156       0.90447
  42    0.3336        0.0026        0.0000       19.8688       19.8688      19.866198       0.81131
  41    0.4307        0.0026        0.0000       19.8610       19.8610      19.858384       0.67935
  40    0.5894        0.0026        0.0000       19.8504       19.8504      19.847787       0.56353
  39     1.339        0.0026        0.0000       19.8131       19.8131      19.810511       0.41967
  38     1.782        0.0026        0.0000       19.7954       19.7954      19.792807       0.33706
  37     2.292        0.0026        0.0000       19.7775       19.7775      19.774906       0.29649
  36     2.964        0.0026        0.0000       19.7569       19.7570      19.754331       0.25827
  35     3.853        0.0026        0.0000       19.7330       19.7330      19.730365       0.22744
  34     5.035        0.0026        0.0000       19.7044       19.7044      19.701808       0.20400
  33     6.613        0.0026        0.0000       19.6692       19.6692      19.666563       0.18842
  32     8.786        0.0026        0.0000       19.6231       19.6231      19.620497       0.17890
  31     11.80        0.0026        0.0000       19.5564       19.5564      19.553826       0.18666
  30     15.07        0.0026        0.0000       19.4822       19.4822      19.479588       0.19167
  29     18.79        0.0026        0.0000       19.3948       19.3948      19.392213       0.19811
  28     23.16        0.0026        0.0000       19.2895       19.2895      19.286936       0.20357
  27     28.12        0.0026        0.0000       19.1670       19.1670      19.164448       0.20822
  26     33.73        0.0026        0.0000       19.0307       19.0307      19.028170       0.20490
  25     40.54        0.0026        0.0001       18.8705       18.8706      18.868031       0.19867
  24     48.69        0.0026        0.0001       18.6895       18.6896      18.687001       0.18734
  23     57.69        0.0025        0.0001       18.5075       18.5075      18.504986       0.17061
  22     68.43        0.0025        0.0001       18.3116       18.3117      18.309171       0.15394
  21     81.20        0.0025        0.0001       18.0999       18.1000      18.097474       0.13989
  20     96.49        0.0025        0.0001       17.8650       17.8651      17.862603       0.12963
  19     114.6        0.0025        0.0001       17.5863       17.5865      17.584009       0.13008
  18     136.5        0.0025        0.0002       17.2635       17.2637      17.261215       0.12412
  17     162.9        0.0024        0.0002       16.8693       16.8695      16.867061       0.12599
  16     196.4        0.0024        0.0002       16.2930       16.2932      16.290823       0.14505
  15     218.7        0.0024        0.0002       15.7567       15.7570      15.754604       0.20358
  14     243.0        0.0023        0.0003       15.0067       15.0070      15.004628       0.26012
  13     269.0        0.0023        0.0003       14.0036       14.0039      14.001560       0.32539
  12     297.5        0.0023        0.0003       12.8046       12.8048      12.802507       0.35563
  11     328.5        0.0023        0.0003       11.6142       11.6145      11.612170       0.32365
  10     361.9        0.0023        0.0002       10.4576       10.4578      10.455527       0.29264
   9     398.1        0.0023        0.0002        9.2997        9.2999       9.297624       0.26977
   8     437.6        0.0023        0.0002        8.1569        8.1571       8.154831       0.24434
   7     480.5        0.0023        0.0002        7.1093        7.1096       7.107210       0.20575
   6     533.0        0.0024        0.0002        6.0043        6.0044       6.002008       0.17779
   5     589.8        0.0026        0.0002        4.9513        4.9514       4.948812       0.15633
   4     651.6        0.0031        0.0001        3.8841        3.8843       3.881206       0.14600
   3     718.7        0.0040        0.0001        2.8657        2.8658       2.861755       0.12812
   2     792.3        0.0065        0.0001        1.9068        1.9069       1.900368       0.11026
   1     891.5        0.0201        0.0000        0.9584        0.9584       0.938318       0.08187
   0    1013.0        0.1936        0.0000        0.2963        0.2963       0.102684       0.05802



 Wavenumbers:  4000. -  4650. cm-1, ATM      1
 LEVEL PRESSURE   UPWARD FLUX   DIFDOWN FLUX  DIRDOWN FLUX  DOWNWARD FLUX   NET FLUX    HEATING RATE
          mb          W/m2          W/m2          W/m2        W/m2          W/m2       degree/day
  51    .06700        9.4551        0.0000       23.3833       23.3833      13.928119       0.00000
  50    .07753        9.4551        0.0000       23.3833       23.3833      13.928118       0.00080
  49    .09103        9.4551        0.0000       23.3833       23.3833      13.928117       0.00078
  48    0.1069        9.4551        0.0000       23.3833       23.3833      13.928115       0.00076
  47    0.1255        9.4551        0.0000       23.3833       23.3833      13.928114       0.00075
  46    0.1487        9.4551        0.0000       23.3833       23.3833      13.928112       0.00076
  45    0.1794        9.4551        0.0000       23.3832       23.3832      13.928109       0.00078
  44    0.2165        9.4551        0.0000       23.3832       23.3832      13.928105       0.00076
  43    0.2613        9.4551        0.0000       23.3832       23.3832      13.928101       0.00075
  42    0.3336        9.4551        0.0000       23.3832       23.3832      13.928095       0.00077
  41    0.4307        9.4551        0.0000       23.3832       23.3832      13.928086       0.00077
  40    0.5894        9.4551        0.0000       23.3832       23.3832      13.928071       0.00080
  39     1.339        9.4551        0.0000       23.3831       23.3831      13.927982       0.00101
  38     1.782        9.4551        0.0000       23.3830       23.3830      13.927912       0.00133
  37     2.292        9.4551        0.0000       23.3829       23.3830      13.927818       0.00156
  36     2.964        9.4551        0.0000       23.3828       23.3828      13.927677       0.00176
  35     3.853        9.4551        0.0000       23.3826       23.3826      13.927469       0.00198
  34     5.035        9.4551        0.0000       23.3823       23.3823      13.927161       0.00220
  33     6.613        9.4551        0.0000       23.3818       23.3818      13.926707       0.00242
  32     8.786        9.4551        0.0000       23.3811       23.3812      13.926037       0.00260
  31     11.80        9.4551        0.0001       23.3800       23.3801      13.924981       0.00296
  30     15.07        9.4551        0.0001       23.3788       23.3789      13.923738       0.00321
  29     18.79        9.4551        0.0001       23.3773       23.3774      13.922229       0.00342
  28     23.16        9.4551        0.0001       23.3754       23.3755      13.920348       0.00364
  27     28.12        9.4552        0.0002       23.3731       23.3732      13.918061       0.00389
  26     33.73        9.4552        0.0002       23.3702       23.3704      13.915225       0.00426
  25     40.54        9.4552        0.0002       23.3663       23.3666      13.911355       0.00480
  24     48.69        9.4553        0.0003       23.3612       23.3614      13.906157       0.00538
  23     57.69        9.4554        0.0003       23.3550       23.3553      13.899943       0.00582
  22     68.43        9.4555        0.0004       23.3472       23.3476      13.892089       0.00617
  21     81.20        9.4557        0.0005       23.3376       23.3381      13.882318       0.00646
  20     96.49        9.4560        0.0005       23.3258       23.3264      13.870311       0.00663
  19     114.6        9.4565        0.0006       23.3110       23.3117      13.855138       0.00708
  18     136.5        9.4572        0.0008       23.2931       23.2938      13.836661       0.00711
  17     162.9        9.4582        0.0009       23.2710       23.2720      13.813769       0.00732
  16     196.4        9.4599        0.0011       23.2406       23.2417      13.781773       0.00805
  15     218.7        9.4615        0.0012       23.2171       23.2183      13.756825       0.00947
  14     243.0        9.4639        0.0014       23.1851       23.1865      13.722568       0.01188
  13     269.0        9.4675        0.0015       23.1392       23.1407      13.673194       0.01602
  12     297.5        9.4728        0.0017       23.0751       23.0768      13.603990       0.02053
  11     328.5        9.4800        0.0018       22.9959       22.9978      13.517725       0.02346
  10     361.9        9.4896        0.0020       22.8980       22.9000      13.410451       0.02714
   9     398.1        9.5014        0.0022       22.7711       22.7733      13.271843       0.03229
   8     437.6        9.5163        0.0024       22.6006       22.6030      13.086706       0.03958
   7     480.5        9.5349        0.0026       22.3801       22.3827      12.847748       0.04693
   6     533.0        9.5629        0.0028       22.0646       22.0674      12.504557       0.05521
   5     589.8        9.6020        0.0031       21.6831       21.6862      12.084204       0.06239
   4     651.6        9.6621        0.0034       21.2207       21.2241      11.562035       0.07141
   3     718.7        9.7565        0.0036       20.6764       20.6800      10.923454       0.08025
   2     792.3        9.9150        0.0039       19.9629       19.9668      10.051749       0.09997
   1     891.5       10.2925        0.0041       18.7836       18.7878       8.495223       0.13245
   0    1013.0       11.3272        0.0044       17.3304       17.3348       6.007625       0.17273



 Wavenumbers:  4650. -  5150. cm-1, ATM      1
 LEVEL PRESSURE   UPWARD FLUX   DIFDOWN FLUX  DIRDOWN FLUX  DOWNWARD FLUX   NET FLUX    HEATING RATE
          mb          W/m2          W/m2          W/m2        W/m2          W/m2       degree/day
  51    .06700        6.8673        0.0000       22.1334       22.1334      15.266027       0.00000
  50    .07753        6.8673        0.0000       22.1331       22.1331      15.265791       0.18925
  49    .09103        6.8673        0.0000       22.1328       22.1328      15.265495       0.18503
  48    0.1069        6.8673        0.0000       22.1325       22.1325      15.265155       0.18063
  47    0.1255        6.8673        0.0000       22.1321       22.1321      15.264767       0.17620
  46    0.1487        6.8673        0.0000       22.1316       22.1316      15.264278       0.17810
  45    0.1794        6.8673        0.0000       22.1309       22.1309      15.263614       0.18236
  44    0.2165        6.8673        0.0000       22.1302       22.1302      15.262832       0.17779
  43    0.2613        6.8673        0.0000       22.1292       22.1292      15.261914       0.17320
  42    0.3336        6.8673        0.0000       22.1277       22.1277      15.260409       0.17542
  41    0.4307        6.8673        0.0000       22.1258       22.1258      15.258443       0.17097
  40    0.5894        6.8673        0.0000       22.1226       22.1226      15.255300       0.16712
  39     1.339        6.8673        0.0000       22.1088       22.1088      15.241517       0.15517
  38     1.782        6.8673        0.0000       22.1015       22.1015      15.234182       0.13965
  37     2.292        6.8673        0.0000       22.0936       22.0936      15.226328       0.13008
  36     2.964        6.8673        0.0000       22.0843       22.0843      15.216955       0.11766
  35     3.853        6.8673        0.0000       22.0733       22.0733      15.206011       0.10386
  34     5.035        6.8673        0.0000       22.0609       22.0609      15.193571       0.08887
  33     6.613        6.8673        0.0001       22.0471       22.0472      15.179867       0.07326
  32     8.786        6.8673        0.0001       22.0324       22.0324      15.165106       0.05733
  31     11.80        6.8674        0.0001       22.0158       22.0159      15.148521       0.04643
  30     15.07        6.8674        0.0001       22.0010       22.0012      15.133752       0.03813
  29     18.79        6.8675        0.0001       21.9858       21.9859      15.118477       0.03463
  28     23.16        6.8675        0.0002       21.9682       21.9683      15.100800       0.03418
  27     28.12        6.8676        0.0002       21.9471       21.9473      15.079656       0.03594
  26     33.73        6.8678        0.0003       21.9218       21.9221      15.054269       0.03817
  25     40.54        6.8680        0.0003       21.8887       21.8890      15.020995       0.04128
  24     48.69        6.8683        0.0004       21.8454       21.8458      14.977513       0.04500
  23     57.69        6.8687        0.0005       21.7944       21.7949      14.926172       0.04812
  22     68.43        6.8693        0.0005       21.7300       21.7305      14.861241       0.05104
  21     81.20        6.8700        0.0006       21.6494       21.6500      14.779995       0.05369
  20     96.49        6.8711        0.0008       21.5509       21.5517      14.680557       0.05488
  19     114.6        6.8726        0.0009       21.4327       21.4336      14.561052       0.05580
  18     136.5        6.8746        0.0011       21.2948       21.2958      14.421244       0.05376
  17     162.9        6.8774        0.0012       21.1367       21.1379      14.260489       0.05138
  16     196.4        6.8817        0.0015       20.9445       20.9460      14.064219       0.04940
  15     218.7        6.8852        0.0017       20.8254       20.8270      13.941852       0.04646
  14     243.0        6.8896        0.0018       20.6998       20.7016      13.811984       0.04504
  13     269.0        6.8956        0.0020       20.5648       20.5668      13.671206       0.04567
  12     297.5        6.9041        0.0022       20.4151       20.4173      13.513208       0.04686
  11     328.5        6.9151        0.0024       20.2500       20.2524      13.337314       0.04783
  10     361.9        6.9293        0.0027       20.0657       20.0684      13.139094       0.05015
   9     398.1        6.9478        0.0029       19.8558       19.8587      12.910913       0.05316
   8     437.6        6.9717        0.0031       19.6126       19.6157      12.644028       0.05706
   7     480.5        7.0027        0.0034       19.3282       19.3316      12.328870       0.06190
   6     533.0        7.0498        0.0037       18.9427       18.9464      11.896559       0.06955
   5     589.8        7.1149        0.0040       18.4743       18.4783      11.363427       0.07913
   4     651.6        7.2104        0.0043       17.8878       17.8921      10.681733       0.09322
   3     718.7        7.3523        0.0046       17.1787       17.1832       9.830910       0.10692
   2     792.3        7.5715        0.0048       16.3506       16.3554       8.783953       0.12007
   1     891.5        8.0439        0.0051       15.2012       15.2064       7.162492       0.13798
   0    1013.0        9.1017        0.0054       13.9232       13.9286       4.826900       0.16217



 Wavenumbers:  5150. -  6150. cm-1, ATM      1
 LEVEL PRESSURE   UPWARD FLUX   DIFDOWN FLUX  DIRDOWN FLUX  DOWNWARD FLUX   NET FLUX    HEATING RATE
          mb          W/m2          W/m2          W/m2        W/m2          W/m2       degree/day
  51    .06700       16.4516        0.0000       55.4884       55.4884      39.036770       0.00000
  50    .07753       16.4516        0.0000       55.4884       55.4884      39.036730       0.03164
  49    .09103       16.4516        0.0000       55.4883       55.4883      39.036679       0.03212
  48    0.1069       16.4516        0.0000       55.4882       55.4882      39.036617       0.03264
  47    0.1255       16.4516        0.0000       55.4882       55.4882      39.036544       0.03314
  46    0.1487       16.4516        0.0000       55.4881       55.4881      39.036448       0.03492
  45    0.1794       16.4516        0.0000       55.4879       55.4879      39.036313       0.03717
  44    0.2165       16.4516        0.0000       55.4878       55.4878      39.036147       0.03775
  43    0.2613       16.4516        0.0000       55.4876       55.4876      39.035944       0.03834
  42    0.3336       16.4516        0.0000       55.4872       55.4872      39.035596       0.04053
  41    0.4307       16.4516        0.0000       55.4867       55.4868      39.035123       0.04111
  40    0.5894       16.4516        0.0000       55.4859       55.4860      39.034330       0.04217
  39     1.339       16.4516        0.0000       55.4821       55.4821      39.030491       0.04322
  38     1.782       16.4516        0.0001       55.4798       55.4799      39.028242       0.04283
  37     2.292       16.4516        0.0001       55.4772       55.4773      39.025683       0.04238
  36     2.964       16.4516        0.0001       55.4739       55.4740      39.022413       0.04105
  35     3.853       16.4516        0.0001       55.4697       55.4699      39.018224       0.03975
  34     5.035       16.4517        0.0002       55.4643       55.4644      39.012777       0.03891
  33     6.613       16.4517        0.0002       55.4571       55.4573      39.005622       0.03825
  32     8.786       16.4517        0.0003       55.4476       55.4479      38.996196       0.03661
  31     11.80       16.4518        0.0004       55.4345       55.4350      38.983162       0.03649
  30     15.07       16.4519        0.0005       55.4211       55.4216      38.969753       0.03462
  29     18.79       16.4520        0.0007       55.4067       55.4073      38.955357       0.03264
  28     23.16       16.4521        0.0008       55.3907       55.3915      38.939394       0.03087
  27     28.12       16.4523        0.0010       55.3734       55.3744      38.922077       0.02944
  26     33.73       16.4525        0.0012       55.3553       55.3565      38.903937       0.02727
  25     40.54       16.4528        0.0014       55.3349       55.3363      38.883515       0.02534
  24     48.69       16.4533        0.0017       55.3125       55.3142      38.860954       0.02335
  23     57.69       16.4538        0.0020       55.2896       55.2917      38.837864       0.02164
  22     68.43       16.4545        0.0024       55.2641       55.2666      38.812081       0.02027
  21     81.20       16.4554        0.0029       55.2354       55.2383      38.782926       0.01926
  20     96.49       16.4564        0.0034       55.2022       55.2056      38.749200       0.01861
  19     114.6       16.4578        0.0041       55.1634       55.1675      38.709738       0.01843
  18     136.5       16.4594        0.0048       55.1174       55.1222      38.662817       0.01804
  17     162.9       16.4614        0.0057       55.0473       55.0530      38.591646       0.02275
  16     196.4       16.4641        0.0069       54.8953       54.9022      38.438078       0.03865
  15     218.7       16.4661        0.0077       54.6739       54.6816      38.215506       0.08450
  14     243.0       16.4684        0.0085       54.2714       54.2799      37.811524       0.14011
  13     269.0       16.4712        0.0092       53.5479       53.5571      37.085909       0.23539
  12     297.5       16.4748        0.0100       52.4162       52.4263      35.951447       0.33647
  11     328.5       16.4793        0.0109       51.1632       51.1740      34.694692       0.34171
  10     361.9       16.4850        0.0117       49.8630       49.8747      33.389730       0.33017
   9     398.1       16.4922        0.0125       48.3937       48.4063      31.914044       0.34380
   8     437.6       16.5017        0.0134       46.6385       46.6519      30.150208       0.37712
   7     480.5       16.5141        0.0142       44.6919       44.7061      28.192053       0.38457
   6     533.0       16.5340        0.0151       42.3319       42.3470      25.813072       0.38270
   5     589.8       16.5644        0.0161       39.8542       39.8703      23.305901       0.37215
   4     651.6       16.6171        0.0171       37.2456       37.2627      20.645543       0.36381
   3     718.7       16.7089        0.0182       34.8703       34.8885      18.179535       0.30991
   2     792.3       16.8801        0.0194       32.8466       32.8660      15.985904       0.25158
   1     891.5       17.3439        0.0210       30.8261       30.8471      13.503194       0.21127
   0    1013.0       18.8272        0.0227       28.7867       28.8093       9.982127       0.24449



 Wavenumbers:  6150. -  7700. cm-1, ATM      1
 LEVEL PRESSURE   UPWARD FLUX   DIFDOWN FLUX  DIRDOWN FLUX  DOWNWARD FLUX   NET FLUX    HEATING RATE
          mb          W/m2          W/m2          W/m2        W/m2          W/m2       degree/day
  51    .06700       24.9087        0.0000      102.6279      102.6279      77.719207       0.00000
  50    .07753       24.9087        0.0000      102.6279      102.6279      77.719150       0.04554
  49    .09103       24.9087        0.0000      102.6278      102.6278      77.719077       0.04583
  48    0.1069       24.9087        0.0000      102.6277      102.6277      77.718990       0.04615
  47    0.1255       24.9087        0.0000      102.6276      102.6276      77.718887       0.04646
  46    0.1487       24.9087        0.0000      102.6275      102.6275      77.718754       0.04854
  45    0.1794       24.9087        0.0000      102.6273      102.6273      77.718567       0.05129
  44    0.2165       24.9087        0.0000      102.6270      102.6270      77.718340       0.05171
  43    0.2613       24.9087        0.0000      102.6267      102.6268      77.718063       0.05215
  42    0.3336       24.9087        0.0000      102.6263      102.6263      77.717594       0.05478
  41    0.4307       24.9087        0.0001      102.6256      102.6256      77.716957       0.05531
  40    0.5894       24.9087        0.0001      102.6245      102.6246      77.715895       0.05648
  39     1.339       24.9086        0.0002      102.6192      102.6194      77.710776       0.05764
  38     1.782       24.9086        0.0002      102.6161      102.6164      77.707779       0.05706
  37     2.292       24.9086        0.0003      102.6126      102.6129      77.704362       0.05658
  36     2.964       24.9085        0.0004      102.6081      102.6085      77.699977       0.05505
  35     3.853       24.9085        0.0005      102.6023      102.6028      77.694330       0.05359
  34     5.035       24.9084        0.0007      102.5946      102.5953      77.686961       0.05264
  33     6.613       24.9083        0.0009      102.5846      102.5855      77.677252       0.05190
  32     8.786       24.9081        0.0012      102.5713      102.5725      77.664403       0.04990
  31     11.80       24.9079        0.0017      102.5528      102.5544      77.646499       0.05012
  30     15.07       24.9077        0.0021      102.5335      102.5356      77.627895       0.04803
  29     18.79       24.9075        0.0027      102.5125      102.5152      77.607674       0.04585
  28     23.16       24.9072        0.0033      102.4889      102.4922      77.584958       0.04393
  27     28.12       24.9069        0.0040      102.4628      102.4668      77.559977       0.04247
  26     33.73       24.9065        0.0048      102.4351      102.4399      77.533413       0.03994
  25     40.54       24.9061        0.0058      102.4034      102.4091      77.503066       0.03765
  24     48.69       24.9055        0.0069      102.3675      102.3745      77.468928       0.03533
  23     57.69       24.9049        0.0082      102.3303      102.3384      77.433487       0.03322
  22     68.43       24.9043        0.0097      102.2879      102.2976      77.393370       0.03154
  21     81.20       24.9034        0.0115      102.2394      102.2509      77.347484       0.03032
  20     96.49       24.9024        0.0137      102.1829      102.1965      77.294087       0.02947
  19     114.6       24.9013        0.0162      102.1161      102.1324      77.231093       0.02941
  18     136.5       24.8999        0.0193      102.0364      102.0557      77.155813       0.02895
  17     162.9       24.8983        0.0229      101.9206      101.9435      77.045195       0.03536
  16     196.4       24.8964        0.0276      101.6802      101.7078      76.811407       0.05885
  15     218.7       24.8953        0.0306      101.3327      101.3633      76.468071       0.13035
  14     243.0       24.8944        0.0338      100.7015      100.7353      75.840887       0.21753
  13     269.0       24.8941        0.0371       99.6993       99.7364      74.842301       0.32394
  12     297.5       24.8949        0.0403       98.1129       98.1532      73.258258       0.46981
  11     328.5       24.8973        0.0436       96.0685       96.1121      71.214797       0.55561
  10     361.9       24.9019        0.0470       93.7314       93.7784      68.876465       0.59162
   9     398.1       24.9100        0.0505       91.1670       91.2174      66.307389       0.59854
   8     437.6       24.9237        0.0538       88.2442       88.2979      63.374230       0.62713
   7     480.5       24.9453        0.0570       84.8933       84.9503      60.005015       0.66170
   6     533.0       24.9855        0.0606       80.5963       80.6570      55.671440       0.69713
   5     589.8       25.0548        0.0640       75.8736       75.9376      50.882856       0.71078
   4     651.6       25.1849        0.0670       70.5311       70.5982      45.413241       0.74798
   3     718.7       25.4209        0.0698       65.0637       65.1335      39.712570       0.71642
   2     792.3       25.8667        0.0724       59.6309       59.7033      33.836619       0.67391
   1     891.5       27.0576        0.0754       53.2615       53.3368      26.279245       0.64310
   0    1013.0       30.8572        0.0788       47.1298       47.2086      16.351434       0.68934



 Wavenumbers:  7700. -  8050. cm-1, ATM      1
 LEVEL PRESSURE   UPWARD FLUX   DIFDOWN FLUX  DIRDOWN FLUX  DOWNWARD FLUX   NET FLUX    HEATING RATE
          mb          W/m2          W/m2          W/m2        W/m2          W/m2       degree/day
  51    .06700       13.1772        0.0000       24.2540       24.2540      11.076879       0.00000
  50    .07753       13.1772        0.0000       24.2540       24.2540      11.076852       0.02176
  49    .09103       13.1772        0.0000       24.2540       24.2540      11.076818       0.02133
  48    0.1069       13.1772        0.0000       24.2540       24.2540      11.076779       0.02088
  47    0.1255       13.1772        0.0000       24.2539       24.2539      11.076734       0.02043
  46    0.1487       13.1772        0.0000       24.2539       24.2539      11.076677       0.02074
  45    0.1794       13.1772        0.0000       24.2538       24.2538      11.076599       0.02134
  44    0.2165       13.1773        0.0000       24.2538       24.2538      11.076507       0.02093
  43    0.2613       13.1773        0.0000       24.2537       24.2537      11.076398       0.02054
  42    0.3336       13.1774        0.0000       24.2536       24.2536      11.076218       0.02102
  41    0.4307       13.1775        0.0000       24.2534       24.2534      11.075979       0.02079
  40    0.5894       13.1776        0.0000       24.2531       24.2532      11.075588       0.02077
  39     1.339       13.1782        0.0001       24.2519       24.2520      11.073740       0.02081
  38     1.782       13.1786        0.0001       24.2511       24.2513      11.072654       0.02068
  37     2.292       13.1790        0.0002       24.2503       24.2504      11.071396       0.02083
  36     2.964       13.1796        0.0002       24.2491       24.2494      11.069745       0.02073
  35     3.853       13.1804        0.0003       24.2476       24.2479      11.067563       0.02071
  34     5.035       13.1814        0.0004       24.2457       24.2460      11.064662       0.02072
  33     6.613       13.1827        0.0005       24.2430       24.2435      11.060785       0.02073
  32     8.786       13.1845        0.0006       24.2394       24.2401      11.055556       0.02030
  31     11.80       13.1871        0.0009       24.2343       24.2352      11.048071       0.02096
  30     15.07       13.1899        0.0011       24.2288       24.2299      11.040028       0.02077
  29     18.79       13.1931        0.0014       24.2226       24.2240      11.030933       0.02062
  28     23.16       13.1968        0.0017       24.2154       24.2171      11.020302       0.02056
  27     28.12       13.2010        0.0021       24.2071       24.2091      11.008132       0.02069
  26     33.73       13.2058        0.0025       24.1978       24.2003      10.994502       0.02049
  25     40.54       13.2116        0.0030       24.1866       24.1896      10.978019       0.02045
  24     48.69       13.2186        0.0035       24.1732       24.1767      10.958127       0.02058
  23     57.69       13.2264        0.0042       24.1584       24.1626      10.936256       0.02050
  22     68.43       13.2357        0.0050       24.1409       24.1458      10.910180       0.02050
  21     81.20       13.2468        0.0059       24.1200       24.1259      10.879080       0.02055
  20     96.49       13.2603        0.0070       24.0952       24.1023      10.841979       0.02048
  19     114.6       13.2764        0.0083       24.0659       24.0743      10.797869       0.02060
  18     136.5       13.2957        0.0099       24.0314       24.0412      10.745508       0.02013
  17     162.9       13.3191        0.0117       23.9904       24.0021      10.683037       0.01997
  16     196.4       13.3499        0.0141       23.9376       23.9518      10.601820       0.02044
  15     218.7       13.3706        0.0157       23.9031       23.9189      10.548316       0.02031
  14     243.0       13.3933        0.0175       23.8658       23.8832      10.489938       0.02025
  13     269.0       13.4184        0.0193       23.8254       23.8447      10.426317       0.02064
  12     297.5       13.4462        0.0213       23.7818       23.8032      10.356982       0.02056
  11     328.5       13.4769        0.0235       23.7347       23.7583      10.281318       0.02057
  10     361.9       13.5110        0.0259       23.6839       23.7098      10.198808       0.02088
   9     398.1       13.5489        0.0284       23.6290       23.6575      10.108520       0.02104
   8     437.6       13.5914        0.0312       23.5696       23.6007      10.009312       0.02121
   7     480.5       13.6391        0.0341       23.5051       23.5392       9.900051       0.02146
   6     533.0       13.7012        0.0377       23.4241       23.4618       9.760592       0.02243
   5     589.8       13.7736        0.0416       23.3339       23.3756       9.601923       0.02355
   4     651.6       13.8605        0.0458       23.2308       23.2766       9.416173       0.02540
   3     718.7       13.9668        0.0503       23.1108       23.1611       9.194283       0.02789
   2     792.3       14.1022        0.0551       22.9671       23.0221       8.919944       0.03146
   1     891.5       14.3322        0.0614       22.7417       22.8031       8.470928       0.03821
   0    1013.0       14.7045        0.0688       22.4209       22.4897       7.785268       0.04761



 Wavenumbers:  8050. - 12850. cm-1, ATM      1
 LEVEL PRESSURE   UPWARD FLUX   DIFDOWN FLUX  DIRDOWN FLUX  DOWNWARD FLUX   NET FLUX    HEATING RATE
          mb          W/m2          W/m2          W/m2        W/m2          W/m2       degree/day
  51    .06700      158.4760        0.0000      339.5744      339.5744     181.098396       0.00000
  50    .07753      158.4760        0.0000      339.5743      339.5743     181.098396       0.00000
  49    .09103      158.4759        0.0001      339.5743      339.5743     181.098396      -0.00000
  48    0.1069      158.4759        0.0001      339.5742      339.5743     181.098396       0.00000
  47    0.1255      158.4759        0.0002      339.5741      339.5743     181.098396      -0.00000
  46    0.1487      158.4759        0.0003      339.5740      339.5743     181.098396       0.00000
  45    0.1794      158.4759        0.0004      339.5739      339.5743     181.098396      -0.00000
  44    0.2165      158.4759        0.0005      339.5738      339.5743     181.098396       0.00000
  43    0.2613      158.4759        0.0007      339.5736      339.5743     181.098396      -0.00000
  42    0.3336      158.4758        0.0009      339.5733      339.5742     181.098396       0.00000
  41    0.4307      158.4758        0.0013      339.5729      339.5742     181.098396      -0.00000
  40    0.5894      158.4757        0.0018      339.5723      339.5741     181.098396       0.00000
  39     1.339      158.4753        0.0044      339.5693      339.5737     181.098396      -0.00000
  38     1.782      158.4751        0.0059      339.5676      339.5735     181.098396       0.00000
  37     2.292      158.4748        0.0076      339.5656      339.5732     181.098396       0.00000
  36     2.964      158.4745        0.0099      339.5629      339.5729     181.098396       0.00000
  35     3.853      158.4740        0.0130      339.5594      339.5724     181.098396      -0.00000
  34     5.035      158.4734        0.0170      339.5548      339.5718     181.098396       0.00000
  33     6.613      158.4726        0.0224      339.5486      339.5710     181.098396       0.00000
  32     8.786      158.4715        0.0297      339.5402      339.5699     181.098396       0.00000
  31     11.80      158.4699        0.0401      339.5283      339.5683     181.098396      -0.00000
  30     15.07      158.4683        0.0513      339.5154      339.5667     181.098396       0.00000
  29     18.79      158.4664        0.0639      339.5008      339.5648     181.098396      -0.00000
  28     23.16      158.4641        0.0788      339.4838      339.5625     181.098396       0.00000
  27     28.12      158.4616        0.0957      339.4643      339.5600     181.098396      -0.00000
  26     33.73      158.4588        0.1147      339.4424      339.5571     181.098396      -0.00000
  25     40.54      158.4553        0.1377      339.4160      339.5537     181.098396       0.00000
  24     48.69      158.4511        0.1655      339.3841      339.5495     181.098396      -0.00000
  23     57.69      158.4465        0.1960      339.3489      339.5449     181.098396       0.00000
  22     68.43      158.4411        0.2324      339.3070      339.5395     181.098396       0.00000
  21     81.20      158.4345        0.2759      339.2570      339.5329     181.098396      -0.00000
  20     96.49      158.4267        0.3278      339.1973      339.5251     181.098396       0.00000
  19     114.6      158.4178        0.3896      339.1202      339.5098     181.092026       0.00297
  18     136.5      158.4071        0.4630      339.0282      339.4912     181.084117       0.00304
  17     162.9      158.3944        0.5506      338.9148      339.4654     181.070988       0.00420
  16     196.4      158.3781        0.6646      338.7508      339.4154     181.037265       0.00849
  15     218.7      158.3678        0.7396      338.6018      339.3414     180.973632       0.02416
  14     243.0      158.3575        0.8212      338.3550      339.1761     180.818591       0.05377
  13     269.0      158.3489        0.9095      337.9284      338.8379     180.489032       0.10691
  12     297.5      158.3444        1.0048      337.2460      338.2509     179.906427       0.17279
  11     328.5      158.3458        1.1077      336.3599      337.4676     179.121809       0.21334
  10     361.9      158.3564        1.2184      335.2817      336.5001     178.143669       0.24748
   9     398.1      158.3819        1.3371      333.9702      335.3073     176.925427       0.28382
   8     437.6      158.4319        1.4638      332.3177      333.7814     175.349533       0.33694
   7     480.5      158.5179        1.5984      330.2317      331.8301     173.312161       0.40013
   6     533.0      158.6851        1.7622      327.1816      328.9438     170.258717       0.49120
   5     589.8      158.9780        1.9353      323.1850      325.1203     166.142314       0.61101
   4     651.6      159.5304        2.1146      317.6492      319.7638     160.233444       0.80805
   3     718.7      160.5212        2.2989      310.4978      312.7967     152.275513       1.00009
   2     792.3      162.3559        2.4845      301.5256      304.0101     141.654201       1.21815
   1     891.5      167.0423        2.7144      288.1364      290.8508     123.808539       1.51858
   0    1013.0      179.8455        2.9664      271.6409      274.6073      94.761808       2.01686



 Wavenumbers: 12850. - 16000. cm-1, ATM      1
 LEVEL PRESSURE   UPWARD FLUX   DIFDOWN FLUX  DIRDOWN FLUX  DOWNWARD FLUX   NET FLUX    HEATING RATE
          mb          W/m2          W/m2          W/m2        W/m2          W/m2       degree/day
  51    .06700      154.0128        0.0000      212.7733      212.7733      58.760504       0.00000
  50    .07753      154.0129        0.0001      212.7725      212.7726      58.759692       0.65048
  49    .09103      154.0129        0.0002      212.7714      212.7716      58.758664       0.64273
  48    0.1069      154.0130        0.0003      212.7701      212.7705      58.757470       0.63550
  47    0.1255      154.0131        0.0005      212.7687      212.7692      58.756082       0.62914
  46    0.1487      154.0132        0.0007      212.7668      212.7675      58.754307       0.64708
  45    0.1794      154.0135        0.0010      212.7643      212.7653      58.751854       0.67349
  44    0.2165      154.0138        0.0013      212.7614      212.7627      58.748914       0.66881
  43    0.2613      154.0142        0.0017      212.7579      212.7596      58.745384       0.66539
  42    0.3336      154.0149        0.0023      212.7521      212.7544      58.739467       0.68983
  41    0.4307      154.0161        0.0031      212.7445      212.7477      58.731560       0.68754
  40    0.5894      154.0183        0.0045      212.7324      212.7368      58.718526       0.69309
  39     1.339      154.0345        0.0109      212.6762      212.6871      58.652617       0.74202
  38     1.782      154.0483        0.0146      212.6439      212.6585      58.610219       0.80718
  37     2.292      154.0682        0.0190      212.6061      212.6251      58.556910       0.88294
  36     2.964      154.1004        0.0247      212.5554      212.5801      58.479685       0.96940
  35     3.853      154.1516        0.0322      212.4865      212.5188      58.367148       1.06800
  34     5.035      154.2280        0.0423      212.3942      212.4365      58.208454       1.13365
  33     6.613      154.3344        0.0557      212.2741      212.3297      57.995315       1.13944
  32     8.786      154.4732        0.0737      212.1222      212.1959      57.722676       1.05883
  31     11.80      154.6551        0.0995      211.9240      212.0235      57.368440       0.99175
  30     15.07      154.8309        0.1272      211.7297      211.8569      57.026053       0.88398
  29     18.79      155.0119        0.1586      211.5256      211.6841      56.672221       0.80224
  28     23.16      155.2031        0.1952      211.3042      211.4994      56.296244       0.72702
  27     28.12      155.3982        0.2371      211.0706      211.3077      55.909506       0.65743
  26     33.73      155.5827        0.2840      210.8367      211.1208      55.538099       0.55842
  25     40.54      155.7664        0.3409      210.5862      210.9270      55.160585       0.46835
  24     48.69      155.9499        0.4094      210.3154      210.7248      54.774885       0.39914
  23     57.69      156.1146        0.4849      210.0484      210.5333      54.418739       0.33383
  22     68.43      156.2708        0.5749      209.7641      210.3390      54.068277       0.27551
  21     81.20      156.4021        0.6825      209.4719      210.1543      53.752232       0.20884
  20     96.49      156.5080        0.8109      209.1690      209.9799      53.471958       0.15469
  19     114.6      156.6324        0.9657      208.8358      209.8015      53.169067       0.14143
  18     136.5      156.7578        1.1494      208.4658      209.6151      52.857346       0.11986
  17     162.9      156.8867        1.3685      208.0492      209.4177      52.530972       0.10432
  16     196.4      157.0107        1.6534      207.5472      209.2006      52.189890       0.08585
  15     218.7      157.0767        1.8409      207.2291      209.0699      51.993257       0.07465
  14     243.0      157.1421        2.0449      206.8855      208.9305      51.788374       0.07106
  13     269.0      157.2072        2.2665      206.5125      208.7790      51.571748       0.07027
  12     297.5      157.2736        2.5064      206.1037      208.6101      51.336488       0.06978
  11     328.5      157.3461        2.7661      205.6534      208.4195      51.073341       0.07155
  10     361.9      157.4270        3.0464      205.1563      208.2027      50.775681       0.07531
   9     398.1      157.5200        3.3486      204.6068      207.9555      50.435431       0.07927
   8     437.6      157.6320        3.6740      203.9951      207.6691      50.037077       0.08517
   7     480.5      157.7697        4.0235      203.3141      207.3377      49.568004       0.09212
   6     533.0      157.9734        4.4547      202.4342      206.8890      48.915551       0.10496
   5     589.8      158.2567        4.9204      201.4166      206.3369      48.080229       0.12399
   4     651.6      158.6912        5.4207      200.1866      205.6073      46.916047       0.15921
   3     718.7      159.3290        5.9541      198.7163      204.6704      45.341433       0.19789
   2     792.3      160.3286        6.5167      196.9029      203.4196      43.090990       0.25810
   1     891.5      162.4566        7.2571      194.0320      201.2891      38.832525       0.36237
   0    1013.0      166.7476        8.1187      190.0852      198.2039      31.456232       0.51217



 Wavenumbers: 16000. - 22650. cm-1, ATM      1
 LEVEL PRESSURE   UPWARD FLUX   DIFDOWN FLUX  DIRDOWN FLUX  DOWNWARD FLUX   NET FLUX    HEATING RATE
          mb          W/m2          W/m2          W/m2        W/m2          W/m2       degree/day
  51    .06700      310.4366        0.0000      339.2435      339.2435      28.806914       0.00000
  50    .07753      310.4369        0.0006      339.2430      339.2435      28.806687       0.18180
  49    .09103      310.4372        0.0013      339.2422      339.2435      28.806357       0.20620
  48    0.1069      310.4376        0.0021      339.2414      339.2435      28.805915       0.23514
  47    0.1255      310.4381        0.0031      339.2403      339.2434      28.805324       0.26803
  46    0.1487      310.4389        0.0043      339.2390      339.2433      28.804453       0.31761
  45    0.1794      310.4400        0.0060      339.2371      339.2431      28.803091       0.37396
  44    0.2165      310.4415        0.0079      339.2348      339.2427      28.801243       0.42029
  43    0.2613      310.4434        0.0102      339.2319      339.2422      28.798736       0.47252
  42    0.3336      310.4470        0.0141      339.2269      339.2410      28.793970       0.55568
  41    0.4307      310.4524        0.0192      339.2200      339.2392      28.786786       0.62466
  40    0.5894      310.4624        0.0275      339.2080      339.2355      28.773084       0.72866
  39     1.339      310.5328        0.0669      339.1377      339.2046      28.671834       1.13989
  38     1.782      310.5911        0.0900      339.0866      339.1766      28.585558       1.64254
  37     2.292      310.6745        0.1168      339.0183      339.1351      28.460640       2.06897
  36     2.964      310.8083        0.1520      338.9146      339.0665      28.258191       2.54135
  35     3.853      311.0195        0.1984      338.7579      338.9563      27.936755       3.05049
  34     5.035      311.3339        0.2600      338.5306      338.7907      27.456752       3.42894
  33     6.613      311.7713        0.3424      338.2178      338.5601      26.788811       3.57081
  32     8.786      312.3429        0.4533      337.8077      338.2610      25.918142       3.38136
  31     11.80      313.0940        0.6121      337.2614      337.8735      24.779528       3.18776
  30     15.07      313.8227        0.7825      336.7215      337.5040      23.681387       2.83518
  29     18.79      314.5759        0.9752      336.1537      337.1289      22.552972       2.55846
  28     23.16      315.3749        1.2002      335.5387      336.7390      21.364058       2.29897
  27     28.12      316.1942        1.4578      334.8912      336.3490      20.154845       2.05558
  26     33.73      316.9754        1.7464      334.2448      335.9912      19.015771       1.71263
  25     40.54      317.7622        2.0955      333.5534      335.6489      17.886719       1.40072
  24     48.69      318.5579        2.5169      332.8066      335.3235      16.765605       1.16018
  23     57.69      319.2841        2.9805      332.0695      335.0500      15.765864       0.93711
  22     68.43      319.9895        3.5336      331.2805      334.8141      14.824630       0.73994
  21     81.20      320.6109        4.1940      330.4607      334.6546      14.043745       0.51600
  20     96.49      321.1478        4.9825      329.5945      334.5770      13.429208       0.33918
  19     114.6      321.6791        5.9194      328.6254      334.5447      12.865626       0.26315
  18     136.5      322.2370        7.0300      327.5165      334.5465      12.309472       0.21385
  17     162.9      322.8352        8.3526      326.2330      334.5856      11.750401       0.17870
  16     196.4      323.4690       10.0686      324.6458      334.7145      11.245500       0.12709
  15     218.7      323.8323       11.1958      323.6323      334.8282      10.995863       0.09478
  14     243.0      324.2022       12.4210      322.5445      334.9656      10.763353       0.08064
  13     269.0      324.5768       13.7487      321.3801      335.1288      10.552017       0.06856
  12     297.5      324.9563       15.1836      320.1354      335.3189      10.362606       0.05618
  11     328.5      325.3536       16.7339      318.7974      335.5313      10.177737       0.05027
  10     361.9      325.7690       18.4031      317.3636      335.7666       9.997653       0.04556
   9     398.1      326.2049       20.1995      315.8263      336.0258       9.820907       0.04118
   8     437.6      326.6655       22.1288      314.1791      336.3078       9.642300       0.03819
   7     480.5      327.1523       24.1971      312.4165      336.6136       9.461304       0.03555
   6     533.0      327.7471       26.7441      310.2477      336.9918       9.244728       0.03484
   5     589.8      328.3924       29.4912      307.9049      337.3962       9.003750       0.03577
   4     651.6      329.1069       32.4472      305.3702      337.8174       8.710484       0.04010
   3     718.7      329.9094       35.6220      302.6257      338.2477       8.338263       0.04678
   2     792.3      330.8429       39.0200      299.6448      338.6649       7.821956       0.05921
   1     891.5      332.2890       43.6008      295.5280      339.1288       6.839760       0.08358
   0    1013.0      334.3363       49.0923      290.4567      339.5490       5.212688       0.11298



 Wavenumbers: 22650. - 29000. cm-1, ATM      1
 LEVEL PRESSURE   UPWARD FLUX   DIFDOWN FLUX  DIRDOWN FLUX  DOWNWARD FLUX   NET FLUX    HEATING RATE
          mb          W/m2          W/m2          W/m2        W/m2          W/m2       degree/day
  51    .06700      126.0057        0.0000      128.0182      128.0182       2.012430       0.00000
  50    .07753      126.0059        0.0007      128.0176      128.0183       2.012430       0.00000
  49    .09103      126.0060        0.0015      128.0169      128.0184       2.012430       0.00000
  48    0.1069      126.0062        0.0025      128.0161      128.0186       2.012430      -0.00000
  47    0.1255      126.0064        0.0036      128.0152      128.0188       2.012430      -0.00000
  46    0.1487      126.0067        0.0050      128.0140      128.0191       2.012430       0.00000
  45    0.1794      126.0070        0.0070      128.0125      128.0195       2.012430       0.00000
  44    0.2165      126.0074        0.0093      128.0106      128.0199       2.012430      -0.00000
  43    0.2613      126.0080        0.0120      128.0084      128.0204       2.012430      -0.00000
  42    0.3336      126.0088        0.0165      128.0047      128.0212       2.012430       0.00000
  41    0.4307      126.0099        0.0225      127.9999      128.0223       2.012430       0.00000
  40    0.5894      126.0117        0.0322      127.9919      128.0241       2.012430       0.00000
  39     1.339      126.0202        0.0783      127.9543      128.0327       2.012430       0.00000
  38     1.782      126.0252        0.1054      127.9322      128.0377       2.012430       0.00000
  37     2.292      126.0310        0.1368      127.9067      128.0435       2.012430       0.00000
  36     2.964      126.0387        0.1780      127.8731      128.0511       2.012430       0.00000
  35     3.853      126.0487        0.2324      127.8287      128.0612       2.012430      -0.00000
  34     5.035      126.0621        0.3047      127.7698      128.0745       2.012430       0.00000
  33     6.613      126.0800        0.4013      127.6911      128.0924       2.012430       0.00000
  32     8.786      126.1040        0.5314      127.5850      128.1165       2.012430      -0.00000
  31     11.80      126.1385        0.7176      127.4333      128.1509       2.012430      -0.00000
  30     15.07      126.1754        0.9174      127.2704      128.1879       2.012430       0.00000
  29     18.79      126.2172        1.1431      127.0865      128.2296       2.012430      -0.00000
  28     23.16      126.2659        1.4066      126.8717      128.2783       2.012430      -0.00000
  27     28.12      126.3216        1.7077      126.6263      128.3340       2.012430       0.00000
  26     33.73      126.3838        2.0444      126.3519      128.3963       2.012430      -0.00000
  25     40.54      126.4590        2.4507      126.0207      128.4714       2.012430       0.00000
  24     48.69      126.5494        2.9398      125.6220      128.5618       2.012430      -0.00000
  23     57.69      126.6485        3.4760      125.1849      128.6609       2.012430      -0.00000
  22     68.43      126.7662        4.1131      124.6655      128.7787       2.012430       0.00000
  21     81.20      126.9060        4.8699      124.0485      128.9185       2.012430      -0.00000
  20     96.49      127.0720        5.7683      123.3161      129.0844       2.012430       0.00000
  19     114.6      127.2680        6.8299      122.4505      129.2804       2.012430      -0.00000
  18     136.5      127.4989        8.0810      121.4304      129.5114       2.012430       0.00000
  17     162.9      127.7719        9.5605      120.2238      129.7843       2.012430      -0.00000
  16     196.4      128.1226       11.4623      118.6728      130.1350       2.012430      -0.00000
  15     218.7      128.3509       12.7008      117.6625      130.3633       2.012430       0.00000
  14     243.0      128.5972       14.0379      116.5717      130.6096       2.012430       0.00000
  13     269.0      128.8620       15.4764      115.3981      130.8745       2.012430       0.00000
  12     297.5      129.1458       17.0185      114.1398      131.1583       2.012430       0.00000
  11     328.5      129.4498       18.6710      112.7912      131.4622       2.012430       0.00000
  10     361.9      129.7738       20.4341      111.3521      131.7863       2.012430      -0.00000
   9     398.1      130.1190       22.3134      109.8180      132.1314       2.012430       0.00000
   8     437.6      130.4856       24.3109      108.1872      132.4980       2.012430       0.00000
   7     480.5      130.8739       26.4285      106.4579      132.8863       2.012430      -0.00000
   6     533.0      131.3455       29.0027      104.3552      133.3579       2.012430       0.00000
   5     589.8      131.8461       31.7388      102.1197      133.8585       2.012430       0.00000
   4     651.6      132.3757       34.6375       99.7506      134.3882       2.012430      -0.00000
   3     718.7      132.9344       37.6997       97.2472      134.9469       2.012430       0.00000
   2     792.3      133.5213       40.9216       94.6121      135.5337       2.012430       0.00000
   1     891.5      134.2954       45.1803       91.1275      136.3079       2.012430      -0.00000
   0    1013.0      135.1971       50.1548       87.0547      137.2095       2.012430       0.00000



 Wavenumbers: 29000. - 38000. cm-1, ATM      1
 LEVEL PRESSURE   UPWARD FLUX   DIFDOWN FLUX  DIRDOWN FLUX  DOWNWARD FLUX   NET FLUX    HEATING RATE
          mb          W/m2          W/m2          W/m2        W/m2          W/m2       degree/day
  51    .06700       20.0340        0.0000       45.1445       45.1445      25.110545       0.00000
  50    .07753       20.0339        0.0004       45.1402       45.1406      25.106712       3.07194
  49    .09103       20.0338        0.0009       45.1340       45.1349      25.101133       3.48712
  48    0.1069       20.0337        0.0015       45.1259       45.1274      25.093658       3.97912
  47    0.1255       20.0336        0.0021       45.1151       45.1173      25.083649       4.53735
  46    0.1487       20.0335        0.0029       45.0995       45.1024      25.068900       5.37618
  45    0.1794       20.0334        0.0041       45.0752       45.0793      25.045868       6.32295
  44    0.2165       20.0334        0.0054       45.0427       45.0481      25.014699       7.09029
  43    0.2613       20.0334        0.0069       44.9990       45.0059      24.972564       7.94232
  42    0.3336       20.0335        0.0095       44.9170       44.9265      24.893021       9.27398
  41    0.4307       20.0339        0.0129       44.7957       44.8086      24.774657      10.29144
  40    0.5894       20.0351        0.0184       44.5709       44.5893      24.554189      11.72421
  39     1.339       20.0487        0.0425       43.1320       43.1744      23.125743      16.08171
  38     1.782       20.0622        0.0554       42.1484       42.2038      22.141585      18.73677
  37     2.292       20.0826        0.0695       41.0073       41.0768      20.994218      19.00340
  36     2.964       20.1166        0.0872       39.6314       39.7186      19.602036      17.47609
  35     3.853       20.1715        0.1096       38.1244       38.2340      18.062439      14.61106
  34     5.035       20.2545        0.1385       36.6081       36.7466      16.492123      11.21768
  33     6.613       20.3714        0.1763       35.1382       35.3145      14.943119       8.28098
  32     8.786       20.5260        0.2263       33.7455       33.9717      13.445719       5.81536
  31     11.80       20.7331        0.2968       32.3833       32.6801      11.947045       4.19582
  30     15.07       20.9396        0.3716       31.3427       31.7143      10.774698       3.02677
  29     18.79       21.1596        0.4549       30.4443       30.8993       9.739620       2.34684
  28     23.16       21.4020        0.5514       29.6246       30.1760       8.774054       1.86709
  27     28.12       21.6611        0.6610       28.8817       29.5427       7.881543       1.51721
  26     33.73       21.9187        0.7839       28.2360       29.0199       7.101179       1.17330
  25     40.54       22.1886        0.9326       27.6241       28.5567       6.368075       0.90950
  24     48.69       22.4736        1.1121       27.0316       28.1437       5.670129       0.72226
  23     57.69       22.7443        1.3097       26.5005       27.8101       5.065812       0.56646
  22     68.43       23.0167        1.5455       25.9781       27.5236       4.506860       0.43941
  21     81.20       23.2616        1.8292       25.4801       27.3093       4.047648       0.30344
  20     96.49       23.4739        2.1697       24.9919       27.1616       3.687705       0.19866
  19     114.6       23.6851        2.5713       24.4717       27.0430       3.357890       0.15400
  18     136.5       23.9095        3.0408       23.8998       26.9405       3.031011       0.12569
  17     162.9       24.1539        3.5916       23.2628       26.8543       2.700449       0.10566
  16     196.4       24.4098        4.2977       22.5108       26.8085       2.398706       0.07595
  15     218.7       24.5546        4.7543       22.0470       26.8013       2.246704       0.05771
  14     243.0       24.7010        5.2434       21.5608       26.8042       2.103198       0.04977
  13     269.0       24.8471        5.7654       21.0531       26.8185       1.971439       0.04274
  12     297.5       24.9921        6.3204       20.5244       26.8448       1.852672       0.03523
  11     328.5       25.1418        6.9079       19.9703       26.8782       1.736371       0.03162
  10     361.9       25.2958        7.5266       19.3924       26.9190       1.623189       0.02864
   9     398.1       25.4539        8.1769       18.7904       26.9673       1.513417       0.02557
   8     437.6       25.6173        8.8575       18.1649       27.0224       1.405149       0.02315
   7     480.5       25.7848        9.5674       17.5174       27.0848       1.299941       0.02066
   6     533.0       25.9821       10.4138       16.7507       27.1644       1.182312       0.01892
   5     589.8       26.1865       11.2937       15.9583       27.2520       1.065463       0.01734
   4     651.6       26.3985       12.2035       15.1432       27.3467       0.948203       0.01604
   3     718.7       26.6176       13.1381       14.3095       27.4477       0.830064       0.01485
   2     792.3       26.8440       14.0955       13.4599       27.5554       0.711445       0.01360
   1     891.5       27.1379       15.3175       12.3810       27.6986       0.560648       0.01283
   0    1013.0       27.4769       16.6829       11.1826       27.8655       0.388558       0.01195



 Wavenumbers: 38000. - 50000. cm-1, ATM      1
 LEVEL PRESSURE   UPWARD FLUX   DIFDOWN FLUX  DIRDOWN FLUX  DOWNWARD FLUX   NET FLUX    HEATING RATE
          mb          W/m2          W/m2          W/m2        W/m2          W/m2       degree/day
  51    .06700        0.0077        0.0000        2.7845        2.7845       2.776804       0.00000
  50    .07753        0.0076        0.0001        2.7820        2.7821       2.774466       1.87422
  49    .09103        0.0076        0.0002        2.7785        2.7787       2.771124       2.08844
  48    0.1069        0.0075        0.0003        2.7739        2.7742       2.766725       2.34187
  47    0.1255        0.0074        0.0004        2.7680        2.7683       2.760927       2.62859
  46    0.1487        0.0073        0.0005        2.7593        2.7598       2.752507       3.06903
  45    0.1794        0.0071        0.0007        2.7460        2.7467       2.739523       3.56452
  44    0.2165        0.0070        0.0009        2.7282        2.7291       2.722171       3.94722
  43    0.2613        0.0068        0.0012        2.7046        2.7058       2.699009       4.36588
  42    0.3336        0.0065        0.0015        2.6609        2.6624       2.655924       5.02335
  41    0.4307        0.0061        0.0020        2.5970        2.5991       2.592931       5.47710
  40    0.5894        0.0056        0.0027        2.4815        2.4842       2.478574       6.08134
  39     1.339        0.0038        0.0042        1.8149        1.8190       1.815270       7.46761
  38     1.782        0.0030        0.0040        1.4302        1.4342       1.431208       7.31192
  37     2.292        0.0024        0.0036        1.0577        1.0613       1.058903       6.16633
  36     2.964        0.0019        0.0030        0.7140        0.7170       0.715149       4.31516
  35     3.853        0.0015        0.0024        0.4564        0.4589       0.457401       2.44607
  34     5.035        0.0011        0.0019        0.2892        0.2911       0.289993       1.19590
  33     6.613        0.0009        0.0016        0.1825        0.1840       0.183159       0.57113
  32     8.786        0.0007        0.0013        0.1153        0.1165       0.115840       0.26144
  31     11.80        0.0005        0.0010        0.0712        0.0722       0.071711       0.12355
  30     15.07        0.0004        0.0008        0.0472        0.0480       0.047626       0.06218
  29     18.79        0.0003        0.0006        0.0315        0.0321       0.031814       0.03585
  28     23.16        0.0002        0.0004        0.0206        0.0210       0.020821       0.02126
  27     28.12        0.0001        0.0003        0.0132        0.0136       0.013410       0.01260
  26     33.73        0.0001        0.0002        0.0085        0.0088       0.008654       0.00715
  25     40.54        0.0001        0.0002        0.0053        0.0055       0.005402       0.00403
  24     48.69        0.0000        0.0001        0.0032        0.0033       0.003226       0.00225
  23     57.69        0.0000        0.0001        0.0019        0.0019       0.001920       0.00122
  22     68.43        0.0000        0.0000        0.0011        0.0011       0.001085       0.00066
  21     81.20        0.0000        0.0000        0.0006        0.0006       0.000585       0.00033
  20     96.49        0.0000        0.0000        0.0003        0.0003       0.000295       0.00016
  19     114.6        0.0000        0.0000        0.0001        0.0001       0.000133       0.00008
  18     136.5        0.0000        0.0000        0.0001        0.0001       0.000052       0.00003
  17     162.9        0.0000        0.0000        0.0000        0.0000       0.000017       0.00001
  16     196.4        0.0000        0.0000        0.0000        0.0000       0.000004       0.00000
  15     218.7        0.0000        0.0000        0.0000        0.0000       0.000002       0.00000
  14     243.0        0.0000        0.0000        0.0000        0.0000       0.000001       0.00000
  13     269.0        0.0000        0.0000        0.0000        0.0000       0.000000       0.00000
  12     297.5        0.0000        0.0000        0.0000        0.0000       0.000000       0.00000
  11     328.5        0.0000        0.0000        0.0000        0.0000       0.000000       0.00000
  10     361.9        0.0000        0.0000        0.0000        0.0000       0.000000       0.00000
   9     398.1        0.0000        0.0000        0.0000        0.0000       0.000000       0.00000
   8     437.6        0.0000        0.0000        0.0000        0.0000       0.000000       0.00000
   7     480.5        0.0000        0.0000        0.0000        0.0000       0.000000       0.00000
   6     533.0        0.0000        0.0000        0.0000        0.0000       0.000000       0.00000
   5     589.8        0.0000        0.0000        0.0000        0.0000       0.000000       0.00000
   4     651.6        0.0000        0.0000        0.0000        0.0000       0.000000       0.00000
   3     718.7        0.0000        0.0000        0.0000        0.0000       0.000000       0.00000
   2     792.3        0.0000        0.0000        0.0000        0.0000       0.000000       0.00000
   1     891.5        0.0000        0.0000        0.0000        0.0000       0.000000       0.00000
   0    1013.0        0.0000        0.0000        0.0000        0.0000       0.000000       0.00000



 Wavenumbers:   820. -  2600. cm-1, ATM      1
 LEVEL PRESSURE   UPWARD FLUX   DIFDOWN FLUX  DIRDOWN FLUX  DOWNWARD FLUX   NET FLUX    HEATING RATE
          mb          W/m2          W/m2          W/m2        W/m2          W/m2       degree/day
  51    .06700        1.8693        0.0000       13.0254       13.0254      11.156166       0.00000
  50    .07753        1.8693        0.0000       13.0185       13.0185      11.149218       5.56916
  49    .09103        1.8693        0.0000       13.0169       13.0169      11.147674       0.96503
  48    0.1069        1.8693        0.0000       13.0158       13.0158      11.146552       0.59701
  47    0.1255        1.8693        0.0000       13.0145       13.0145      11.145268       0.58219
  46    0.1487        1.8693        0.0000       13.0129       13.0129      11.143614       0.60285
  45    0.1794        1.8693        0.0000       13.0106       13.0106      11.141365       0.61745
  44    0.2165        1.8693        0.0000       13.0080       13.0080      11.138758       0.59289
  43    0.2613        1.8693        0.0000       13.0051       13.0051      11.135797       0.55818
  42    0.3336        1.8693        0.0000       13.0005       13.0005      11.131268       0.52808
  41    0.4307        1.8693        0.0000       12.9952       12.9952      11.125948       0.46253
  40    0.5894        1.8693        0.0000       12.9876       12.9876      11.118326       0.40535
  39     1.339        1.8693        0.0000       12.9552       12.9552      11.085963       0.36435
  38     1.782        1.8693        0.0000       12.9367       12.9367      11.067452       0.35241
  37     2.292        1.8693        0.0000       12.9159       12.9159      11.046632       0.34484
  36     2.964        1.8693        0.0000       12.8893       12.8893      11.020019       0.33407
  35     3.853        1.8693        0.0000       12.8550       12.8550      10.985716       0.32554
  34     5.035        1.8693        0.0000       12.8110       12.8110      10.941684       0.31455
  33     6.613        1.8693        0.0000       12.7553       12.7553      10.885960       0.29790
  32     8.786        1.8693        0.0000       12.6848       12.6848      10.815456       0.27381
  31     11.80        1.8694        0.0000       12.5907       12.5907      10.721315       0.26357
  30     15.07        1.8694        0.0000       12.4974       12.4974      10.628030       0.24084
  29     18.79        1.8694        0.0000       12.4041       12.4041      10.534688       0.21164
  28     23.16        1.8695        0.0000       12.3142       12.3142      10.444758       0.17390
  27     28.12        1.8695        0.0000       12.2360       12.2360      10.366494       0.13304
  26     33.73        1.8695        0.0000       12.1736       12.1736      10.304052       0.09388
  25     40.54        1.8696        0.0000       12.1217       12.1217      10.252154       0.06439
  24     48.69        1.8697        0.0000       12.0773       12.0773      10.207657       0.04605
  23     57.69        1.8697        0.0000       12.0368       12.0368      10.167045       0.03807
  22     68.43        1.8698        0.0000       11.9912       11.9912      10.121368       0.03591
  21     81.20        1.8699        0.0000       11.9380       11.9381      10.068150       0.03517
  20     96.49        1.8700        0.0000       11.8752       11.8752      10.005139       0.03478
  19     114.6        1.8702        0.0000       11.8000       11.8000       9.929802       0.03518
  18     136.5        1.8704        0.0000       11.7105       11.7105       9.840162       0.03447
  17     162.9        1.8706        0.0000       11.5940       11.5941       9.723416       0.03732
  16     196.4        1.8711        0.0000       11.4064       11.4064       9.535320       0.04735
  15     218.7        1.8716        0.0000       11.2202       11.2202       9.348656       0.07087
  14     243.0        1.8723        0.0000       10.9221       10.9221       9.049822       0.10365
  13     269.0        1.8734        0.0000       10.5132       10.5132       8.639841       0.13300
  12     297.5        1.8752        0.0000       10.0511       10.0512       8.175997       0.13757
  11     328.5        1.8776        0.0000        9.6568        9.6569       7.779306       0.10786
  10     361.9        1.8808        0.0000        9.2736        9.2737       7.392873       0.09777
   9     398.1        1.8850        0.0000        8.8315        8.8315       6.946486       0.10400
   8     437.6        1.8905        0.0000        8.3170        8.3171       6.426571       0.11116
   7     480.5        1.8973        0.0000        7.7994        7.7995       5.902235       0.10298
   6     533.0        1.9076        0.0001        7.2974        7.2974       5.389828       0.08243
   5     589.8        1.9230        0.0001        6.9311        6.9311       5.008140       0.05666
   4     651.6        1.9501        0.0001        6.6173        6.6173       4.667260       0.04662
   3     718.7        1.9965        0.0001        6.2583        6.2584       4.261889       0.05094
   2     792.3        2.0812        0.0001        5.8107        5.8108       3.729515       0.06106
   1     891.5        2.2985        0.0001        5.1736        5.1736       2.875066       0.07271
   0    1013.0        2.8914        0.0001        4.4251        4.4252       1.533756       0.09313

  Modules and versions used in this calculation:

       rrtmg_sw.1col.f90:  $Revision$                    rrtmg_sw_init.f90:  $Revision$        
     rrtmgsw_cldprop.f90:  $Revision$                  rrtmgsw_cldprmc.f90:  NOT USED          
     rrtmg_sw_reftra.f90:  $Revision$                  rrtmg_sw_spcvrt.f90:  NOT USED          
     rrtmg_sw_spcvmc.f90:  NOT USED                    rrtmgsw_setcoef.f90:  NOT USED          
     rrtmg_sw_taumol.f90:  $Revision$                  rrtmg_sw_vrtqdr.f90:  NOT USED          
                rrtatm.f:  NOT USED                             util_xxx.f:  NOT USED          
                 extra.f:  NOT USED                       rrtmg_sw_k_g.f90:  $Revision$        

