

 Wavenumbers:   820. - 50000. cm-1, ATM      1
 LEVEL PRESSURE   UPWARD FLUX   DIFDOWN FLUX  DIRDOWN FLUX  DOWNWARD FLUX   NET FLUX    HEATING RATE
          mb          W/m2          W/m2          W/m2        W/m2          W/m2       degree/day
  51    .06700      433.6958        0.0000      680.4246      680.4246     246.728800       0.00000
  50    .07753      433.6955        0.0014      680.4063      680.4077     246.712215      13.29315
  49    .09103      433.6951        0.0031      680.3891      680.3922     246.697138       9.42381
  48    0.1069      433.6947        0.0052      680.3692      680.3743     246.679647       9.31057
  47    0.1255      433.6943        0.0075      680.3449      680.3524     246.658093       9.77168
  46    0.1487      433.6938        0.0104      680.3116      680.3220     246.628156      10.91238
  45    0.1794      433.6933        0.0144      680.2625      680.2768     246.583535      12.24932
  44    0.2165      433.6928        0.0191      680.1994      680.2185     246.525670      13.16346
  43    0.2613      433.6924        0.0246      680.1182      680.1428     246.450393      14.18930
  42    0.3336      433.6920        0.0337      679.9721      680.0058     246.313763      15.92967
  41    0.4307      433.6921        0.0459      679.7647      679.8105     246.118475      16.97992
  40    0.5894      433.6932        0.0652      679.4005      679.4658     245.772620      18.39211
  39     1.339      433.7182        0.1532      677.4707      677.6240     243.905729      21.01781
  38     1.782      433.7469        0.2028      676.4258      676.6286     242.881709      19.49569
  37     2.292      433.7926        0.2594      675.3853      675.6447     241.852103      17.05296
  36     2.964      433.8717        0.3325      674.2523      674.5848     240.713100      14.29792
  35     3.853      434.0027        0.4287      673.0156      673.4443     239.441529      12.06744
  34     5.035      434.2029        0.5557      671.6676      672.2233     238.020367      10.15219
  33     6.613      434.4843        0.7244      670.2067      670.9310     236.446775       8.41243
  32     8.786      434.8511        0.9518      668.6145      669.5663     234.715251       6.72461
  31     11.80      435.3279        1.2750      666.7677      668.0426     232.714742       5.60079
  30     15.07      435.7840        1.6196      665.1055      666.7250     230.941052       4.57932
  29     18.79      436.2494        2.0076      663.4620      665.4696     229.220252       3.90158
  28     23.16      436.7355        2.4587      661.7555      664.2143     227.478781       3.36744
  27     28.12      437.2241        2.9725      660.0065      662.9790     225.754885       2.93051
  26     33.73      437.6724        3.5457      658.2726      661.8183     224.145964       2.41906
  25     40.54      438.0990        4.2365      656.4088      660.6453     222.546294       1.98457
  24     48.69      438.5018        5.0657      654.3800      659.4457     220.943905       1.65822
  23     57.69      438.8358        5.9727      652.3486      658.3213     219.485534       1.36700
  22     68.43      439.1156        7.0485      650.1283      657.1768     218.061198       1.11972
  21     81.20      439.2850        8.3251      647.7323      656.0574     216.772434       0.85160
  20     96.49      439.3340        9.8381      645.1078      654.9459     215.611961       0.64050
  19     114.6      439.3315       11.6205      642.1202      653.7407     214.409221       0.56159
  18     136.5      439.2759       13.7104      638.7104      652.4207     213.144844       0.48618
  17     162.9      439.1636       16.1668      634.7438      650.9106     211.746983       0.44681
  16     196.4      438.9136       19.3053      629.6393      648.9447     210.031098       0.43191
  15     218.7      438.7132       21.3378      625.9959      647.3336     208.620479       0.53556
  14     243.0      438.4813       23.5206      621.5446      645.0652     206.583883       0.70636
  13     269.0      438.2168       25.8561      615.9928      641.8489     203.632131       0.95753
  12     297.5      437.9212       28.3460      609.3192      637.6651     199.743896       1.15321
  11     328.5      437.6039       30.9969      602.1010      633.0979     195.494008       1.15553
  10     361.9      437.2681       33.8067      594.3006      628.1074     190.839303       1.17769
   9     398.1      436.9182       36.7809      585.7170      622.4979     185.579699       1.22537
   8     437.6      436.5647       39.9172      576.2276      616.1449     179.580136       1.28274
   7     480.5      436.2173       43.2178      566.0211      609.2389     173.021683       1.28806
   6     533.0      435.8495       47.1945      553.5106      600.7051     164.855573       1.31367
   5     589.8      435.5628       51.3741      539.9026      591.2766     155.713835       1.35693
   4     651.6      435.4742       55.7550      524.5675      580.3225     144.848253       1.48590
   3     718.7      435.7119       60.3233      508.0376      568.3609     132.649039       1.53310
   2     792.3      436.5824       65.0605      490.1396      555.2001     118.617728       1.60923
   1     891.5      439.3420       71.2029      465.9831      537.1860      97.843960       1.76775
   0    1013.0      446.6381       78.2317      438.5029      516.7345      70.096373       1.92666



 Wavenumbers:  2600. -  3250. cm-1, ATM      1
 LEVEL PRESSURE   UPWARD FLUX   DIFDOWN FLUX  DIRDOWN FLUX  DOWNWARD FLUX   NET FLUX    HEATING RATE
          mb          W/m2          W/m2          W/m2        W/m2          W/m2       degree/day
  51    .06700        0.0244        0.0000        5.9969        5.9969       5.972440       0.00000
  50    .07753        0.0244        0.0000        5.9969        5.9969       5.972432       0.00640
  49    .09103        0.0244        0.0000        5.9968        5.9968       5.972422       0.00627
  48    0.1069        0.0244        0.0000        5.9968        5.9968       5.972411       0.00613
  47    0.1255        0.0244        0.0000        5.9968        5.9968       5.972398       0.00600
  46    0.1487        0.0244        0.0000        5.9968        5.9968       5.972381       0.00608
  45    0.1794        0.0244        0.0000        5.9968        5.9968       5.972358       0.00625
  44    0.2165        0.0244        0.0000        5.9967        5.9967       5.972331       0.00612
  43    0.2613        0.0244        0.0000        5.9967        5.9967       5.972300       0.00600
  42    0.3336        0.0244        0.0000        5.9967        5.9967       5.972247       0.00617
  41    0.4307        0.0244        0.0000        5.9966        5.9966       5.972175       0.00620
  40    0.5894        0.0244        0.0000        5.9965        5.9965       5.972055       0.00637
  39     1.339        0.0244        0.0000        5.9958        5.9958       5.971346       0.00798
  38     1.782        0.0244        0.0000        5.9952        5.9952       5.970801       0.01038
  37     2.292        0.0244        0.0000        5.9945        5.9945       5.970081       0.01192
  36     2.964        0.0244        0.0000        5.9935        5.9935       5.969034       0.01314
  35     3.853        0.0244        0.0000        5.9920        5.9920       5.967540       0.01419
  34     5.035        0.0244        0.0000        5.9899        5.9899       5.965450       0.01493
  33     6.613        0.0244        0.0000        5.9870        5.9870       5.962599       0.01524
  32     8.786        0.0244        0.0000        5.9833        5.9833       5.958838       0.01461
  31     11.80        0.0244        0.0000        5.9782        5.9782       5.953818       0.01406
  30     15.07        0.0244        0.0000        5.9734        5.9734       5.948994       0.01245
  29     18.79        0.0244        0.0000        5.9686        5.9687       5.944240       0.01078
  28     23.16        0.0244        0.0000        5.9638        5.9638       5.939390       0.00938
  27     28.12        0.0244        0.0000        5.9588        5.9588       5.934406       0.00847
  26     33.73        0.0244        0.0000        5.9533        5.9533       5.928880       0.00831
  25     40.54        0.0244        0.0000        5.9461        5.9461       5.921702       0.00890
  24     48.69        0.0244        0.0000        5.9364        5.9364       5.912044       0.00999
  23     57.69        0.0244        0.0000        5.9245        5.9245       5.900100       0.01120
  22     68.43        0.0244        0.0000        5.9088        5.9088       5.884392       0.01235
  21     81.20        0.0244        0.0000        5.8886        5.8886       5.864230       0.01332
  20     96.49        0.0244        0.0000        5.8634        5.8634       5.839024       0.01391
  19     114.6        0.0244        0.0000        5.8322        5.8323       5.807879       0.01454
  18     136.5        0.0244        0.0000        5.7957        5.7958       5.771398       0.01403
  17     162.9        0.0244        0.0001        5.7540        5.7541       5.729737       0.01332
  16     196.4        0.0244        0.0001        5.7035        5.7035       5.679167       0.01273
  15     218.7        0.0244        0.0001        5.6699        5.6699       5.645584       0.01275
  14     243.0        0.0244        0.0001        5.6298        5.6299       5.605494       0.01390
  13     269.0        0.0244        0.0001        5.5807        5.5808       5.556477       0.01590
  12     297.5        0.0244        0.0001        5.5210        5.5211       5.496688       0.01773
  11     328.5        0.0244        0.0001        5.4517        5.4518       5.427436       0.01883
  10     361.9        0.0244        0.0001        5.3690        5.3691       5.344661       0.02094
   9     398.1        0.0245        0.0001        5.2653        5.2654       5.240937       0.02417
   8     437.6        0.0245        0.0001        5.1322        5.1323       5.107835       0.02846
   7     480.5        0.0246        0.0001        4.9661        4.9662       4.941619       0.03264
   6     533.0        0.0247        0.0002        4.7378        4.7379       4.713193       0.03675
   5     589.8        0.0249        0.0002        4.4688        4.4690       4.444083       0.03994
   4     651.6        0.0252        0.0002        4.1581        4.1582       4.132981       0.04254
   3     718.7        0.0257        0.0002        3.8256        3.8258       3.800039       0.04184
   2     792.3        0.0266        0.0002        3.4538        3.4540       3.427394       0.04274
   1     891.5        0.0285        0.0001        2.9387        2.9389       2.910342       0.04400
   0    1013.0        0.0332        0.0001        2.3872        2.3873       2.354134       0.03862



 Wavenumbers:  3250. -  4000. cm-1, ATM      1
 LEVEL PRESSURE   UPWARD FLUX   DIFDOWN FLUX  DIRDOWN FLUX  DOWNWARD FLUX   NET FLUX    HEATING RATE
          mb          W/m2          W/m2          W/m2        W/m2          W/m2       degree/day
  51    .06700        0.0005        0.0000       10.1098       10.1098      10.109354       0.00000
  50    .07753        0.0005        0.0000       10.1049       10.1049      10.104387       3.98117
  49    .09103        0.0005        0.0000       10.1012       10.1012      10.100775       2.25749
  48    0.1069        0.0005        0.0000       10.0985       10.0985      10.098067       1.44156
  47    0.1255        0.0005        0.0000       10.0961       10.0961      10.095671       1.08638
  46    0.1487        0.0005        0.0000       10.0936       10.0936      10.093104       0.93563
  45    0.1794        0.0005        0.0000       10.0905       10.0905      10.090066       0.83402
  44    0.2165        0.0005        0.0000       10.0874       10.0874      10.086959       0.70680
  43    0.2613        0.0005        0.0000       10.0843       10.0843      10.083779       0.59934
  42    0.3336        0.0005        0.0000       10.0798       10.0798      10.079319       0.52000
  41    0.4307        0.0005        0.0000       10.0748       10.0748      10.074284       0.43779
  40    0.5894        0.0005        0.0000       10.0675       10.0675      10.066992       0.38779
  39     1.339        0.0005        0.0000       10.0396       10.0396      10.039117       0.31382
  38     1.782        0.0005        0.0000       10.0272       10.0272      10.026769       0.23508
  37     2.292        0.0005        0.0000       10.0154       10.0154      10.014928       0.19612
  36     2.964        0.0005        0.0000       10.0021       10.0021      10.001670       0.16643
  35     3.853        0.0005        0.0000        9.9865        9.9865       9.986060       0.14814
  34     5.035        0.0005        0.0000        9.9670        9.9670       9.966532       0.13950
  33     6.613        0.0005        0.0000        9.9411        9.9412       9.940692       0.13814
  32     8.786        0.0005        0.0000        9.9052        9.9052       9.904740       0.13963
  31     11.80        0.0005        0.0000        9.8518        9.8519       9.851396       0.14935
  30     15.07        0.0005        0.0000        9.7928        9.7928       9.792369       0.15240
  29     18.79        0.0004        0.0000        9.7252        9.7252       9.724764       0.15328
  28     23.16        0.0004        0.0000        9.6468        9.6468       9.646364       0.15160
  27     28.12        0.0004        0.0000        9.5604        9.5605       9.560041       0.14674
  26     33.73        0.0004        0.0000        9.4705        9.4706       9.470136       0.13517
  25     40.54        0.0004        0.0001        9.3721        9.3722       9.371772       0.12203
  24     48.69        0.0004        0.0001        9.2668        9.2669       9.266464       0.10898
  23     57.69        0.0004        0.0001        9.1619        9.1620       9.161556       0.09834
  22     68.43        0.0004        0.0001        9.0443        9.0444       9.044055       0.09237
  21     81.20        0.0004        0.0001        8.9082        8.9083       8.907946       0.08994
  20     96.49        0.0003        0.0001        8.7490        8.7492       8.748821       0.08783
  19     114.6        0.0003        0.0001        8.5585        8.5587       8.558329       0.08895
  18     136.5        0.0003        0.0002        8.3474        8.3475       8.347231       0.08117
  17     162.9        0.0003        0.0002        8.1019        8.1020       8.101768       0.07846
  16     196.4        0.0002        0.0002        7.7511        7.7513       7.751028       0.08829
  15     218.7        0.0002        0.0002        7.4250        7.4252       7.424984       0.12379
  14     243.0        0.0002        0.0002        6.9852        6.9854       6.985251       0.15251
  13     269.0        0.0002        0.0002        6.4322        6.4324       6.432236       0.17940
  12     297.5        0.0001        0.0002        5.7945        5.7948       5.794639       0.18910
  11     328.5        0.0001        0.0002        5.1487        5.1490       5.148847       0.17559
  10     361.9        0.0001        0.0002        4.5176        4.5178       4.517737       0.15968
   9     398.1        0.0001        0.0002        3.9254        3.9256       3.925556       0.13796
   8     437.6        0.0001        0.0002        3.3781        3.3783       3.378193       0.11703
   7     480.5        0.0001        0.0002        2.8849        2.8851       2.885003       0.09686
   6     533.0        0.0000        0.0002        2.3630        2.3632       2.363141       0.08395
   5     589.8        0.0000        0.0001        1.8664        1.8665       1.866484       0.07372
   4     651.6        0.0000        0.0004        1.3575        1.3579       1.357894       0.06955
   3     718.7        0.0000        0.0003        0.8863        0.8867       0.886635       0.05922
   2     792.3        0.0000        0.0002        0.4955        0.4956       0.495624       0.04484
   1     891.5        0.0000        0.0001        0.1576        0.1576       0.157573       0.02877
   0    1013.0        0.0004        0.0000        0.0163        0.0163       0.015955       0.00983



 Wavenumbers:  4000. -  4650. cm-1, ATM      1
 LEVEL PRESSURE   UPWARD FLUX   DIFDOWN FLUX  DIRDOWN FLUX  DOWNWARD FLUX   NET FLUX    HEATING RATE
          mb          W/m2          W/m2          W/m2        W/m2          W/m2       degree/day
  51    .06700        1.2004        0.0000       11.8720       11.8720      10.671564       0.00000
  50    .07753        1.2004        0.0000       11.8720       11.8720      10.671563       0.00080
  49    .09103        1.2004        0.0000       11.8720       11.8720      10.671562       0.00078
  48    0.1069        1.2004        0.0000       11.8720       11.8720      10.671561       0.00076
  47    0.1255        1.2004        0.0000       11.8720       11.8720      10.671559       0.00075
  46    0.1487        1.2004        0.0000       11.8720       11.8720      10.671557       0.00076
  45    0.1794        1.2004        0.0000       11.8720       11.8720      10.671554       0.00078
  44    0.2165        1.2004        0.0000       11.8720       11.8720      10.671551       0.00076
  43    0.2613        1.2004        0.0000       11.8720       11.8720      10.671547       0.00075
  42    0.3336        1.2004        0.0000       11.8720       11.8720      10.671540       0.00077
  41    0.4307        1.2004        0.0000       11.8720       11.8720      10.671531       0.00077
  40    0.5894        1.2004        0.0000       11.8719       11.8719      10.671516       0.00080
  39     1.339        1.2004        0.0000       11.8718       11.8719      10.671427       0.00101
  38     1.782        1.2004        0.0000       11.8718       11.8718      10.671357       0.00133
  37     2.292        1.2004        0.0000       11.8717       11.8717      10.671263       0.00156
  36     2.964        1.2004        0.0000       11.8715       11.8715      10.671123       0.00176
  35     3.853        1.2004        0.0000       11.8713       11.8713      10.670915       0.00197
  34     5.035        1.2004        0.0000       11.8710       11.8710      10.670608       0.00219
  33     6.613        1.2004        0.0000       11.8705       11.8706      10.670157       0.00241
  32     8.786        1.2004        0.0000       11.8699       11.8699      10.669490       0.00259
  31     11.80        1.2004        0.0000       11.8688       11.8688      10.668443       0.00293
  30     15.07        1.2004        0.0001       11.8675       11.8676      10.667214       0.00317
  29     18.79        1.2004        0.0001       11.8660       11.8661      10.665728       0.00337
  28     23.16        1.2004        0.0001       11.8642       11.8642      10.663884       0.00357
  27     28.12        1.2003        0.0001       11.8619       11.8620      10.661650       0.00380
  26     33.73        1.2003        0.0001       11.8591       11.8592      10.658895       0.00414
  25     40.54        1.2003        0.0002       11.8553       11.8555      10.655158       0.00464
  24     48.69        1.2003        0.0002       11.8503       11.8505      10.650177       0.00515
  23     57.69        1.2003        0.0002       11.8443       11.8445      10.644272       0.00554
  22     68.43        1.2003        0.0003       11.8369       11.8371      10.636874       0.00582
  21     81.20        1.2002        0.0003       11.8277       11.8280      10.627764       0.00602
  20     96.49        1.2002        0.0004       11.8165       11.8169      10.616676       0.00612
  19     114.6        1.2002        0.0004       11.8026       11.8031      10.602834       0.00646
  18     136.5        1.2002        0.0005       11.7859       11.7864      10.586167       0.00641
  17     162.9        1.2003        0.0006       11.7654       11.7660      10.565778       0.00652
  16     196.4        1.2003        0.0007       11.7374       11.7381      10.537739       0.00706
  15     218.7        1.2005        0.0008       11.7161       11.7169      10.516431       0.00809
  14     243.0        1.2006        0.0009       11.6880       11.6889      10.488281       0.00976
  13     269.0        1.2010        0.0010       11.6499       11.6509      10.449963       0.01243
  12     297.5        1.2015        0.0011       11.5992       11.6003      10.398783       0.01518
  11     328.5        1.2022        0.0012       11.5354       11.5366      10.334402       0.01750
  10     361.9        1.2032        0.0013       11.4536       11.4549      10.251731       0.02092
   9     398.1        1.2044        0.0014       11.3479       11.3493      10.144897       0.02489
   8     437.6        1.2060        0.0016       11.2133       11.2148      10.008839       0.02909
   7     480.5        1.2079        0.0017       11.0529       11.0546       9.846695       0.03184
   6     533.0        1.2109        0.0019       10.8451       10.8470       9.636140       0.03387
   5     589.8        1.2150        0.0020       10.6112       10.6132       9.398203       0.03532
   4     651.6        1.2212        0.0021       10.3173       10.3194       9.098175       0.04103
   3     718.7        1.2311        0.0022        9.9309        9.9332       8.702079       0.04978
   2     792.3        1.2474        0.0023        9.4281        9.4304       8.182972       0.05954
   1     891.5        1.2851        0.0024        8.7097        8.7121       7.426967       0.06433
   0    1013.0        1.3740        0.0025        7.9266        7.9291       6.555012       0.06054



 Wavenumbers:  4650. -  5150. cm-1, ATM      1
 LEVEL PRESSURE   UPWARD FLUX   DIFDOWN FLUX  DIRDOWN FLUX  DOWNWARD FLUX   NET FLUX    HEATING RATE
          mb          W/m2          W/m2          W/m2        W/m2          W/m2       degree/day
  51    .06700        0.3000        0.0000       11.2374       11.2374      10.937441       0.00000
  50    .07753        0.3000        0.0000       11.2372       11.2372      10.937205       0.18905
  49    .09103        0.3000        0.0000       11.2369       11.2369      10.936910       0.18441
  48    0.1069        0.3000        0.0000       11.2365       11.2365      10.936573       0.17953
  47    0.1255        0.3000        0.0000       11.2361       11.2361      10.936188       0.17459
  46    0.1487        0.3000        0.0000       11.2357       11.2357      10.935705       0.17582
  45    0.1794        0.3000        0.0000       11.2350       11.2350      10.935053       0.17915
  44    0.2165        0.3000        0.0000       11.2342       11.2342      10.934290       0.17362
  43    0.2613        0.3000        0.0000       11.2334       11.2334      10.933398       0.16795
  42    0.3336        0.3000        0.0000       11.2319       11.2319      10.931954       0.16842
  41    0.4307        0.3000        0.0000       11.2300       11.2300      10.930093       0.16183
  40    0.5894        0.3000        0.0000       11.2271       11.2271      10.927182       0.15477
  39     1.339        0.2999        0.0000       11.2152       11.2152      10.915244       0.13440
  38     1.782        0.2999        0.0000       11.2094       11.2094      10.909442       0.11046
  37     2.292        0.2999        0.0000       11.2036       11.2036      10.903651       0.09592
  36     2.964        0.2999        0.0000       11.1972       11.1972      10.897272       0.08008
  35     3.853        0.2999        0.0000       11.1904       11.1904      10.890479       0.06447
  34     5.035        0.2999        0.0000       11.1834       11.1834      10.883478       0.05001
  33     6.613        0.2999        0.0000       11.1762       11.1763      10.876342       0.03815
  32     8.786        0.2999        0.0000       11.1686       11.1687      10.868743       0.02951
  31     11.80        0.2999        0.0001       11.1591       11.1592      10.859276       0.02651
  30     15.07        0.2999        0.0001       11.1490       11.1491      10.849196       0.02602
  29     18.79        0.2999        0.0001       11.1368       11.1369      10.837070       0.02749
  28     23.16        0.2998        0.0001       11.1214       11.1215      10.821649       0.02982
  27     28.12        0.2998        0.0002       11.1021       11.1022      10.802390       0.03274
  26     33.73        0.2998        0.0002       11.0786       11.0788      10.779037       0.03511
  25     40.54        0.2998        0.0002       11.0482       11.0485      10.748695       0.03764
  24     48.69        0.2997        0.0003       11.0093       11.0095      10.709807       0.04024
  23     57.69        0.2997        0.0003       10.9647       10.9650      10.665261       0.04176
  22     68.43        0.2997        0.0004       10.9102       10.9106      10.610881       0.04275
  21     81.20        0.2996        0.0004       10.8451       10.8455      10.545897       0.04294
  20     96.49        0.2996        0.0005       10.7696       10.7701      10.470471       0.04163
  19     114.6        0.2996        0.0006       10.6845       10.6851      10.385507       0.03967
  18     136.5        0.2995        0.0007       10.5917       10.5924      10.292923       0.03560
  17     162.9        0.2995        0.0008       10.4923       10.4931      10.193614       0.03174
  16     196.4        0.2995        0.0010       10.3775       10.3785      10.079063       0.02883
  15     218.7        0.2995        0.0011       10.3072       10.3083      10.008812       0.02667
  14     243.0        0.2995        0.0012       10.2316       10.2328       9.933280       0.02620
  13     269.0        0.2996        0.0014       10.1469       10.1483       9.848662       0.02745
  12     297.5        0.2998        0.0015       10.0474       10.0489       9.749100       0.02953
  11     328.5        0.3000        0.0016        9.9321        9.9338       9.633752       0.03136
  10     361.9        0.3003        0.0018        9.7977        9.7995       9.499144       0.03406
   9     398.1        0.3008        0.0019        9.6395        9.6414       9.340544       0.03695
   8     437.6        0.3015        0.0020        9.4536        9.4556       9.154145       0.03985
   7     480.5        0.3023        0.0022        9.2366        9.2388       8.936451       0.04275
   6     533.0        0.3037        0.0023        8.9485        8.9508       8.647112       0.04655
   5     589.8        0.3056        0.0024        8.6142        8.6166       8.311014       0.04989
   4     651.6        0.3086        0.0025        8.2221        8.2246       7.916080       0.05401
   3     718.7        0.3129        0.0026        7.7849        7.7875       7.474558       0.05549
   2     792.3        0.3197        0.0027        7.3128        7.3155       6.995825       0.05491
   1     891.5        0.3341        0.0028        6.6900        6.6927       6.358672       0.05422
   0    1013.0        0.3636        0.0027        5.9980        6.0008       5.637163       0.05010



 Wavenumbers:  5150. -  6150. cm-1, ATM      1
 LEVEL PRESSURE   UPWARD FLUX   DIFDOWN FLUX  DIRDOWN FLUX  DOWNWARD FLUX   NET FLUX    HEATING RATE
          mb          W/m2          W/m2          W/m2        W/m2          W/m2       degree/day
  51    .06700        2.6171        0.0000       28.1722       28.1722      25.555108       0.00000
  50    .07753        2.6171        0.0000       28.1722       28.1722      25.555068       0.03157
  49    .09103        2.6171        0.0000       28.1721       28.1721      25.555017       0.03205
  48    0.1069        2.6171        0.0000       28.1720       28.1720      25.554956       0.03256
  47    0.1255        2.6171        0.0000       28.1720       28.1720      25.554883       0.03306
  46    0.1487        2.6171        0.0000       28.1719       28.1719      25.554787       0.03484
  45    0.1794        2.6171        0.0000       28.1717       28.1717      25.554652       0.03708
  44    0.2165        2.6171        0.0000       28.1716       28.1716      25.554487       0.03764
  43    0.2613        2.6171        0.0000       28.1714       28.1714      25.554284       0.03823
  42    0.3336        2.6171        0.0000       28.1710       28.1710      25.553938       0.04039
  41    0.4307        2.6171        0.0000       28.1705       28.1705      25.553467       0.04094
  40    0.5894        2.6171        0.0000       28.1697       28.1698      25.552678       0.04196
  39     1.339        2.6171        0.0000       28.1659       28.1659      25.548874       0.04282
  38     1.782        2.6171        0.0000       28.1637       28.1637      25.546658       0.04219
  37     2.292        2.6170        0.0001       28.1611       28.1612      25.544149       0.04156
  36     2.964        2.6170        0.0001       28.1579       28.1580      25.540958       0.04005
  35     3.853        2.6170        0.0001       28.1538       28.1539      25.536899       0.03852
  34     5.035        2.6170        0.0001       28.1485       28.1487      25.531665       0.03739
  33     6.613        2.6170        0.0002       28.1416       28.1418      25.524863       0.03637
  32     8.786        2.6169        0.0002       28.1327       28.1329      25.516026       0.03432
  31     11.80        2.6169        0.0003       28.1206       28.1209      25.504036       0.03357
  30     15.07        2.6168        0.0004       28.1084       28.1088      25.491968       0.03116
  29     18.79        2.6168        0.0005       28.0956       28.0961      25.479303       0.02872
  28     23.16        2.6167        0.0006       28.0817       28.0823      25.465597       0.02650
  27     28.12        2.6166        0.0007       28.0670       28.0677      25.451120       0.02461
  26     33.73        2.6165        0.0009       28.0520       28.0528      25.436325       0.02224
  25     40.54        2.6164        0.0011       28.0355       28.0366      25.420138       0.02008
  24     48.69        2.6163        0.0013       28.0178       28.0191      25.402801       0.01794
  23     57.69        2.6162        0.0015       28.0002       28.0017      25.385508       0.01621
  22     68.43        2.6161        0.0018       27.9810       27.9828      25.366706       0.01478
  21     81.20        2.6159        0.0021       27.9598       27.9620      25.346002       0.01368
  20     96.49        2.6158        0.0025       27.9359       27.9385      25.322667       0.01288
  19     114.6        2.6156        0.0030       27.9085       27.9115      25.295911       0.01249
  18     136.5        2.6154        0.0036       27.8766       27.8802      25.264796       0.01196
  17     162.9        2.6152        0.0042       27.8296       27.8339      25.218712       0.01473
  16     196.4        2.6149        0.0051       27.7311       27.7362      25.121378       0.02450
  15     218.7        2.6147        0.0056       27.5818       27.5875      24.972751       0.05643
  14     243.0        2.6146        0.0062       27.2669       27.2731      24.658531       0.10898
  13     269.0        2.6144        0.0067       26.6955       26.7022      24.087748       0.18516
  12     297.5        2.6144        0.0072       25.9385       25.9457      23.331252       0.22437
  11     328.5        2.6145        0.0077       25.1714       25.1791      22.564570       0.20846
  10     361.9        2.6147        0.0081       24.3139       24.3220      21.707335       0.21689
   9     398.1        2.6151        0.0086       23.3241       23.3327      20.717642       0.23058
   8     437.6        2.6157        0.0089       22.2328       22.2417      19.625995       0.23340
   7     480.5        2.6166        0.0097       21.1073       21.1170      18.500387       0.22107
   6     533.0        2.6184        0.0100       19.8218       19.8318      17.213449       0.20703
   5     589.8        2.6213        0.0104       18.5867       18.5972      15.975885       0.18370
   4     651.6        2.6266        0.0107       17.4119       17.4226      14.796040       0.16135
   3     718.7        2.6361        0.0112       16.4317       16.4429      13.806813       0.12432
   2     792.3        2.6537        0.0117       15.5989       15.6107      12.956959       0.09747
   1     891.5        2.6994        0.0125       14.5760       14.5885      11.889132       0.09087
   0    1013.0        2.8309        0.0134       13.4246       13.4380      10.607062       0.08902



 Wavenumbers:  6150. -  7700. cm-1, ATM      1
 LEVEL PRESSURE   UPWARD FLUX   DIFDOWN FLUX  DIRDOWN FLUX  DOWNWARD FLUX   NET FLUX    HEATING RATE
          mb          W/m2          W/m2          W/m2        W/m2          W/m2       degree/day
  51    .06700        4.1907        0.0000       52.1056       52.1056      47.914812       0.00000
  50    .07753        4.1907        0.0000       52.1055       52.1055      47.914755       0.04553
  49    .09103        4.1907        0.0000       52.1054       52.1054      47.914682       0.04583
  48    0.1069        4.1907        0.0000       52.1053       52.1053      47.914595       0.04614
  47    0.1255        4.1907        0.0000       52.1052       52.1052      47.914493       0.04645
  46    0.1487        4.1907        0.0000       52.1051       52.1051      47.914360       0.04852
  45    0.1794        4.1907        0.0000       52.1049       52.1049      47.914173       0.05127
  44    0.2165        4.1907        0.0000       52.1047       52.1047      47.913946       0.05168
  43    0.2613        4.1907        0.0000       52.1044       52.1044      47.913669       0.05211
  42    0.3336        4.1907        0.0000       52.1039       52.1039      47.913200       0.05472
  41    0.4307        4.1907        0.0000       52.1032       52.1033      47.912565       0.05523
  40    0.5894        4.1907        0.0001       52.1021       52.1022      47.911505       0.05636
  39     1.339        4.1906        0.0001       52.0969       52.0970      47.906408       0.05738
  38     1.782        4.1906        0.0002       52.0938       52.0940      47.903434       0.05663
  37     2.292        4.1905        0.0002       52.0903       52.0906      47.900051       0.05603
  36     2.964        4.1905        0.0003       52.0859       52.0862      47.895721       0.05435
  35     3.853        4.1904        0.0004       52.0801       52.0805      47.890168       0.05270
  34     5.035        4.1903        0.0006       52.0727       52.0732      47.882956       0.05152
  33     6.613        4.1901        0.0007       52.0629       52.0636      47.873514       0.05047
  32     8.786        4.1899        0.0010       52.0501       52.0510      47.861123       0.04812
  31     11.80        4.1896        0.0013       52.0323       52.0337      47.844054       0.04779
  30     15.07        4.1893        0.0017       52.0142       52.0158      47.826550       0.04519
  29     18.79        4.1889        0.0021       51.9946       51.9967      47.807786       0.04254
  28     23.16        4.1885        0.0026       51.9729       51.9755      47.787020       0.04016
  27     28.12        4.1880        0.0031       51.9494       51.9526      47.764548       0.03820
  26     33.73        4.1875        0.0037       51.9248       51.9285      47.741051       0.03533
  25     40.54        4.1868        0.0045       51.8970       51.9015      47.714679       0.03272
  24     48.69        4.1860        0.0054       51.8662       51.8716      47.685569       0.03012
  23     57.69        4.1851        0.0064       51.8347       51.8411      47.655942       0.02777
  22     68.43        4.1841        0.0075       51.7995       51.8070      47.622944       0.02594
  21     81.20        4.1829        0.0089       51.7599       51.7688      47.585960       0.02444
  20     96.49        4.1814        0.0106       51.7145       51.7251      47.543751       0.02330
  19     114.6        4.1796        0.0126       51.6618       51.6745      47.494838       0.02284
  18     136.5        4.1775        0.0150       51.6001       51.6150      47.437502       0.02205
  17     162.9        4.1750        0.0178       51.5120       51.5298      47.354761       0.02645
  16     196.4        4.1718        0.0214       51.3371       51.3585      47.186706       0.04230
  15     218.7        4.1698        0.0238       51.1013       51.1250      46.955239       0.08788
  14     243.0        4.1676        0.0261       50.6667       50.6928      46.525203       0.14915
  13     269.0        4.1654        0.0285       49.8836       49.9120      45.746661       0.25256
  12     297.5        4.1632        0.0306       48.6664       48.6971      44.533884       0.35970
  11     328.5        4.1611        0.0334       47.2910       47.3244      43.163281       0.37266
  10     361.9        4.1592        0.0353       45.8290       45.8643      41.705064       0.36894
   9     398.1        4.1577        0.0379       44.1777       44.2156      40.057866       0.38376
   8     437.6        4.1568        0.0393       42.2573       42.2965      38.139704       0.41011
   7     480.5        4.1569        0.0419       40.1736       40.2155      36.058566       0.40873
   6     533.0        4.1588        0.0428       37.6874       37.7303      33.571464       0.40010
   5     589.8        4.1643        0.0440       35.0920       35.1360      30.971702       0.38589
   4     651.6        4.1774        0.0453       32.3072       32.3525      28.175091       0.38244
   3     718.7        4.2033        0.0470       29.5712       29.6182      25.414934       0.34688
   2     792.3        4.2538        0.0469       26.9070       26.9539      22.700156       0.31135
   1     891.5        4.3858        0.0487       23.8281       23.8768      19.491032       0.27308
   0    1013.0        4.7484        0.0496       20.9124       20.9620      16.213675       0.22756



 Wavenumbers:  7700. -  8050. cm-1, ATM      1
 LEVEL PRESSURE   UPWARD FLUX   DIFDOWN FLUX  DIRDOWN FLUX  DOWNWARD FLUX   NET FLUX    HEATING RATE
          mb          W/m2          W/m2          W/m2        W/m2          W/m2       degree/day
  51    .06700        6.0452        0.0000       12.3141       12.3141       6.268854       0.00000
  50    .07753        6.0452        0.0000       12.3141       12.3141       6.268833       0.01743
  49    .09103        6.0452        0.0000       12.3141       12.3141       6.268805       0.01709
  48    0.1069        6.0453        0.0000       12.3140       12.3140       6.268774       0.01673
  47    0.1255        6.0453        0.0000       12.3140       12.3140       6.268738       0.01637
  46    0.1487        6.0453        0.0000       12.3140       12.3140       6.268692       0.01661
  45    0.1794        6.0453        0.0000       12.3139       12.3139       6.268630       0.01709
  44    0.2165        6.0453        0.0000       12.3138       12.3138       6.268556       0.01677
  43    0.2613        6.0453        0.0000       12.3138       12.3138       6.268469       0.01645
  42    0.3336        6.0453        0.0000       12.3136       12.3137       6.268325       0.01683
  41    0.4307        6.0454        0.0000       12.3135       12.3135       6.268133       0.01665
  40    0.5894        6.0454        0.0000       12.3132       12.3132       6.267820       0.01663
  39     1.339        6.0457        0.0001       12.3119       12.3120       6.266340       0.01666
  38     1.782        6.0458        0.0001       12.3112       12.3113       6.265471       0.01655
  37     2.292        6.0460        0.0001       12.3103       12.3105       6.264465       0.01667
  36     2.964        6.0462        0.0002       12.3092       12.3094       6.263144       0.01659
  35     3.853        6.0465        0.0002       12.3077       12.3079       6.261398       0.01656
  34     5.035        6.0469        0.0003       12.3057       12.3060       6.259080       0.01656
  33     6.613        6.0475        0.0004       12.3031       12.3034       6.255983       0.01656
  32     8.786        6.0482        0.0005       12.2995       12.3000       6.251810       0.01621
  31     11.80        6.0492        0.0007       12.2944       12.2951       6.245844       0.01670
  30     15.07        6.0503        0.0008       12.2890       12.2898       6.239442       0.01653
  29     18.79        6.0516        0.0010       12.2828       12.2838       6.232216       0.01638
  28     23.16        6.0531        0.0013       12.2756       12.2769       6.223784       0.01630
  27     28.12        6.0548        0.0016       12.2674       12.2690       6.214155       0.01637
  26     33.73        6.0567        0.0019       12.2582       12.2601       6.203396       0.01618
  25     40.54        6.0590        0.0022       12.2472       12.2495       6.190423       0.01609
  24     48.69        6.0619        0.0027       12.2340       12.2367       6.174821       0.01615
  23     57.69        6.0650        0.0032       12.2195       12.2227       6.157734       0.01602
  22     68.43        6.0687        0.0038       12.2024       12.2061       6.137453       0.01594
  21     81.20        6.0732        0.0045       12.1821       12.1866       6.113392       0.01590
  20     96.49        6.0785        0.0053       12.1581       12.1634       6.084864       0.01575
  19     114.6        6.0850        0.0063       12.1299       12.1362       6.051193       0.01572
  18     136.5        6.0927        0.0075       12.0968       12.1043       6.011560       0.01524
  17     162.9        6.1021        0.0089       12.0579       12.0668       5.964735       0.01497
  16     196.4        6.1144        0.0107       12.0083       12.0190       5.904578       0.01514
  15     218.7        6.1226        0.0118       11.9761       11.9880       5.865370       0.01489
  14     243.0        6.1317        0.0131       11.9415       11.9547       5.822959       0.01471
  13     269.0        6.1417        0.0145       11.9044       11.9189       5.777161       0.01486
  12     297.5        6.1528        0.0160       11.8645       11.8805       5.727727       0.01466
  11     328.5        6.1651        0.0176       11.8217       11.8394       5.674321       0.01452
  10     361.9        6.1786        0.0194       11.7759       11.7953       5.616687       0.01458
   9     398.1        6.1938        0.0213       11.7268       11.7481       5.554293       0.01454
   8     437.6        6.2108        0.0233       11.6740       11.6972       5.486478       0.01450
   7     480.5        6.2298        0.0254       11.6170       11.6424       5.412623       0.01450
   6     533.0        6.2547        0.0281       11.5460       11.5742       5.319497       0.01498
   5     589.8        6.2836        0.0310       11.4676       11.4986       5.214958       0.01552
   4     651.6        6.3184        0.0341       11.3786       11.4127       5.094337       0.01650
   3     718.7        6.3609        0.0374       11.2762       11.3136       4.952630       0.01781
   2     792.3        6.4149        0.0407       11.1549       11.1956       4.780726       0.01972
   1     891.5        6.5056        0.0452       10.9678       11.0131       4.507416       0.02326
   0    1013.0        6.6494        0.0505       10.7069       10.7574       4.107996       0.02773



 Wavenumbers:  8050. - 12850. cm-1, ATM      1
 LEVEL PRESSURE   UPWARD FLUX   DIFDOWN FLUX  DIRDOWN FLUX  DOWNWARD FLUX   NET FLUX    HEATING RATE
          mb          W/m2          W/m2          W/m2        W/m2          W/m2       degree/day
  51    .06700      101.8574        0.0000      172.4064      172.4064      70.548968       0.00000
  50    .07753      101.8574        0.0000      172.4064      172.4064      70.548968       0.00000
  49    .09103      101.8574        0.0001      172.4063      172.4064      70.548968       0.00000
  48    0.1069      101.8574        0.0001      172.4063      172.4064      70.548968      -0.00000
  47    0.1255      101.8574        0.0002      172.4062      172.4064      70.548968      -0.00000
  46    0.1487      101.8574        0.0002      172.4061      172.4063      70.548968       0.00000
  45    0.1794      101.8573        0.0003      172.4060      172.4063      70.548968      -0.00000
  44    0.2165      101.8573        0.0004      172.4058      172.4063      70.548968       0.00000
  43    0.2613      101.8572        0.0006      172.4056      172.4062      70.548968       0.00000
  42    0.3336      101.8572        0.0008      172.4054      172.4061      70.548968      -0.00000
  41    0.4307      101.8571        0.0011      172.4050      172.4060      70.548968      -0.00000
  40    0.5894      101.8569        0.0015      172.4044      172.4059      70.548968      -0.00000
  39     1.339      101.8561        0.0037      172.4014      172.4051      70.548968       0.00000
  38     1.782      101.8557        0.0050      172.3997      172.4047      70.548968       0.00000
  37     2.292      101.8552        0.0065      172.3976      172.4041      70.548968      -0.00000
  36     2.964      101.8545        0.0084      172.3950      172.4034      70.548968       0.00000
  35     3.853      101.8536        0.0110      172.3915      172.4025      70.548968       0.00000
  34     5.035      101.8523        0.0144      172.3869      172.4013      70.548968       0.00000
  33     6.613      101.8507        0.0190      172.3807      172.3997      70.548968       0.00000
  32     8.786      101.8485        0.0252      172.3723      172.3975      70.548968       0.00000
  31     11.80      101.8454        0.0341      172.3603      172.3944      70.548968       0.00000
  30     15.07      101.8420        0.0436      172.3474      172.3910      70.548968       0.00000
  29     18.79      101.8382        0.0543      172.3329      172.3872      70.548968      -0.00000
  28     23.16      101.8338        0.0669      172.3159      172.3828      70.548968      -0.00000
  27     28.12      101.8287        0.0813      172.2964      172.3777      70.548968       0.00000
  26     33.73      101.8230        0.0974      172.2745      172.3720      70.548968       0.00000
  25     40.54      101.8161        0.1170      172.2481      172.3650      70.548968       0.00000
  24     48.69      101.8077        0.1405      172.2162      172.3567      70.548968      -0.00000
  23     57.69      101.7986        0.1665      172.1811      172.3475      70.548968       0.00000
  22     68.43      101.7876        0.1974      172.1392      172.3366      70.548968      -0.00000
  21     81.20      101.7745        0.2343      172.0892      172.3235      70.548968      -0.00000
  20     96.49      101.7589        0.2784      172.0296      172.3079      70.548968       0.00000
  19     114.6      101.7406        0.3308      171.9526      172.2833      70.542738       0.00291
  18     136.5      101.7188        0.3930      171.8607      172.2538      70.535006       0.00297
  17     162.9      101.6927        0.4673      171.7476      172.2149      70.522172       0.00410
  16     196.4      101.6590        0.5640      171.5843      172.1483      70.489255       0.00829
  15     218.7      101.6370        0.6275      171.4372      172.0647      70.427734       0.02336
  14     243.0      101.6136        0.6965      171.1990      171.8955      70.281899       0.05058
  13     269.0      101.5895        0.7712      170.8074      171.5785      69.989052       0.09500
  12     297.5      101.5660        0.8519      170.2284      171.0803      69.514293       0.14081
  11     328.5      101.5438        0.9383      169.5292      170.4675      68.923773       0.16056
  10     361.9      101.5246        1.0316      168.6952      169.7269      68.202258       0.18255
   9     398.1      101.5113        1.1315      167.6554      168.7869      67.275592       0.21589
   8     437.6      101.5086        1.2374      166.3207      167.5581      66.049422       0.26216
   7     480.5      101.5225        1.3495      164.6596      166.0091      64.486617       0.30693
   6     533.0      101.5710        1.4865      162.3032      163.7897      62.218665       0.36484
   5     589.8      101.6808        1.6272      159.3088      160.9360      59.255162       0.43988
   4     651.6      101.9192        1.7753      155.3247      157.1000      55.180800       0.55718
   3     718.7      102.3735        1.9233      150.4721      152.3954      50.021947       0.64832
   2     792.3      103.2361        2.0730      144.6549      146.7279      43.491723       0.74894
   1     891.5      105.4106        2.2527      136.1575      138.4102      32.999596       0.89283
   0    1013.0      110.7654        2.4529      126.2286      128.6814      17.916021       1.04733



 Wavenumbers: 12850. - 16000. cm-1, ATM      1
 LEVEL PRESSURE   UPWARD FLUX   DIFDOWN FLUX  DIRDOWN FLUX  DOWNWARD FLUX   NET FLUX    HEATING RATE
          mb          W/m2          W/m2          W/m2        W/m2          W/m2       degree/day
  51    .06700       87.8213        0.0000      108.0279      108.0279      20.206534       0.00000
  50    .07753       87.8213        0.0001      108.0270      108.0271      20.205740       0.63636
  49    .09103       87.8213        0.0002      108.0259      108.0261      20.204742       0.62408
  48    0.1069       87.8213        0.0003      108.0247      108.0249      20.203592       0.61165
  47    0.1255       87.8214        0.0004      108.0232      108.0236      20.202270       0.59959
  46    0.1487       87.8214        0.0005      108.0215      108.0220      20.200597       0.60969
  45    0.1794       87.8215        0.0008      108.0190      108.0198      20.198316       0.62619
  44    0.2165       87.8216        0.0010      108.0162      108.0172      20.195625       0.61218
  43    0.2613       87.8217        0.0013      108.0129      108.0142      20.192450       0.59850
  42    0.3336       87.8220        0.0018      108.0075      108.0092      20.187242       0.60721
  41    0.4307       87.8225        0.0024      108.0005      108.0030      20.180485       0.58750
  40    0.5894       87.8234        0.0035      107.9897      107.9932      20.169753       0.57070
  39     1.339       87.8311        0.0085      107.9429      107.9514      20.120323       0.55649
  38     1.782       87.8379        0.0114      107.9170      107.9284      20.090435       0.56902
  37     2.292       87.8481        0.0148      107.8866      107.9013      20.053267       0.61560
  36     2.964       87.8648        0.0192      107.8447      107.8639      19.999119       0.67972
  35     3.853       87.8916        0.0251      107.7854      107.8105      19.918852       0.76175
  34     5.035       87.9320        0.0329      107.7024      107.7353      19.803327       0.82526
  33     6.613       87.9883        0.0433      107.5902      107.6335      19.645207       0.84531
  32     8.786       88.0616        0.0573      107.4443      107.5016      19.440004       0.79693
  31     11.80       88.1572        0.0774      107.2509      107.3283      19.171098       0.75285
  30     15.07       88.2490        0.0989      107.0607      107.1596      18.910537       0.67272
  29     18.79       88.3430        0.1231      106.8615      106.9847      18.641622       0.60971
  28     23.16       88.4416        0.1514      106.6468      106.7982      18.356656       0.55103
  27     28.12       88.5412        0.1839      106.4221      106.6059      18.064774       0.49618
  26     33.73       88.6338        0.2202      106.1997      106.4198      17.786004       0.41914
  25     40.54       88.7240        0.2640      105.9647      106.2287      17.504631       0.34908
  24     48.69       88.8117        0.3168      105.7151      106.0319      17.220217       0.29432
  23     57.69       88.8874        0.3749      105.4739      105.8488      16.961361       0.24264
  22     68.43       88.9555        0.4442      105.2226      105.6667      16.711276       0.19660
  21     81.20       89.0061        0.5268      104.9711      105.4979      16.491800       0.14503
  20     96.49       89.0382        0.6253      104.7165      105.3418      16.303645       0.10385
  19     114.6       89.0777        0.7437      104.4370      105.1807      16.103025       0.09368
  18     136.5       89.1116        0.8841      104.1231      105.0072      15.895572       0.07977
  17     162.9       89.1402        1.0514      103.7617      104.8131      15.672945       0.07116
  16     196.4       89.1521        1.2684      103.3157      104.5841      15.431941       0.06066
  15     218.7       89.1510        1.4109      103.0288      104.4397      15.288757       0.05436
  14     243.0       89.1458        1.5658      102.7172      104.2830      15.137246       0.05255
  13     269.0       89.1365        1.7338      102.3791      104.1129      14.976410       0.05217
  12     297.5       89.1237        1.9155      102.0110      103.9265      14.802814       0.05149
  11     328.5       89.1095        2.1118      101.6092      103.7210      14.611441       0.05203
  10     361.9       89.0950        2.3233      101.1710      103.4942      14.399225       0.05369
   9     398.1       89.0815        2.5510      100.6917      103.2427      14.161170       0.05546
   8     437.6       89.0721        2.7956      100.1639      102.9594      13.887322       0.05855
   7     480.5       89.0696        3.0577       99.5812      102.6389      13.569258       0.06247
   6     533.0       89.0818        3.3808       98.8330      102.2138      13.131981       0.07034
   5     589.8       89.1238        3.7280       97.9725      101.7006      12.576746       0.08242
   4     651.6       89.2287        4.0993       96.9394      101.0387      11.810027       0.10485
   3     718.7       89.4182        4.4936       95.7213      100.2149      10.796688       0.12735
   2     792.3       89.7627        4.9067       94.2507       99.1574       9.394655       0.16080
   1     891.5       90.5647        5.4458       91.9984       97.4441       6.879437       0.21403
   0    1013.0       92.2128        6.0659       89.0422       95.1081       2.895315       0.27664



 Wavenumbers: 16000. - 22650. cm-1, ATM      1
 LEVEL PRESSURE   UPWARD FLUX   DIFDOWN FLUX  DIRDOWN FLUX  DOWNWARD FLUX   NET FLUX    HEATING RATE
          mb          W/m2          W/m2          W/m2        W/m2          W/m2       degree/day
  51    .06700      155.2664        0.0000      172.2385      172.2385      16.972031       0.00000
  50    .07753      155.2664        0.0004      172.2379      172.2383      16.971877       0.12353
  49    .09103      155.2664        0.0009      172.2372      172.2381      16.971653       0.14011
  48    0.1069      155.2665        0.0015      172.2363      172.2378      16.971352       0.15977
  47    0.1255      155.2665        0.0022      172.2353      172.2375      16.970951       0.18212
  46    0.1487      155.2666        0.0031      172.2339      172.2370      16.970359       0.21581
  45    0.1794      155.2668        0.0042      172.2320      172.2363      16.969433       0.25410
  44    0.2165      155.2672        0.0056      172.2297      172.2353      16.968178       0.28558
  43    0.2613      155.2677        0.0073      172.2268      172.2341      16.966474       0.32106
  42    0.3336      155.2686        0.0100      172.2219      172.2319      16.963236       0.37757
  41    0.4307      155.2702        0.0137      172.2149      172.2286      16.958355       0.42443
  40    0.5894      155.2734        0.0196      172.2029      172.2225      16.949045       0.49508
  39     1.339      155.3000        0.0476      172.1326      172.1803      16.880261       0.77438
  38     1.782      155.3240        0.0641      172.0816      172.1457      16.821664       1.11561
  37     2.292      155.3596        0.0832      172.0133      172.0964      16.736839       1.40491
  36     2.964      155.4184        0.1082      171.9097      172.0178      16.599414       1.72511
  35     3.853      155.5131        0.1412      171.7532      171.8944      16.381330       2.06965
  34     5.035      155.6555        0.1850      171.5264      171.7114      16.055917       2.32462
  33     6.613      155.8544        0.2435      171.2145      171.4580      15.603590       2.41814
  32     8.786      156.1136        0.3222      170.8061      171.1284      15.014839       2.28650
  31     11.80      156.4515        0.4348      170.2631      170.6978      14.246380       2.15144
  30     15.07      156.7759        0.5554      169.7274      170.2828      13.506832       1.90937
  29     18.79      157.1079        0.6915      169.1650      169.8565      12.748540       1.71928
  28     23.16      157.4559        0.8503      168.5570      169.4073      11.951412       1.54139
  27     28.12      157.8073        1.0317      167.9182      168.9499      11.142609       1.37491
  26     33.73      158.1337        1.2346      167.2816      168.5162      10.382541       1.14278
  25     40.54      158.4506        1.4796      166.6019      168.0816       9.630964       0.93242
  24     48.69      158.7575        1.7748      165.8692      167.6440       8.886525       0.77038
  23     57.69      159.0218        2.0987      165.1474      167.2462       8.224319       0.62072
  22     68.43      159.2582        2.4843      164.3763      166.8606       7.602381       0.48893
  21     81.20      159.4324        2.9437      163.5763      166.5200       7.087646       0.34013
  20     96.49      159.5400        3.4907      162.7327      166.2235       6.683518       0.22305
  19     114.6      159.6164        4.1388      161.7909      165.9297       6.313326       0.17285
  18     136.5      159.6720        4.9046      160.7164      165.6210       5.948962       0.14011
  17     162.9      159.7064        5.8129      159.4773      165.2901       5.583758       0.11673
  16     196.4      159.6823        6.9860      157.9514      164.9374       5.255066       0.08274
  15     218.7      159.6413        7.7532      156.9811      164.7343       5.093039       0.06152
  14     243.0      159.5849        8.5843      155.9431      164.5274       4.942485       0.05222
  13     269.0      159.5115        9.4815      154.8360      164.3175       4.805974       0.04428
  12     297.5      159.4205       10.4472      153.6573      164.1044       4.683930       0.03620
  11     328.5      159.3166       11.4861      152.3956      163.8817       4.565128       0.03230
  10     361.9      159.1994       12.5994      151.0498      163.6492       4.449725       0.02920
   9     398.1      159.0687       13.7915      149.6140      163.4055       4.336795       0.02631
   8     437.6      158.9256       15.0649      148.0838      163.1487       4.223034       0.02432
   7     480.5      158.7697       16.4221      146.4558      162.8779       4.108149       0.02256
   6     533.0      158.5768       18.0820      144.4661      162.5481       3.971265       0.02202
   5     589.8      158.3719       19.8584      142.3333      162.1917       3.819793       0.02248
   4     651.6      158.1620       21.7536      140.0452      161.7988       3.636794       0.02503
   3     718.7      157.9538       23.7702      137.5906      161.3607       3.406898       0.02889
   2     792.3      157.7659       25.9068      134.9517      160.8585       3.092530       0.03605
   1     891.5      157.5982       28.7505      131.3548      160.1053       2.507041       0.04982
   0    1013.0      157.5383       32.1030      127.0045      159.1075       1.569166       0.06512



 Wavenumbers: 22650. - 29000. cm-1, ATM      1
 LEVEL PRESSURE   UPWARD FLUX   DIFDOWN FLUX  DIRDOWN FLUX  DOWNWARD FLUX   NET FLUX    HEATING RATE
          mb          W/m2          W/m2          W/m2        W/m2          W/m2       degree/day
  51    .06700       64.6121        0.0000       64.9965       64.9965       0.384433       0.00000
  50    .07753       64.6120        0.0005       64.9960       64.9965       0.384433       0.00000
  49    .09103       64.6119        0.0011       64.9953       64.9964       0.384433      -0.00000
  48    0.1069       64.6118        0.0018       64.9945       64.9963       0.384433       0.00000
  47    0.1255       64.6117        0.0026       64.9936       64.9961       0.384433      -0.00000
  46    0.1487       64.6116        0.0036       64.9924       64.9960       0.384433       0.00000
  45    0.1794       64.6114        0.0050       64.9908       64.9958       0.384433       0.00000
  44    0.2165       64.6111        0.0066       64.9890       64.9956       0.384433       0.00000
  43    0.2613       64.6108        0.0085       64.9867       64.9953       0.384433       0.00000
  42    0.3336       64.6104        0.0117       64.9831       64.9948       0.384433       0.00000
  41    0.4307       64.6098        0.0160       64.9782       64.9942       0.384433      -0.00000
  40    0.5894       64.6088        0.0229       64.9703       64.9932       0.384433       0.00000
  39     1.339       64.6040        0.0557       64.9327       64.9884       0.384433       0.00000
  38     1.782       64.6012        0.0750       64.9106       64.9856       0.384433      -0.00000
  37     2.292       64.5979        0.0973       64.8851       64.9823       0.384433       0.00000
  36     2.964       64.5936        0.1265       64.8515       64.9781       0.384433       0.00000
  35     3.853       64.5880        0.1652       64.8073       64.9724       0.384433      -0.00000
  34     5.035       64.5805        0.2165       64.7484       64.9650       0.384433       0.00000
  33     6.613       64.5705        0.2851       64.6699       64.9550       0.384433      -0.00000
  32     8.786       64.5571        0.3773       64.5642       64.9415       0.384433       0.00000
  31     11.80       64.5379        0.5092       64.4131       64.9223       0.384433       0.00000
  30     15.07       64.5172        0.6506       64.2511       64.9017       0.384433       0.00000
  29     18.79       64.4940        0.8100       64.0684       64.8784       0.384433       0.00000
  28     23.16       64.4669        0.9958       63.8555       64.8513       0.384433       0.00000
  27     28.12       64.4360        1.2078       63.6126       64.8204       0.384433       0.00000
  26     33.73       64.4015        1.4443       63.3416       64.7859       0.384433       0.00000
  25     40.54       64.3600        1.7290       63.0154       64.7444       0.384433      -0.00000
  24     48.69       64.3102        2.0706       62.6240       64.6946       0.384433       0.00000
  23     57.69       64.2557        2.4439       62.1963       64.6401       0.384433       0.00000
  22     68.43       64.1912        2.8856       61.6901       64.5757       0.384433       0.00000
  21     81.20       64.1150        3.4078       61.0917       64.4995       0.384433       0.00000
  20     96.49       64.0250        4.0242       60.3853       64.4095       0.384433       0.00000
  19     114.6       63.9194        4.7476       59.5562       64.3038       0.384433      -0.00000
  18     136.5       63.7958        5.5934       58.5869       64.1803       0.384433       0.00000
  17     162.9       63.6511        6.5841       57.4514       64.0355       0.384433       0.00000
  16     196.4       63.4671        7.8424       56.0091       63.8515       0.384433      -0.00000
  15     218.7       63.3485        8.6528       55.0801       63.7329       0.384433       0.00000
  14     243.0       63.2216        9.5197       54.0863       63.6060       0.384433      -0.00000
  13     269.0       63.0864       10.4430       53.0278       63.4708       0.384433       0.00000
  12     297.5       62.9429       11.4221       51.9052       63.3274       0.384433       0.00000
  11     328.5       62.7909       12.4591       50.7163       63.1753       0.384433      -0.00000
  10     361.9       62.6306       13.5515       49.4636       63.0151       0.384433      -0.00000
   9     398.1       62.4620       14.7001       48.1464       62.8464       0.384433       0.00000
   8     437.6       62.2852       15.9030       46.7667       62.6696       0.384433       0.00000
   7     480.5       62.1006       17.1583       45.3267       62.4850       0.384433      -0.00000
   6     533.0       61.8799       18.6571       43.6072       62.2643       0.384433       0.00000
   5     589.8       61.6500       20.2160       41.8184       62.0344       0.384433      -0.00000
   4     651.6       61.4116       21.8305       39.9655       61.7960       0.384433       0.00000
   3     718.7       61.1653       23.4952       38.0546       61.5498       0.384433       0.00000
   2     792.3       60.9124       25.2017       36.0951       61.2968       0.384433       0.00000
   1     891.5       60.5881       27.3840       33.5886       60.9726       0.384433       0.00000
   0    1013.0       60.2229       29.8334       30.7739       60.6073       0.384433      -0.00000



 Wavenumbers: 29000. - 38000. cm-1, ATM      1
 LEVEL PRESSURE   UPWARD FLUX   DIFDOWN FLUX  DIRDOWN FLUX  DOWNWARD FLUX   NET FLUX    HEATING RATE
          mb          W/m2          W/m2          W/m2        W/m2          W/m2       degree/day
  51    .06700        9.7414        0.0000       22.9205       22.9205      13.179050       0.00000
  50    .07753        9.7413        0.0003       22.9162       22.9165      13.175241       3.05336
  49    .09103        9.7410        0.0007       22.9100       22.9107      13.169700       3.46342
  48    0.1069        9.7408        0.0012       22.9019       22.9031      13.162283       3.94803
  47    0.1255        9.7405        0.0017       22.8911       22.8929      13.152366       4.49581
  46    0.1487        9.7402        0.0024       22.8756       22.8780      13.137779       5.31693
  45    0.1794        9.7398        0.0034       22.8515       22.8548      13.115065       6.23557
  44    0.2165        9.7393        0.0044       22.8193       22.8237      13.084451       6.96420
  43    0.2613        9.7388        0.0057       22.7763       22.7821      13.043288       7.75899
  42    0.3336        9.7380        0.0078       22.6964       22.7042      12.966274       8.97917
  41    0.4307        9.7370        0.0106       22.5797       22.5903      12.853318       9.82119
  40    0.5894        9.7357        0.0150       22.3687       22.3837      12.648019      10.91757
  39     1.339        9.7337        0.0339       21.1625       21.1964      11.462735      13.34415
  38     1.782        9.7352        0.0437       20.4615       20.5052      10.770008      13.18841
  37     2.292        9.7393        0.0544       19.7394       19.7938      10.054530      11.85017
  36     2.964        9.7481        0.0672       18.9466       19.0138       9.265775       9.90126
  35     3.853        9.7643        0.0836       18.1064       18.1901       8.425824       7.97129
  34     5.035        9.7904        0.1045       17.2527       17.3571       7.566761       6.13679
  33     6.613        9.8279        0.1311       16.4227       16.5538       6.725878       4.49537
  32     8.786        9.8776        0.1671       15.6383       15.8055       5.927918       3.09899
  31     11.80        9.9426        0.2166       14.8684       15.0850       5.142413       2.19917
  30     15.07       10.0057        0.2678       14.2779       14.5457       4.539950       1.55544
  29     18.79       10.0714        0.3246       13.7668       14.0913       4.019980       1.17893
  28     23.16       10.1416        0.3894       13.2956       13.6850       3.543385       0.92158
  27     28.12       10.2142        0.4620       12.8630       13.3251       3.110896       0.73520
  26     33.73       10.2823        0.5423       12.4784       13.0207       2.738380       0.56009
  25     40.54       10.3487        0.6387       12.1052       12.7439       2.395220       0.42573
  24     48.69       10.4133        0.7531       11.7350       12.4881       2.074767       0.33162
  23     57.69       10.4688        0.8771       11.3950       12.2720       1.803253       0.25450
  22     68.43       10.5171        1.0232       11.0521       12.0754       1.558221       0.19263
  21     81.20       10.5480        1.1961       10.7139       11.9100       1.362008       0.12965
  20     96.49       10.5592        1.4000       10.3711       11.7711       1.211953       0.08282
  19     114.6       10.5604        1.6364       10.0017       11.6382       1.077789       0.06265
  18     136.5       10.5553        1.9078        9.5959       11.5037       0.948463       0.04973
  17     162.9       10.5442        2.2185        9.1469       11.3654       0.821180       0.04068
  16     196.4       10.5151        2.6054        8.6182       11.2237       0.708531       0.02836
  15     218.7       10.4915        2.8498        8.2950       11.1449       0.653388       0.02094
  14     243.0       10.4645        3.1063        7.9605       11.0668       0.602297       0.01772
  13     269.0       10.4339        3.3743        7.6158       10.9901       0.556270       0.01493
  12     297.5       10.3996        3.6525        7.2627       10.9151       0.515570       0.01207
  11     328.5       10.3633        3.9397        6.9001       10.8398       0.476486       0.01063
  10     361.9       10.3254        4.2347        6.5299       10.7645       0.439186       0.00944
   9     398.1       10.2859        4.5355        6.1541       10.6896       0.403725       0.00826
   8     437.6       10.2454        4.8410        5.7739       10.6148       0.369441       0.00733
   7     480.5       10.2041        5.1490        5.3919       10.5409       0.336795       0.00641
   6     533.0       10.1563        5.5026        4.9548       10.4574       0.301097       0.00574
   5     589.8       10.1089        5.8543        4.5210       10.3753       0.266414       0.00515
   4     651.6       10.0625        6.2010        4.0939       10.2949       0.232369       0.00466
   3     718.7       10.0178        6.5400        3.6767       10.2167       0.198921       0.00420
   2     792.3        9.9755        6.8675        3.2741       10.1416       0.166086       0.00377
   1     891.5        9.9270        7.2581        2.7943       10.0524       0.125422       0.00346
   0    1013.0        9.8809        7.6576        2.3036        9.9612       0.080375       0.00313



 Wavenumbers: 38000. - 50000. cm-1, ATM      1
 LEVEL PRESSURE   UPWARD FLUX   DIFDOWN FLUX  DIRDOWN FLUX  DOWNWARD FLUX   NET FLUX    HEATING RATE
          mb          W/m2          W/m2          W/m2        W/m2          W/m2       degree/day
  51    .06700        0.0063        0.0000        1.4137        1.4137       1.407396       0.00000
  50    .07753        0.0063        0.0001        1.4113        1.4113       1.405061       1.87191
  49    .09103        0.0062        0.0002        1.4078        1.4079       1.401727       2.08342
  48    0.1069        0.0061        0.0002        1.4032        1.4035       1.397345       2.33245
  47    0.1255        0.0060        0.0004        1.3972        1.3976       1.391583       2.61233
  46    0.1487        0.0059        0.0005        1.3886        1.3891       1.383241       3.04069
  45    0.1794        0.0058        0.0007        1.3755        1.3762       1.370437       3.51516
  44    0.2165        0.0056        0.0009        1.3581        1.3590       1.353439       3.86663
  43    0.2613        0.0054        0.0011        1.3352        1.3363       1.330955       4.23826
  42    0.3336        0.0051        0.0015        1.2933        1.2948       1.289754       4.80356
  41    0.4307        0.0047        0.0020        1.2336        1.2357       1.230957       5.11229
  40    0.5894        0.0041        0.0026        1.1302        1.1327       1.128611       5.44262
  39     1.339        0.0024        0.0036        0.6413        0.6449       0.642484       5.47291
  38     1.782        0.0018        0.0033        0.4376        0.4409       0.439132       3.87151
  37     2.292        0.0013        0.0028        0.2872        0.2900       0.288657       2.49226
  36     2.964        0.0010        0.0023        0.1789        0.1812       0.180212       1.36131
  35     3.853        0.0007        0.0018        0.1070        0.1088       0.108161       0.68378
  34     5.035        0.0005        0.0014        0.0619        0.0632       0.062756       0.32436
  33     6.613        0.0003        0.0010        0.0353        0.0363       0.035977       0.14316
  32     8.786        0.0002        0.0008        0.0193        0.0201       0.019899       0.06244
  31     11.80        0.0001        0.0005        0.0093        0.0098       0.009717       0.02851
  30     15.07        0.0001        0.0003        0.0047        0.0050       0.004935       0.01234
  29     18.79        0.0000        0.0002        0.0023        0.0025       0.002471       0.00559
  28     23.16        0.0000        0.0001        0.0011        0.0012       0.001186       0.00248
  27     28.12        0.0000        0.0001        0.0005        0.0006       0.000552       0.00108
  26     33.73        0.0000        0.0000        0.0002        0.0003       0.000257       0.00044
  25     40.54        0.0000        0.0000        0.0001        0.0001       0.000112       0.00018
  24     48.69        0.0000        0.0000        0.0000        0.0000       0.000044       0.00007
  23     57.69        0.0000        0.0000        0.0000        0.0000       0.000017       0.00003
  22     68.43        0.0000        0.0000        0.0000        0.0000       0.000006       0.00001
  21     81.20        0.0000        0.0000        0.0000        0.0000       0.000002       0.00000
  20     96.49        0.0000        0.0000        0.0000        0.0000       0.000001       0.00000
  19     114.6        0.0000        0.0000        0.0000        0.0000       0.000000       0.00000
  18     136.5        0.0000        0.0000        0.0000        0.0000       0.000000       0.00000
  17     162.9        0.0000        0.0000        0.0000        0.0000       0.000000       0.00000
  16     196.4        0.0000        0.0000        0.0000        0.0000       0.000000       0.00000
  15     218.7        0.0000        0.0000        0.0000        0.0000       0.000000       0.00000
  14     243.0        0.0000        0.0000        0.0000        0.0000       0.000000       0.00000
  13     269.0        0.0000        0.0000        0.0000        0.0000       0.000000       0.00000
  12     297.5        0.0000        0.0000        0.0000        0.0000       0.000000       0.00000
  11     328.5        0.0000        0.0000        0.0000        0.0000       0.000000       0.00000
  10     361.9        0.0000        0.0000        0.0000        0.0000       0.000000       0.00000
   9     398.1        0.0000        0.0000        0.0000        0.0000       0.000000       0.00000
   8     437.6        0.0000        0.0000        0.0000        0.0000       0.000000       0.00000
   7     480.5        0.0000        0.0000        0.0000        0.0000       0.000000       0.00000
   6     533.0        0.0000        0.0000        0.0000        0.0000       0.000000       0.00000
   5     589.8        0.0000        0.0000        0.0000        0.0000       0.000000       0.00000
   4     651.6        0.0000        0.0000        0.0000        0.0000       0.000000       0.00000
   3     718.7        0.0000        0.0000        0.0000        0.0000       0.000000       0.00000
   2     792.3        0.0000        0.0000        0.0000        0.0000       0.000000       0.00000
   1     891.5        0.0000        0.0000        0.0000        0.0000       0.000000       0.00000
   0    1013.0        0.0000        0.0000        0.0000        0.0000       0.000000       0.00000



 Wavenumbers:   820. -  2600. cm-1, ATM      1
 LEVEL PRESSURE   UPWARD FLUX   DIFDOWN FLUX  DIRDOWN FLUX  DOWNWARD FLUX   NET FLUX    HEATING RATE
          mb          W/m2          W/m2          W/m2        W/m2          W/m2       degree/day
  51    .06700        0.0124        0.0000        6.6132        6.6132       6.600814       0.00000
  50    .07753        0.0124        0.0000        6.6090        6.6090       6.596652       3.33603
  49    .09103        0.0124        0.0000        6.6081        6.6081       6.595742       0.56886
  48    0.1069        0.0124        0.0000        6.6071        6.6071       6.594736       0.53526
  47    0.1255        0.0124        0.0000        6.6060        6.6060       6.593593       0.51823
  46    0.1487        0.0124        0.0000        6.6046        6.6046       6.592191       0.51101
  45    0.1794        0.0124        0.0000        6.6028        6.6028       6.590396       0.49265
  44    0.2165        0.0124        0.0000        6.6008        6.6008       6.588456       0.44150
  43    0.2613        0.0124        0.0000        6.5988        6.5988       6.586378       0.39166
  42    0.3336        0.0124        0.0000        6.5957        6.5957       6.583334       0.35486
  41    0.4307        0.0124        0.0000        6.5921        6.5921       6.579710       0.31509
  40    0.5894        0.0124        0.0000        6.5864        6.5864       6.574042       0.30146
  39     1.339        0.0124        0.0000        6.5601        6.5601       6.547766       0.29581
  38     1.782        0.0124        0.0000        6.5455        6.5455       6.533136       0.27853
  37     2.292        0.0124        0.0000        6.5292        6.5292       6.516820       0.27024
  36     2.964        0.0124        0.0000        6.5086        6.5086       6.496256       0.25813
  35     3.853        0.0124        0.0000        6.4829        6.4829       6.470501       0.24442
  34     5.035        0.0124        0.0000        6.4508        6.4508       6.438436       0.22906
  33     6.613        0.0124        0.0000        6.4109        6.4109       6.398572       0.21311
  32     8.786        0.0124        0.0000        6.3608        6.3608       6.348418       0.19478
  31     11.80        0.0124        0.0000        6.2972        6.2972       6.284867       0.17792
  30     15.07        0.0124        0.0000        6.2420        6.2420       6.229664       0.14252
  29     18.79        0.0124        0.0000        6.1955        6.1955       6.183133       0.10550
  28     23.16        0.0124        0.0000        6.1574        6.1574       6.145053       0.07363
  27     28.12        0.0124        0.0000        6.1267        6.1267       6.114344       0.05220
  26     33.73        0.0124        0.0000        6.1000        6.1000       6.087661       0.04012
  25     40.54        0.0124        0.0000        6.0718        6.0718       6.059398       0.03506
  24     48.69        0.0124        0.0000        6.0396        6.0396       6.027266       0.03325
  23     57.69        0.0124        0.0000        6.0052        6.0052       5.992810       0.03230
  22     68.43        0.0124        0.0000        5.9650        5.9650       5.952607       0.03160
  21     81.20        0.0124        0.0000        5.9187        5.9188       5.906385       0.03054
  20     96.49        0.0124        0.0000        5.8655        5.8655       5.853171       0.02937
  19     114.6        0.0124        0.0000        5.8038        5.8038       5.791419       0.02883
  18     136.5        0.0124        0.0000        5.7332        5.7332       5.720831       0.02714
  17     162.9        0.0124        0.0000        5.6457        5.6458       5.633390       0.02795
  16     196.4        0.0124        0.0000        5.5146        5.5146       5.502215       0.03302
  15     218.7        0.0124        0.0000        5.3963        5.3963       5.383957       0.04490
  14     243.0        0.0124        0.0000        5.2289        5.2289       5.216523       0.05807
  13     269.0        0.0124        0.0000        5.0334        5.0335       5.021084       0.06340
  12     297.5        0.0124        0.0000        4.8231        4.8232       4.810784       0.06237
  11     328.5        0.0124        0.0000        4.5985        4.5985       4.586138       0.06108
  10     361.9        0.0124        0.0000        4.3345        4.3345       4.322116       0.06680
   9     398.1        0.0124        0.0000        4.0486        4.0487       4.036248       0.06660
   8     437.6        0.0124        0.0000        3.7777        3.7777       3.765294       0.05793
   7     480.5        0.0125        0.0000        3.5675        3.5676       3.555087       0.04128
   6     533.0        0.0125        0.0000        3.3966        3.3967       3.384136       0.02750
   5     589.8        0.0126        0.0000        3.2415        3.2416       3.228960       0.02303
   4     651.6        0.0128        0.0000        3.0460        3.0460       3.033231       0.02677
   3     718.7        0.0130        0.0000        2.8155        2.8155       2.802464       0.02900
   2     792.3        0.0135        0.0000        2.5621        2.5622       2.548645       0.02911
   1     891.5        0.0148        0.0000        2.2216        2.2217       2.206896       0.02908
   0    1013.0        0.0180        0.0000        1.7780        1.7780       1.760067       0.03103

  Modules and versions used in this calculation:

       rrtmg_sw.1col.f90:  $Revision$                    rrtmg_sw_init.f90:  $Revision$        
     rrtmgsw_cldprop.f90:  $Revision$                  rrtmgsw_cldprmc.f90:  NOT USED          
     rrtmg_sw_reftra.f90:  $Revision$                  rrtmg_sw_spcvrt.f90:  NOT USED          
     rrtmg_sw_spcvmc.f90:  NOT USED                    rrtmgsw_setcoef.f90:  NOT USED          
     rrtmg_sw_taumol.f90:  $Revision$                  rrtmg_sw_vrtqdr.f90:  NOT USED          
                rrtatm.f:  NOT USED                             util_xxx.f:  NOT USED          
                 extra.f:  NOT USED                       rrtmg_sw_k_g.f90:  $Revision$        

