

 Wavenumbers:   820. - 50000. cm-1, ATM      1
 LEVEL PRESSURE   UPWARD FLUX   DIFDOWN FLUX  DIRDOWN FLUX  DOWNWARD FLUX   NET FLUX    HEATING RATE
          mb          W/m2          W/m2          W/m2        W/m2          W/m2       degree/day
  51    .06700      555.3302        0.0000      874.7370      874.7370     319.406797       0.00000
  50    .07753      555.3300        0.0015      874.7175      874.7190     319.388976      14.28333
  49    .09103      555.3299        0.0034      874.6995      874.7030     319.373124       9.90820
  48    0.1069      555.3297        0.0056      874.6790      874.6847     319.354959       9.66908
  47    0.1255      555.3296        0.0082      874.6542      874.6624     319.332787      10.05188
  46    0.1487      555.3296        0.0114      874.6203      874.6317     319.302147      11.16858
  45    0.1794      555.3296        0.0157      874.5704      874.5861     319.256509      12.52864
  44    0.2165      555.3298        0.0209      874.5062      874.5271     319.197240      13.48278
  43    0.2613      555.3303        0.0269      874.4233      874.4503     319.119996      14.56017
  42    0.3336      555.3315        0.0370      874.2740      874.3109     318.979417      16.39009
  41    0.4307      555.3337        0.0502      874.0610      874.1112     318.777514      17.55498
  40    0.5894      555.3386        0.0715      873.6831      873.7546     318.415992      19.22528
  39     1.339      555.3868        0.1690      871.5747      871.7437     316.356879      23.18187
  38     1.782      555.4327        0.2241      870.3484      870.5724     315.139786      23.17149
  37     2.292      555.5018        0.2867      869.0800      869.3668     313.864976      21.11418
  36     2.964      555.6169        0.3683      867.6840      868.0523     312.435440      17.94500
  35     3.853      555.8029        0.4754      866.1909      866.6663     310.863392      14.91902
  34     5.035      556.0834        0.6168      864.6016      865.2184     309.134952      12.34726
  33     6.613      556.4760        0.8051      862.9119      863.7170     307.240987      10.12514
  32     8.786      556.9889        1.0578      861.1084      862.1662     305.177234       8.01487
  31     11.80      557.6608        1.4179      859.0501      860.4680     302.807155       6.63547
  30     15.07      558.3103        1.8034      857.2192      859.0226     300.712271       5.40858
  29     18.79      558.9797        2.2372      855.4225      857.6597     298.680054       4.60766
  28     23.16      559.6876        2.7425      853.5719      856.3144     296.626801       3.97033
  27     28.12      560.4104        3.3187      851.6891      855.0078     294.597360       3.44991
  26     33.73      561.0917        3.9626      849.8359      853.7985     292.706733       2.84261
  25     40.54      561.7655        4.7393      847.8542      852.5935     290.827936       2.33086
  24     48.69      562.4327        5.6738      845.7051      851.3789     288.946254       1.94725
  23     57.69      563.0238        6.6980      843.5593      850.2573     287.233480       1.60547
  22     68.43      563.5729        7.9146      841.2204      849.1350     285.562042       1.31397
  21     81.20      564.0104        9.3614      838.7015      848.0628     284.052401       0.99755
  20     96.49      564.3288       11.0832      835.9421      847.0253     282.696458       0.74838
  19     114.6      564.6200       13.1132      832.7942      845.9074     281.287393       0.65793
  18     136.5      564.8929       15.5002      829.1890      844.6892     279.796389       0.57333
  17     162.9      565.1524       18.3150      824.9786      843.2936     278.141256       0.52905
  16     196.4      565.3436       21.9267      819.5251      841.4518     276.108207       0.51174
  15     218.7      565.4170       24.2743      815.5861      839.8604     274.443348       0.63209
  14     243.0      565.4749       26.8033      810.7409      837.5442     272.069329       0.82339
  13     269.0      565.5164       29.5180      804.6552      834.1732     268.656801       1.10701
  12     297.5      565.5449       32.4217      797.2228      829.6445     264.099571       1.35162
  11     328.5      565.5744       35.5248      789.1226      824.6474     259.073012       1.36671
  10     361.9      565.6091       38.8261      780.3806      819.2066     253.597534       1.38535
   9     398.1      565.6568       42.3344      770.7476      813.0820     247.425124       1.43803
   8     437.6      565.7331       46.0508      759.9960      806.0468     240.313733       1.52046
   7     480.5      565.8519       49.9777      748.3017      798.2794     232.427552       1.54882
   6     533.0      566.0745       54.7330      733.8493      788.5823     222.507837       1.59577
   5     589.8      566.4635       59.7649      718.0123      777.7772     211.313737       1.66157
   4     651.6      567.1965       65.0660      699.9917      765.0577     197.861227       1.83967
   3     718.7      568.4772       70.6326      680.4004      751.0330     182.555814       1.92347
   2     792.3      570.7874       76.4454      659.1145      735.5600     164.772589       2.03954
   1     891.5      576.4315       84.0500      630.3766      714.4266     137.995134       2.27863
   0    1013.0      590.3103       92.8388      597.2970      690.1358      99.825512       2.65031



 Wavenumbers:  2600. -  3250. cm-1, ATM      1
 LEVEL PRESSURE   UPWARD FLUX   DIFDOWN FLUX  DIRDOWN FLUX  DOWNWARD FLUX   NET FLUX    HEATING RATE
          mb          W/m2          W/m2          W/m2        W/m2          W/m2       degree/day
  51    .06700        1.6439        0.0000        7.7094        7.7094       6.065465       0.00000
  50    .07753        1.6439        0.0000        7.7094        7.7094       6.065457       0.00640
  49    .09103        1.6439        0.0000        7.7094        7.7094       6.065447       0.00627
  48    0.1069        1.6439        0.0000        7.7094        7.7094       6.065435       0.00613
  47    0.1255        1.6439        0.0000        7.7094        7.7094       6.065422       0.00600
  46    0.1487        1.6439        0.0000        7.7094        7.7094       6.065406       0.00608
  45    0.1794        1.6439        0.0000        7.7093        7.7093       6.065383       0.00625
  44    0.2165        1.6439        0.0000        7.7093        7.7093       6.065356       0.00613
  43    0.2613        1.6439        0.0000        7.7093        7.7093       6.065324       0.00600
  42    0.3336        1.6439        0.0000        7.7092        7.7092       6.065271       0.00618
  41    0.4307        1.6439        0.0000        7.7091        7.7091       6.065200       0.00621
  40    0.5894        1.6439        0.0000        7.7090        7.7090       6.065079       0.00638
  39     1.339        1.6439        0.0000        7.7083        7.7083       6.064367       0.00802
  38     1.782        1.6439        0.0000        7.7078        7.7078       6.063818       0.01046
  37     2.292        1.6439        0.0000        7.7070        7.7070       6.063089       0.01207
  36     2.964        1.6439        0.0000        7.7060        7.7060       6.062023       0.01338
  35     3.853        1.6439        0.0000        7.7044        7.7044       6.060489       0.01456
  34     5.035        1.6439        0.0000        7.7023        7.7023       6.058319       0.01550
  33     6.613        1.6439        0.0000        7.6993        7.6993       6.055313       0.01607
  32     8.786        1.6439        0.0000        7.6952        7.6952       6.051249       0.01578
  31     11.80        1.6439        0.0000        7.6896        7.6896       6.045640       0.01570
  30     15.07        1.6439        0.0000        7.6840        7.6840       6.040053       0.01442
  29     18.79        1.6439        0.0000        7.6783        7.6783       6.034364       0.01290
  28     23.16        1.6440        0.0000        7.6724        7.6724       6.028460       0.01142
  27     28.12        1.6440        0.0000        7.6664        7.6664       6.022412       0.01028
  26     33.73        1.6440        0.0000        7.6598        7.6599       6.015898       0.00979
  25     40.54        1.6440        0.0000        7.6518        7.6518       6.007821       0.01002
  24     48.69        1.6440        0.0000        7.6414        7.6414       5.997435       0.01075
  23     57.69        1.6440        0.0000        7.6289        7.6289       5.984928       0.01172
  22     68.43        1.6440        0.0000        7.6126        7.6126       5.968591       0.01284
  21     81.20        1.6441        0.0000        7.5915        7.5916       5.947492       0.01394
  20     96.49        1.6441        0.0000        7.5649        7.5650       5.920840       0.01471
  19     114.6        1.6442        0.0001        7.5313        7.5313       5.887099       0.01575
  18     136.5        1.6444        0.0001        7.4910        7.4911       5.846727       0.01552
  17     162.9        1.6446        0.0001        7.4436        7.4437       5.799143       0.01521
  16     196.4        1.6449        0.0001        7.3840        7.3840       5.739149       0.01510
  15     218.7        1.6452        0.0001        7.3434        7.3435       5.698246       0.01553
  14     243.0        1.6458        0.0001        7.2945        7.2946       5.648747       0.01717
  13     269.0        1.6467        0.0001        7.2341        7.2342       5.587451       0.01988
  12     297.5        1.6481        0.0001        7.1608        7.1609       5.512765       0.02215
  11     328.5        1.6500        0.0001        7.0779        7.0781       5.428053       0.02303
  10     361.9        1.6526        0.0001        6.9830        6.9831       5.330510       0.02468
   9     398.1        1.6561        0.0002        6.8682        6.8683       5.212216       0.02756
   8     437.6        1.6609        0.0002        6.7233        6.7235       5.062532       0.03200
   7     480.5        1.6674        0.0002        6.5407        6.5409       4.873493       0.03713
   6     533.0        1.6778        0.0002        6.2823        6.2825       4.604677       0.04324
   5     589.8        1.6932        0.0002        5.9654        5.9656       4.272411       0.04932
   4     651.6        1.7177        0.0002        5.5846        5.5848       3.867183       0.05542
   3     718.7        1.7559        0.0002        5.1728        5.1730       3.417154       0.05656
   2     792.3        1.8191        0.0002        4.7207        4.7209       2.901814       0.05910
   1     891.5        1.9659        0.0002        4.0892        4.0894       2.123504       0.06623
   0    1013.0        2.3395        0.0002        3.3791        3.3793       1.039782       0.07525



 Wavenumbers:  3250. -  4000. cm-1, ATM      1
 LEVEL PRESSURE   UPWARD FLUX   DIFDOWN FLUX  DIRDOWN FLUX  DOWNWARD FLUX   NET FLUX    HEATING RATE
          mb          W/m2          W/m2          W/m2        W/m2          W/m2       degree/day
  51    .06700        0.0009        0.0000       12.9969       12.9969      12.996028       0.00000
  50    .07753        0.0009        0.0000       12.9917       12.9917      12.990772       4.21209
  49    .09103        0.0009        0.0000       12.9875       12.9875      12.986556       2.63549
  48    0.1069        0.0009        0.0000       12.9842       12.9842      12.983294       1.73620
  47    0.1255        0.0009        0.0000       12.9814       12.9814      12.980468       1.28132
  46    0.1487        0.0009        0.0000       12.9784       12.9784      12.977518       1.07509
  45    0.1794        0.0009        0.0000       12.9750       12.9750      12.974044       0.95394
  44    0.2165        0.0009        0.0000       12.9714       12.9714      12.970437       0.82035
  43    0.2613        0.0009        0.0000       12.9676       12.9676      12.966684       0.70745
  42    0.3336        0.0009        0.0000       12.9623       12.9623      12.961387       0.61759
  41    0.4307        0.0009        0.0000       12.9564       12.9564      12.955511       0.51095
  40    0.5894        0.0009        0.0000       12.9482       12.9482      12.947291       0.43710
  39     1.339        0.0009        0.0000       12.9171       12.9171      12.916161       0.35047
  38     1.782        0.0009        0.0000       12.9027       12.9027      12.901789       0.27362
  37     2.292        0.0009        0.0000       12.8887       12.8887      12.887774       0.23212
  36     2.964        0.0009        0.0000       12.8730       12.8730      12.872056       0.19731
  35     3.853        0.0009        0.0000       12.8548       12.8548      12.853848       0.17280
  34     5.035        0.0009        0.0000       12.8326       12.8326      12.831719       0.15808
  33     6.613        0.0009        0.0000       12.8041       12.8041      12.803238       0.15226
  32     8.786        0.0009        0.0000       12.7652       12.7652      12.764290       0.15126
  31     11.80        0.0009        0.0000       12.7073       12.7073      12.706370       0.16216
  30     15.07        0.0009        0.0000       12.6427       12.6428      12.641859       0.16655
  29     18.79        0.0009        0.0000       12.5678       12.5678      12.566940       0.16986
  28     23.16        0.0009        0.0000       12.4793       12.4793      12.478454       0.17110
  27     28.12        0.0009        0.0000       12.3793       12.3793      12.378434       0.17003
  26     33.73        0.0009        0.0000       12.2722       12.2722      12.271370       0.16097
  25     40.54        0.0009        0.0001       12.1520       12.1521      12.151210       0.14907
  24     48.69        0.0009        0.0001       12.0219       12.0220      12.021117       0.13463
  23     57.69        0.0008        0.0001       11.8938       11.8939      11.893020       0.12007
  22     68.43        0.0008        0.0001       11.7544       11.7545      11.753666       0.10955
  21     81.20        0.0008        0.0001       11.5974       11.5975      11.596738       0.10370
  20     96.49        0.0008        0.0001       11.4152       11.4154      11.414563       0.10055
  19     114.6        0.0008        0.0001       11.1946       11.1948      11.193989       0.10299
  18     136.5        0.0007        0.0002       10.9437       10.9439      10.943165       0.09645
  17     162.9        0.0007        0.0002       10.6475       10.6477      10.647005       0.09466
  16     196.4        0.0007        0.0002       10.2224       10.2226      10.221936       0.10699
  15     218.7        0.0007        0.0002        9.8264        9.8267       9.826026       0.15031
  14     243.0        0.0006        0.0002        9.2828        9.2831       9.282445       0.18853
  13     269.0        0.0006        0.0003        8.5835        8.5837       8.583134       0.22685
  12     297.5        0.0006        0.0003        7.7797        7.7799       7.779353       0.23839
  11     328.5        0.0006        0.0002        6.9795        6.9798       6.979186       0.21756
  10     361.9        0.0006        0.0002        6.1878        6.1880       6.187467       0.20031
   9     398.1        0.0005        0.0002        5.4186        5.4188       5.418256       0.17921
   8     437.6        0.0005        0.0002        4.6951        4.6953       4.694820       0.15468
   7     480.5        0.0005        0.0002        4.0435        4.0437       4.043208       0.12797
   6     533.0        0.0005        0.0002        3.3554        3.3556       3.355041       0.11070
   5     589.8        0.0006        0.0002        2.6998        2.7000       2.699420       0.09732
   4     651.6        0.0006        0.0001        2.0330        2.0331       2.032500       0.09120
   3     718.7        0.0008        0.0001        1.3973        1.3974       1.396615       0.07991
   2     792.3        0.0013        0.0001        0.8426        0.8426       0.841299       0.06369
   1     891.5        0.0041        0.0000        0.3344        0.3345       0.330361       0.04348
   0    1013.0        0.0396        0.0000        0.0572        0.0572       0.017597       0.02172



 Wavenumbers:  4000. -  4650. cm-1, ATM      1
 LEVEL PRESSURE   UPWARD FLUX   DIFDOWN FLUX  DIRDOWN FLUX  DOWNWARD FLUX   NET FLUX    HEATING RATE
          mb          W/m2          W/m2          W/m2        W/m2          W/m2       degree/day
  51    .06700        6.3170        0.0000       15.2623       15.2623       8.945328       0.00000
  50    .07753        6.3170        0.0000       15.2623       15.2623       8.945327       0.00080
  49    .09103        6.3170        0.0000       15.2623       15.2623       8.945325       0.00078
  48    0.1069        6.3170        0.0000       15.2623       15.2623       8.945324       0.00076
  47    0.1255        6.3170        0.0000       15.2623       15.2623       8.945322       0.00075
  46    0.1487        6.3170        0.0000       15.2623       15.2623       8.945320       0.00076
  45    0.1794        6.3170        0.0000       15.2623       15.2623       8.945317       0.00078
  44    0.2165        6.3170        0.0000       15.2623       15.2623       8.945314       0.00076
  43    0.2613        6.3170        0.0000       15.2623       15.2623       8.945310       0.00075
  42    0.3336        6.3170        0.0000       15.2623       15.2623       8.945304       0.00077
  41    0.4307        6.3170        0.0000       15.2623       15.2623       8.945295       0.00077
  40    0.5894        6.3170        0.0000       15.2623       15.2623       8.945280       0.00080
  39     1.339        6.3170        0.0000       15.2622       15.2622       8.945190       0.00101
  38     1.782        6.3170        0.0000       15.2621       15.2621       8.945120       0.00133
  37     2.292        6.3170        0.0000       15.2620       15.2620       8.945026       0.00156
  36     2.964        6.3170        0.0000       15.2619       15.2619       8.944886       0.00176
  35     3.853        6.3170        0.0000       15.2617       15.2617       8.944678       0.00198
  34     5.035        6.3170        0.0000       15.2613       15.2614       8.944371       0.00219
  33     6.613        6.3170        0.0000       15.2609       15.2609       8.943918       0.00242
  32     8.786        6.3170        0.0000       15.2602       15.2602       8.943250       0.00260
  31     11.80        6.3170        0.0001       15.2591       15.2592       8.942198       0.00294
  30     15.07        6.3170        0.0001       15.2579       15.2579       8.940962       0.00319
  29     18.79        6.3170        0.0001       15.2564       15.2565       8.939465       0.00339
  28     23.16        6.3170        0.0001       15.2545       15.2546       8.937603       0.00360
  27     28.12        6.3170        0.0001       15.2522       15.2523       8.935343       0.00384
  26     33.73        6.3170        0.0002       15.2494       15.2495       8.932550       0.00420
  25     40.54        6.3170        0.0002       15.2456       15.2458       8.928748       0.00472
  24     48.69        6.3170        0.0002       15.2405       15.2407       8.923664       0.00526
  23     57.69        6.3171        0.0003       15.2344       15.2347       8.917612       0.00567
  22     68.43        6.3172        0.0003       15.2268       15.2272       8.909998       0.00599
  21     81.20        6.3173        0.0004       15.2174       15.2178       8.900573       0.00623
  20     96.49        6.3174        0.0005       15.2060       15.2065       8.889052       0.00636
  19     114.6        6.3177        0.0006       15.1917       15.1923       8.874575       0.00676
  18     136.5        6.3181        0.0007       15.1745       15.1751       8.857052       0.00674
  17     162.9        6.3187        0.0008       15.1533       15.1541       8.835469       0.00690
  16     196.4        6.3197        0.0010       15.1243       15.1252       8.805533       0.00754
  15     218.7        6.3206        0.0011       15.1021       15.1031       8.782501       0.00874
  14     243.0        6.3221        0.0012       15.0724       15.0736       8.751531       0.01074
  13     269.0        6.3243        0.0013       15.0314       15.0327       8.708401       0.01399
  12     297.5        6.3276        0.0014       14.9760       14.9775       8.649902       0.01735
  11     328.5        6.3321        0.0016       14.9073       14.9089       8.576834       0.01987
  10     361.9        6.3380        0.0017       14.8200       14.8217       8.483719       0.02356
   9     398.1        6.3453        0.0019       14.7060       14.7079       8.362532       0.02823
   8     437.6        6.3546        0.0021       14.5570       14.5590       8.204464       0.03380
   7     480.5        6.3661        0.0022       14.3733       14.3756       8.009507       0.03829
   6     533.0        6.3832        0.0025       14.1268       14.1292       7.746042       0.04238
   5     589.8        6.4071        0.0027       13.8455       13.8482       7.441070       0.04527
   4     651.6        6.4436        0.0029       13.5043       13.5072       7.063631       0.05162
   3     718.7        6.5005        0.0031       13.0704       13.0735       6.573066       0.06165
   2     792.3        6.5949        0.0033       12.4891       12.4924       5.897488       0.07748
   1     891.5        6.8148        0.0035       11.6064       11.6100       4.795119       0.09381
   0    1013.0        7.3548        0.0037       10.6194       10.6231       3.268348       0.10601



 Wavenumbers:  4650. -  5150. cm-1, ATM      1
 LEVEL PRESSURE   UPWARD FLUX   DIFDOWN FLUX  DIRDOWN FLUX  DOWNWARD FLUX   NET FLUX    HEATING RATE
          mb          W/m2          W/m2          W/m2        W/m2          W/m2       degree/day
  51    .06700        4.5161        0.0000       14.4465       14.4465       9.930464       0.00000
  50    .07753        4.5161        0.0000       14.4463       14.4463       9.930229       0.18914
  49    .09103        4.5161        0.0000       14.4460       14.4460       9.929933       0.18469
  48    0.1069        4.5161        0.0000       14.4456       14.4456       9.929595       0.18003
  47    0.1255        4.5161        0.0000       14.4453       14.4453       9.929208       0.17531
  46    0.1487        4.5161        0.0000       14.4448       14.4448       9.928723       0.17685
  45    0.1794        4.5161        0.0000       14.4441       14.4441       9.928065       0.18059
  44    0.2165        4.5161        0.0000       14.4433       14.4433       9.927294       0.17548
  43    0.2613        4.5161        0.0000       14.4424       14.4424       9.926390       0.17030
  42    0.3336        4.5161        0.0000       14.4410       14.4410       9.924919       0.17154
  41    0.4307        4.5161        0.0000       14.4391       14.4391       9.923011       0.16589
  40    0.5894        4.5161        0.0000       14.4360       14.4360       9.919997       0.16029
  39     1.339        4.5160        0.0000       14.4233       14.4233       9.907265       0.14334
  38     1.782        4.5160        0.0000       14.4169       14.4169       9.900823       0.12264
  37     2.292        4.5160        0.0000       14.4102       14.4102       9.894200       0.10970
  36     2.964        4.5160        0.0000       14.4027       14.4027       9.886648       0.09480
  35     3.853        4.5160        0.0000       14.3943       14.3943       9.878296       0.07926
  34     5.035        4.5160        0.0000       14.3854       14.3854       9.869373       0.06374
  33     6.613        4.5160        0.0000       14.3761       14.3761       9.860095       0.04960
  32     8.786        4.5160        0.0001       14.3664       14.3665       9.850418       0.03758
  31     11.80        4.5161        0.0001       14.3552       14.3552       9.839185       0.03145
  30     15.07        4.5161        0.0001       14.3441       14.3442       9.828127       0.02855
  29     18.79        4.5161        0.0001       14.3314       14.3315       9.815403       0.02885
  28     23.16        4.5161        0.0002       14.3155       14.3156       9.799500       0.03075
  27     28.12        4.5162        0.0002       14.2957       14.2959       9.779688       0.03368
  26     33.73        4.5162        0.0002       14.2716       14.2718       9.755564       0.03627
  25     40.54        4.5163        0.0003       14.2400       14.2403       9.723975       0.03919
  24     48.69        4.5165        0.0003       14.1993       14.1996       9.683101       0.04230
  23     57.69        4.5167        0.0004       14.1518       14.1522       9.635514       0.04461
  22     68.43        4.5170        0.0005       14.0930       14.0935       9.576534       0.04637
  21     81.20        4.5174        0.0006       14.0216       14.0221       9.504740       0.04744
  20     96.49        4.5180        0.0007       13.9366       13.9372       9.419280       0.04717
  19     114.6        4.5187        0.0008       13.8383       13.8391       9.320345       0.04620
  18     136.5        4.5198        0.0009       13.7282       13.7292       9.209340       0.04268
  17     162.9        4.5213        0.0011       13.6074       13.6085       9.087136       0.03906
  16     196.4        4.5237        0.0013       13.4662       13.4675       8.943791       0.03608
  15     218.7        4.5256        0.0015       13.3802       13.3816       8.856062       0.03331
  14     243.0        4.5280        0.0016       13.2893       13.2909       8.762882       0.03232
  13     269.0        4.5314        0.0018       13.1900       13.1918       8.660400       0.03324
  12     297.5        4.5361        0.0020       13.0764       13.0784       8.542251       0.03504
  11     328.5        4.5423        0.0021       12.9475       12.9496       8.407308       0.03669
  10     361.9        4.5504        0.0023       12.7993       12.8017       8.251304       0.03947
   9     398.1        4.5608        0.0025       12.6259       12.6284       8.067641       0.04279
   8     437.6        4.5743        0.0028       12.4217       12.4245       7.850177       0.04650
   7     480.5        4.5918        0.0030       12.1817       12.1846       7.592784       0.05055
   6     533.0        4.6184        0.0032       11.8580       11.8612       7.242774       0.05631
   5     589.8        4.6550        0.0035       11.4734       11.4769       6.821843       0.06248
   4     651.6        4.7085        0.0037       11.0091       11.0128       6.304234       0.07078
   3     718.7        4.7877        0.0039       10.4749       10.4788       5.691140       0.07705
   2     792.3        4.9087        0.0041        9.8845        9.8887       4.979941       0.08157
   1     891.5        5.1650        0.0043        9.0999        9.1042       3.939245       0.08856
   0    1013.0        5.7035        0.0046        8.2332        8.2378       2.534302       0.09755



 Wavenumbers:  5150. -  6150. cm-1, ATM      1
 LEVEL PRESSURE   UPWARD FLUX   DIFDOWN FLUX  DIRDOWN FLUX  DOWNWARD FLUX   NET FLUX    HEATING RATE
          mb          W/m2          W/m2          W/m2        W/m2          W/m2       degree/day
  51    .06700       11.1592        0.0000       36.2175       36.2175      25.058246       0.00000
  50    .07753       11.1592        0.0000       36.2174       36.2174      25.058206       0.03161
  49    .09103       11.1592        0.0000       36.2174       36.2174      25.058155       0.03209
  48    0.1069       11.1592        0.0000       36.2173       36.2173      25.058094       0.03260
  47    0.1255       11.1592        0.0000       36.2173       36.2173      25.058021       0.03311
  46    0.1487       11.1592        0.0000       36.2172       36.2172      25.057925       0.03488
  45    0.1794       11.1592        0.0000       36.2170       36.2170      25.057790       0.03713
  44    0.2165       11.1592        0.0000       36.2169       36.2169      25.057624       0.03770
  43    0.2613       11.1592        0.0000       36.2166       36.2167      25.057421       0.03829
  42    0.3336       11.1592        0.0000       36.2163       36.2163      25.057074       0.04046
  41    0.4307       11.1592        0.0000       36.2158       36.2158      25.056602       0.04103
  40    0.5894       11.1592        0.0000       36.2150       36.2150      25.055811       0.04207
  39     1.339       11.1592        0.0000       36.2112       36.2112      25.051990       0.04301
  38     1.782       11.1592        0.0001       36.2089       36.2090      25.049758       0.04249
  37     2.292       11.1592        0.0001       36.2064       36.2064      25.047226       0.04195
  36     2.964       11.1592        0.0001       36.2031       36.2032      25.043998       0.04052
  35     3.853       11.1592        0.0001       36.1990       36.1991      25.039878       0.03910
  34     5.035       11.1592        0.0002       36.1936       36.1938      25.034545       0.03810
  33     6.613       11.1592        0.0002       36.1866       36.1868      25.027580       0.03724
  32     8.786       11.1592        0.0003       36.1774       36.1777      25.018473       0.03537
  31     11.80       11.1592        0.0004       36.1649       36.1653      25.006009       0.03490
  30     15.07       11.1593        0.0005       36.1521       36.1526      24.993336       0.03272
  29     18.79       11.1593        0.0006       36.1386       36.1392      24.979897       0.03047
  28     23.16       11.1594        0.0007       36.1238       36.1246      24.965191       0.02844
  27     28.12       11.1594        0.0009       36.1080       36.1089      24.949460       0.02674
  26     33.73       11.1595        0.0011       36.0917       36.0927      24.933221       0.02442
  25     40.54       11.1597        0.0013       36.0736       36.0749      24.915235       0.02231
  24     48.69       11.1599        0.0016       36.0539       36.0555      24.895622       0.02030
  23     57.69       11.1602        0.0018       36.0341       36.0360      24.875834       0.01855
  22     68.43       11.1605        0.0022       36.0124       36.0146      24.854110       0.01708
  21     81.20       11.1610        0.0026       35.9882       35.9908      24.829840       0.01604
  20     96.49       11.1615        0.0031       35.9607       35.9638      24.802269       0.01522
  19     114.6       11.1622        0.0037       35.9290       35.9326      24.770398       0.01488
  18     136.5       11.1631        0.0044       35.8918       35.8962      24.733056       0.01436
  17     162.9       11.1642        0.0052       35.8366       35.8417      24.677550       0.01774
  16     196.4       11.1657        0.0062       35.7206       35.7268      24.561119       0.02931
  15     218.7       11.1667        0.0069       35.5513       35.5582      24.391446       0.06442
  14     243.0       11.1680        0.0076       35.2126       35.2202      24.052205       0.11766
  13     269.0       11.1696        0.0083       34.5819       34.5902      23.420607       0.20489
  12     297.5       11.1717        0.0090       33.6875       33.6965      22.524798       0.26569
  11     328.5       11.1743        0.0097       32.7697       32.7794      21.605070       0.25007
  10     361.9       11.1776        0.0104       31.7810       31.7914      20.613892       0.25078
   9     398.1       11.1817        0.0111       30.6253       30.6364      19.454669       0.27007
   8     437.6       11.1872        0.0118       29.3058       29.3176      18.130425       0.28313
   7     480.5       11.1943        0.0125       27.9161       27.9285      16.734258       0.27420
   6     533.0       11.2056        0.0132       26.2895       26.3027      15.097110       0.26337
   5     589.8       11.2227        0.0140       24.6657       24.6797      13.457002       0.24345
   4     651.6       11.2520        0.0148       23.0654       23.0802      11.828155       0.22275
   3     718.7       11.3023        0.0157       21.6929       21.7085      10.406233       0.17870
   2     792.3       11.3942        0.0166       20.5500       20.5667       9.172470       0.14150
   1     891.5       11.6349        0.0179       19.2771       19.2950       7.660116       0.12869
   0    1013.0       12.3585        0.0192       17.8293       17.8485       5.490037       0.15068



 Wavenumbers:  6150. -  7700. cm-1, ATM      1
 LEVEL PRESSURE   UPWARD FLUX   DIFDOWN FLUX  DIRDOWN FLUX  DOWNWARD FLUX   NET FLUX    HEATING RATE
          mb          W/m2          W/m2          W/m2        W/m2          W/m2       degree/day
  51    .06700       16.6700        0.0000       66.9856       66.9856      50.315590       0.00000
  50    .07753       16.6700        0.0000       66.9856       66.9856      50.315533       0.04553
  49    .09103       16.6700        0.0000       66.9855       66.9855      50.315460       0.04583
  48    0.1069       16.6700        0.0000       66.9854       66.9854      50.315373       0.04614
  47    0.1255       16.6700        0.0000       66.9853       66.9853      50.315271       0.04645
  46    0.1487       16.6700        0.0000       66.9851       66.9852      50.315137       0.04853
  45    0.1794       16.6700        0.0000       66.9850       66.9850      50.314951       0.05128
  44    0.2165       16.6700        0.0000       66.9847       66.9847      50.314723       0.05169
  43    0.2613       16.6700        0.0000       66.9844       66.9845      50.314447       0.05213
  42    0.3336       16.6700        0.0000       66.9839       66.9840      50.313977       0.05475
  41    0.4307       16.6700        0.0000       66.9833       66.9833      50.313342       0.05526
  40    0.5894       16.6700        0.0001       66.9822       66.9823      50.312281       0.05641
  39     1.339       16.6699        0.0002       66.9769       66.9771      50.307174       0.05750
  38     1.782       16.6699        0.0002       66.9739       66.9741      50.304189       0.05682
  37     2.292       16.6699        0.0003       66.9704       66.9706      50.300791       0.05628
  36     2.964       16.6698        0.0004       66.9659       66.9662      50.296436       0.05467
  35     3.853       16.6697        0.0005       66.9601       66.9606      50.290841       0.05310
  34     5.035       16.6696        0.0006       66.9525       66.9532      50.283559       0.05202
  33     6.613       16.6695        0.0009       66.9427       66.9435      50.273997       0.05111
  32     8.786       16.6693        0.0011       66.9296       66.9307      50.261401       0.04892
  31     11.80       16.6691        0.0015       66.9115       66.9131      50.243961       0.04883
  30     15.07       16.6688        0.0020       66.8929       66.8948      50.225969       0.04645
  29     18.79       16.6686        0.0024       66.8727       66.8751      50.206563       0.04400
  28     23.16       16.6682        0.0030       66.8502       66.8532      50.184941       0.04181
  27     28.12       16.6678        0.0036       66.8255       66.8292      50.161373       0.04006
  26     33.73       16.6674        0.0044       66.7996       66.8039      50.136545       0.03733
  25     40.54       16.6669        0.0052       66.7701       66.7753      50.108460       0.03484
  24     48.69       16.6662        0.0063       66.7371       66.7434      50.077200       0.03235
  23     57.69       16.6655        0.0075       66.7032       66.7106      50.045092       0.03010
  22     68.43       16.6647        0.0088       66.6650       66.6738      50.009137       0.02827
  21     81.20       16.6637        0.0105       66.6217       66.6322      49.968526       0.02684
  20     96.49       16.6625        0.0125       66.5718       66.5842      49.921717       0.02584
  19     114.6       16.6611        0.0148       66.5134       66.5282      49.867083       0.02551
  18     136.5       16.6595        0.0176       66.4444       66.4620      49.802561       0.02481
  17     162.9       16.6575        0.0209       66.3456       66.3665      49.708991       0.02991
  16     196.4       16.6550        0.0251       66.1464       66.1716      49.516531       0.04844
  15     218.7       16.6535        0.0279       65.8725       65.9003      49.246805       0.10241
  14     243.0       16.6521        0.0308       65.3806       65.4113      48.759228       0.16911
  13     269.0       16.6509        0.0337       64.5319       64.5656      47.914646       0.27398
  12     297.5       16.6504        0.0365       63.1705       63.2071      46.556684       0.40276
  11     328.5       16.6507        0.0395       61.5522       61.5916      44.940923       0.43932
  10     361.9       16.6523        0.0424       59.8097       59.8522      43.199885       0.44050
   9     398.1       16.6558        0.0454       57.8831       57.9285      41.272676       0.44900
   8     437.6       16.6624        0.0482       55.6283       55.6765      39.014019       0.48291
   7     480.5       16.6735        0.0508       53.1112       53.1620      36.488464       0.49601
   6     533.0       16.6950        0.0537       50.0391       50.0928      33.397803       0.49719
   5     589.8       16.7328        0.0564       46.7741       46.8305      30.097684       0.48985
   4     651.6       16.8048        0.0587       43.2007       43.2594      26.454531       0.49821
   3     718.7       16.9356        0.0607       39.6522       39.7129      22.777302       0.46213
   2     792.3       17.1803        0.0624       36.1772       36.2396      19.059236       0.42642
   1     891.5       17.8155        0.0644       32.1325       32.1969      14.381376       0.39806
   0    1013.0       19.6373        0.0667       28.2888       28.3555       8.718191       0.39322



 Wavenumbers:  7700. -  8050. cm-1, ATM      1
 LEVEL PRESSURE   UPWARD FLUX   DIFDOWN FLUX  DIRDOWN FLUX  DOWNWARD FLUX   NET FLUX    HEATING RATE
          mb          W/m2          W/m2          W/m2        W/m2          W/m2       degree/day
  51    .06700        8.8833        0.0000       15.8307       15.8307       6.947348       0.00000
  50    .07753        8.8834        0.0000       15.8307       15.8307       6.947324       0.01908
  49    .09103        8.8834        0.0000       15.8307       15.8307       6.947295       0.01870
  48    0.1069        8.8834        0.0000       15.8306       15.8306       6.947260       0.01830
  47    0.1255        8.8834        0.0000       15.8306       15.8306       6.947221       0.01791
  46    0.1487        8.8834        0.0000       15.8306       15.8306       6.947171       0.01818
  45    0.1794        8.8834        0.0000       15.8305       15.8305       6.947103       0.01870
  44    0.2165        8.8834        0.0000       15.8304       15.8304       6.947022       0.01835
  43    0.2613        8.8834        0.0000       15.8304       15.8304       6.946926       0.01800
  42    0.3336        8.8835        0.0000       15.8302       15.8303       6.946768       0.01842
  41    0.4307        8.8835        0.0000       15.8301       15.8301       6.946559       0.01822
  40    0.5894        8.8836        0.0000       15.8298       15.8298       6.946217       0.01820
  39     1.339        8.8840        0.0001       15.8285       15.8286       6.944597       0.01823
  38     1.782        8.8843        0.0001       15.8278       15.8279       6.943645       0.01812
  37     2.292        8.8845        0.0001       15.8269       15.8271       6.942544       0.01824
  36     2.964        8.8849        0.0002       15.8258       15.8260       6.941097       0.01816
  35     3.853        8.8854        0.0002       15.8243       15.8245       6.939186       0.01814
  34     5.035        8.8860        0.0003       15.8223       15.8226       6.936646       0.01814
  33     6.613        8.8868        0.0004       15.8197       15.8201       6.933253       0.01814
  32     8.786        8.8880        0.0005       15.8161       15.8166       6.928679       0.01776
  31     11.80        8.8896        0.0007       15.8110       15.8117       6.922135       0.01832
  30     15.07        8.8914        0.0009       15.8055       15.8065       6.915108       0.01814
  29     18.79        8.8933        0.0012       15.7993       15.8005       6.907170       0.01800
  28     23.16        8.8957        0.0014       15.7921       15.7936       6.897900       0.01793
  27     28.12        8.8983        0.0018       15.7839       15.7856       6.887302       0.01802
  26     33.73        8.9013        0.0021       15.7747       15.7768       6.875447       0.01782
  25     40.54        8.9050        0.0025       15.7636       15.7661       6.861132       0.01776
  24     48.69        8.9094        0.0030       15.7503       15.7533       6.843889       0.01784
  23     57.69        8.9143        0.0036       15.7357       15.7392       6.824970       0.01773
  22     68.43        8.9201        0.0042       15.7183       15.7226       6.802466       0.01769
  21     81.20        8.9271        0.0050       15.6978       15.7028       6.775702       0.01769
  20     96.49        8.9356        0.0060       15.6735       15.6794       6.743877       0.01756
  19     114.6        8.9457        0.0071       15.6448       15.6519       6.706187       0.01760
  18     136.5        8.9578        0.0084       15.6110       15.6194       6.661646       0.01713
  17     162.9        8.9724        0.0100       15.5712       15.5812       6.608782       0.01690
  16     196.4        8.9918        0.0120       15.5202       15.5323       6.540489       0.01719
  15     218.7        9.0047        0.0134       15.4870       15.5004       6.495756       0.01698
  14     243.0        9.0189        0.0149       15.4512       15.4661       6.447174       0.01685
  13     269.0        9.0346        0.0164       15.4127       15.4291       6.394488       0.01709
  12     297.5        9.0520        0.0181       15.3712       15.3894       6.337366       0.01694
  11     328.5        9.0712        0.0200       15.3266       15.3466       6.275367       0.01686
  10     361.9        9.0925        0.0220       15.2787       15.3007       6.208138       0.01701
   9     398.1        9.1162        0.0241       15.2271       15.2512       6.134996       0.01704
   8     437.6        9.1428        0.0264       15.1715       15.1979       6.055101       0.01708
   7     480.5        9.1726        0.0289       15.1114       15.1402       5.967644       0.01718
   6     533.0        9.2114        0.0319       15.0363       15.0682       5.856774       0.01784
   5     589.8        9.2567        0.0352       14.9530       14.9882       5.731565       0.01859
   4     651.6        9.3109        0.0387       14.8584       14.8971       5.586167       0.01988
   3     718.7        9.3773        0.0425       14.7488       14.7912       5.413977       0.02164
   2     792.3        9.4614        0.0464       14.6185       14.6649       5.203485       0.02414
   1     891.5        9.6034        0.0517       14.4164       14.4681       4.864716       0.02883
   0    1013.0        9.8300        0.0578       14.1328       14.1906       4.360577       0.03500



 Wavenumbers:  8050. - 12850. cm-1, ATM      1
 LEVEL PRESSURE   UPWARD FLUX   DIFDOWN FLUX  DIRDOWN FLUX  DOWNWARD FLUX   NET FLUX    HEATING RATE
          mb          W/m2          W/m2          W/m2        W/m2          W/m2       degree/day
  51    .06700      107.3742        0.0000      221.6414      221.6414     114.267251       0.00000
  50    .07753      107.3742        0.0000      221.6414      221.6414     114.267251       0.00000
  49    .09103      107.3741        0.0001      221.6413      221.6414     114.267251      -0.00000
  48    0.1069      107.3741        0.0001      221.6413      221.6414     114.267251       0.00000
  47    0.1255      107.3741        0.0002      221.6412      221.6414     114.267251       0.00000
  46    0.1487      107.3741        0.0002      221.6411      221.6413     114.267251       0.00000
  45    0.1794      107.3741        0.0003      221.6410      221.6413     114.267251       0.00000
  44    0.2165      107.3740        0.0004      221.6408      221.6413     114.267251      -0.00000
  43    0.2613      107.3740        0.0006      221.6406      221.6412     114.267251       0.00000
  42    0.3336      107.3739        0.0008      221.6404      221.6412     114.267251      -0.00000
  41    0.4307      107.3738        0.0011      221.6400      221.6411     114.267251      -0.00000
  40    0.5894      107.3737        0.0016      221.6394      221.6409     114.267251       0.00000
  39     1.339      107.3729        0.0038      221.6364      221.6402     114.267251      -0.00000
  38     1.782      107.3725        0.0051      221.6347      221.6397     114.267251       0.00000
  37     2.292      107.3720        0.0066      221.6326      221.6392     114.267251      -0.00000
  36     2.964      107.3713        0.0086      221.6300      221.6386     114.267251      -0.00000
  35     3.853      107.3705        0.0112      221.6265      221.6377     114.267251       0.00000
  34     5.035      107.3693        0.0147      221.6219      221.6366     114.267251      -0.00000
  33     6.613      107.3678        0.0193      221.6157      221.6350     114.267251       0.00000
  32     8.786      107.3657        0.0256      221.6073      221.6329     114.267251      -0.00000
  31     11.80      107.3627        0.0346      221.5953      221.6299     114.267251       0.00000
  30     15.07      107.3595        0.0443      221.5824      221.6267     114.267251       0.00000
  29     18.79      107.3559        0.0552      221.5679      221.6231     114.267251       0.00000
  28     23.16      107.3516        0.0680      221.5509      221.6189     114.267251       0.00000
  27     28.12      107.3468        0.0827      221.5314      221.6140     114.267251      -0.00000
  26     33.73      107.3413        0.0991      221.5095      221.6086     114.267251       0.00000
  25     40.54      107.3348        0.1189      221.4831      221.6020     114.267251       0.00000
  24     48.69      107.3268        0.1429      221.4512      221.5941     114.267251       0.00000
  23     57.69      107.3181        0.1693      221.4160      221.5853     114.267251      -0.00000
  22     68.43      107.3076        0.2007      221.3742      221.5749     114.267251       0.00000
  21     81.20      107.2952        0.2383      221.3242      221.5624     114.267251       0.00000
  20     96.49      107.2803        0.2831      221.2645      221.5475     114.267251      -0.00000
  19     114.6      107.2628        0.3364      221.1874      221.5238     114.261000       0.00292
  18     136.5      107.2420        0.3997      221.0955      221.4953     114.253236       0.00299
  17     162.9      107.2172        0.4753      220.9822      221.4576     114.240335       0.00412
  16     196.4      107.1851        0.5737      220.8187      221.3923     114.207169       0.00835
  15     218.7      107.1642        0.6383      220.6707      221.3091     114.144827       0.02367
  14     243.0      107.1421        0.7086      220.4287      221.1373     113.995255       0.05188
  13     269.0      107.1195        0.7847      220.0220      220.8067     113.687189       0.09994
  12     297.5      107.0981        0.8667      219.4012      220.2679     113.169814       0.15345
  11     328.5      107.0786        0.9551      218.6334      219.5885     112.509934       0.17942
  10     361.9      107.0630        1.0501      217.7189      218.7690     111.705932       0.20342
   9     398.1      107.0547        1.1518      216.5930      217.7448     110.690124       0.23666
   8     437.6      107.0593        1.2601      215.1496      216.4097     109.350461       0.28643
   7     480.5      107.0834        1.3749      213.3351      214.7100     107.626630       0.33855
   6     533.0      107.1494        1.5140      210.7304      212.2443     105.094970       0.40726
   5     589.8      107.2871        1.6602      207.3820      209.0422     101.755038       0.49576
   4     651.6      107.5750        1.8106      202.8431      204.6537      97.078677       0.63950
   3     718.7      108.1158        1.9641      197.1883      199.1524      91.036659       0.75931
   2     792.3      109.1385        2.1172      190.3308      192.4480      83.309469       0.88622
   1     891.5      111.7380        2.3044      180.2440      182.5483      70.810385       1.06361
   0    1013.0      118.3941        2.5062      168.1411      170.6474      52.253311       1.28851



 Wavenumbers: 12850. - 16000. cm-1, ATM      1
 LEVEL PRESSURE   UPWARD FLUX   DIFDOWN FLUX  DIRDOWN FLUX  DOWNWARD FLUX   NET FLUX    HEATING RATE
          mb          W/m2          W/m2          W/m2        W/m2          W/m2       degree/day
  51    .06700      101.4653        0.0000      138.8779      138.8779      37.412636       0.00000
  50    .07753      101.4653        0.0001      138.8771      138.8771      37.411838       0.63966
  49    .09103      101.4653        0.0002      138.8760      138.8762      37.410832       0.62901
  48    0.1069      101.4653        0.0003      138.8747      138.8750      37.409670       0.61842
  47    0.1255      101.4654        0.0004      138.8733      138.8737      37.408328       0.60836
  46    0.1487      101.4654        0.0006      138.8715      138.8721      37.406624       0.62113
  45    0.1794      101.4655        0.0008      138.8690      138.8698      37.404288       0.64110
  44    0.2165      101.4657        0.0011      138.8661      138.8672      37.401517       0.63043
  43    0.2613      101.4659        0.0014      138.8627      138.8641      37.398226       0.62038
  42    0.3336      101.4663        0.0019      138.8572      138.8591      37.392786       0.63420
  41    0.4307      101.4669        0.0026      138.8499      138.8525      37.385630       0.62225
  40    0.5894      101.4681        0.0037      138.8385      138.8422      37.374108       0.61273
  39     1.339      101.4775        0.0090      138.7880      138.7970      37.319406       0.61584
  38     1.782      101.4859        0.0121      138.7596      138.7717      37.285833       0.63917
  37     2.292      101.4981        0.0157      138.7266      138.7423      37.244223       0.68917
  36     2.964      101.5181        0.0204      138.6819      138.7023      37.184208       0.75338
  35     3.853      101.5500        0.0266      138.6198      138.6464      37.096355       0.83374
  34     5.035      101.5980        0.0349      138.5344      138.5693      36.971312       0.89325
  33     6.613      101.6648        0.0459      138.4204      138.4663      36.801514       0.90774
  32     8.786      101.7519        0.0607      138.2733      138.3340      36.582085       0.85218
  31     11.80      101.8657        0.0820      138.0786      138.1606      36.294875       0.80410
  30     15.07      101.9752        0.1048      137.8868      137.9916      36.016399       0.71897
  29     18.79      102.0875        0.1306      137.6855      137.8161      35.728566       0.65261
  28     23.16      102.2056        0.1606      137.4680      137.6286      35.423070       0.59073
  27     28.12      102.3252        0.1951      137.2394      137.4345      35.109279       0.53342
  26     33.73      102.4372        0.2336      137.0123      137.2459      34.808679       0.45196
  25     40.54      102.5470        0.2801      136.7709      137.0510      34.503984       0.37801
  24     48.69      102.6547        0.3363      136.5127      136.8490      34.194304       0.32047
  23     57.69      102.7491        0.3981      136.2615      136.6596      33.910483       0.26604
  22     68.43      102.8355        0.4718      135.9978      136.4696      33.634041       0.21732
  21     81.20      102.9029        0.5597      135.7317      136.2914      33.388466       0.16227
  20     96.49      102.9503        0.6647      135.4607      136.1255      33.175123       0.11775
  19     114.6      103.0071        0.7909      135.1644      135.9553      32.948200       0.10596
  18     136.5      103.0596        0.9406      134.8342      135.7748      32.715193       0.08960
  17     162.9      103.1085        1.1190      134.4579      135.5769      32.468384       0.07889
  16     196.4      103.1431        1.3506      133.9963      135.3469      32.203869       0.06658
  15     218.7      103.1554        1.5029      133.6998      135.2027      32.047274       0.05945
  14     243.0      103.1644        1.6686      133.3774      135.0460      31.881559       0.05748
  13     269.0      103.1700        1.8482      133.0264      134.8746      31.704589       0.05741
  12     297.5      103.1731        2.0426      132.6427      134.6853      31.512173       0.05707
  11     328.5      103.1763        2.2528      132.2217      134.4745      31.298185       0.05818
  10     361.9      103.1809        2.4793      131.7605      134.2399      31.058973       0.06052
   9     398.1      103.1888        2.7234      131.2542      133.9776      30.788782       0.06295
   8     437.6      103.2039        2.9857      130.6947      133.6804      30.476585       0.06675
   7     480.5      103.2297        3.2672      130.0757      133.3429      30.113145       0.07138
   6     533.0      103.2809        3.6137      129.2798      132.8935      29.612585       0.08052
   5     589.8      103.3724        3.9871      128.3629      132.3500      28.977641       0.09425
   4     651.6      103.5456        4.3873      127.2587      131.6459      28.100324       0.11998
   3     718.7      103.8290        4.8125      125.9469      130.7593      26.930350       0.14703
   2     792.3      104.3120        5.2591      124.3467      129.6058      25.293872       0.18769
   1     891.5      105.3970        5.8436      121.8598      127.7034      22.306436       0.25422
   0    1013.0      107.6136        6.5185      118.5353      125.0538      17.440183       0.33789



 Wavenumbers: 16000. - 22650. cm-1, ATM      1
 LEVEL PRESSURE   UPWARD FLUX   DIFDOWN FLUX  DIRDOWN FLUX  DOWNWARD FLUX   NET FLUX    HEATING RATE
          mb          W/m2          W/m2          W/m2        W/m2          W/m2       degree/day
  51    .06700      200.8811        0.0000      221.4255      221.4255      20.544442       0.00000
  50    .07753      200.8811        0.0005      221.4249      221.4254      20.544266       0.14065
  49    .09103      200.8812        0.0010      221.4242      221.4252      20.544011       0.15953
  48    0.1069      200.8814        0.0017      221.4233      221.4250      20.543670       0.18192
  47    0.1255      200.8816        0.0025      221.4223      221.4248      20.543212       0.20736
  46    0.1487      200.8819        0.0034      221.4210      221.4244      20.542538       0.24572
  45    0.1794      200.8823        0.0048      221.4191      221.4238      20.541484       0.28932
  44    0.2165      200.8830        0.0063      221.4167      221.4231      20.540055       0.32516
  43    0.2613      200.8839        0.0082      221.4139      221.4220      20.538115       0.36556
  42    0.3336      200.8857        0.0112      221.4089      221.4201      20.534428       0.42990
  41    0.4307      200.8884        0.0153      221.4020      221.4172      20.528870       0.48326
  40    0.5894      200.8936        0.0219      221.3899      221.4118      20.518270       0.56371
  39     1.339      200.9330        0.0533      221.3197      221.3730      20.439947       0.88178
  38     1.782      200.9671        0.0717      221.2686      221.3403      20.373215       1.27046
  37     2.292      201.0167        0.0930      221.2003      221.2933      20.276607       1.60008
  36     2.964      201.0976        0.1210      221.0966      221.2177      20.120067       1.96505
  35     3.853      201.2265        0.1580      220.9401      221.0981      19.871593       2.35807
  34     5.035      201.4194        0.2071      220.7131      220.9201      19.500702       2.64949
  33     6.613      201.6884        0.2726      220.4007      220.6733      18.984906       2.75745
  32     8.786      202.0393        0.3608      219.9916      220.3524      18.313102       2.60905
  31     11.80      202.4986        0.4870      219.4471      219.9341      17.435478       2.45707
  30     15.07      202.9418        0.6223      218.9095      219.5318      16.590053       2.18272
  29     18.79      203.3974        0.7752      218.3446      219.1198      15.722354       1.96734
  28     23.16      203.8778        0.9536      217.7335      218.6871      14.809279       1.76559
  27     28.12      204.3665        1.1575      217.0908      218.2483      13.881833       1.57660
  26     33.73      204.8263        1.3858      216.4498      217.8356      13.009330       1.31183
  25     40.54      205.2810        1.6617      215.7649      217.4266      12.145641       1.07150
  24     48.69      205.7311        1.9944      215.0258      217.0203      11.289195       0.88629
  23     57.69      206.1306        2.3600      214.2972      216.6572      10.526504       0.71491
  22     68.43      206.5041        2.7955      213.5181      216.3136       9.809404       0.56374
  21     81.20      206.8088        3.3149      212.7092      216.0240       9.215259       0.39260
  20     96.49      207.0413        3.9341      211.8555      215.7896       8.748285       0.25774
  19     114.6      207.2498        4.6687      210.9014      215.5701       8.320302       0.19984
  18     136.5      207.4509        5.5379      209.8116      215.3495       7.898559       0.16217
  17     162.9      207.6482        6.5708      208.5526      215.1234       7.475280       0.13530
  16     196.4      207.8133        7.9076      206.9994      214.9070       7.093726       0.09604
  15     218.7      207.8880        8.7836      206.0098      214.7934       6.905385       0.07151
  14     243.0      207.9533        9.7339      204.9497      214.6835       6.730190       0.06076
  13     269.0      208.0075       10.7616      203.8170      214.5786       6.571161       0.05159
  12     297.5      208.0499       11.8698      202.6090      214.4787       6.428823       0.04222
  11     328.5      208.0876       13.0643      201.3135      214.3777       6.290098       0.03772
  10     361.9      208.1204       14.3470      199.9286      214.2756       6.155168       0.03414
   9     398.1      208.1487       15.7237      198.4479      214.1716       6.022951       0.03080
   8     437.6      208.1742       17.1978      196.8659      214.0638       5.889568       0.02852
   7     480.5      208.1970       18.7731      195.1786      213.9517       5.754653       0.02650
   6     533.0      208.2221       20.7057      193.1100      213.8157       5.593589       0.02591
   5     589.8      208.2512       22.7812      190.8850      213.6661       5.414911       0.02652
   4     651.6      208.2943       25.0039      188.4887      213.4927       5.198325       0.02962
   3     718.7      208.3615       27.3790      185.9074      213.2864       4.924974       0.03435
   2     792.3      208.4776       29.9069      183.1195      213.0264       4.548787       0.04314
   1     891.5      208.7462       33.2907      179.2970      212.5878       3.841610       0.06018
   0    1013.0      209.2539       37.3101      174.6356      211.9457       2.691710       0.07984



 Wavenumbers: 22650. - 29000. cm-1, ATM      1
 LEVEL PRESSURE   UPWARD FLUX   DIFDOWN FLUX  DIRDOWN FLUX  DOWNWARD FLUX   NET FLUX    HEATING RATE
          mb          W/m2          W/m2          W/m2        W/m2          W/m2       degree/day
  51    .06700       82.5090        0.0000       83.5579       83.5579       1.048905       0.00000
  50    .07753       82.5090        0.0005       83.5574       83.5579       1.048905       0.00000
  49    .09103       82.5090        0.0012       83.5567       83.5579       1.048905       0.00000
  48    0.1069       82.5090        0.0020       83.5559       83.5579       1.048905       0.00000
  47    0.1255       82.5089        0.0029       83.5550       83.5579       1.048905      -0.00000
  46    0.1487       82.5089        0.0040       83.5538       83.5578       1.048905       0.00000
  45    0.1794       82.5089        0.0056       83.5522       83.5578       1.048905      -0.00000
  44    0.2165       82.5088        0.0074       83.5504       83.5577       1.048905       0.00000
  43    0.2613       82.5088        0.0095       83.5481       83.5577       1.048905      -0.00000
  42    0.3336       82.5087        0.0131       83.5445       83.5576       1.048905       0.00000
  41    0.4307       82.5086        0.0179       83.5396       83.5575       1.048905       0.00000
  40    0.5894       82.5084        0.0256       83.5317       83.5573       1.048905       0.00000
  39     1.339       82.5075        0.0623       83.4941       83.5564       1.048905       0.00000
  38     1.782       82.5070        0.0839       83.4720       83.5559       1.048905      -0.00000
  37     2.292       82.5063        0.1088       83.4464       83.5552       1.048905       0.00000
  36     2.964       82.5055        0.1415       83.4129       83.5544       1.048905       0.00000
  35     3.853       82.5045        0.1848       83.3686       83.5534       1.048905       0.00000
  34     5.035       82.5031        0.2422       83.3097       83.5520       1.048905       0.00000
  33     6.613       82.5012        0.3190       83.2311       83.5501       1.048905      -0.00000
  32     8.786       82.4986        0.4223       83.1252       83.5475       1.048905       0.00000
  31     11.80       82.4950        0.5701       82.9738       83.5439       1.048905      -0.00000
  30     15.07       82.4911        0.7286       82.8114       83.5400       1.048905       0.00000
  29     18.79       82.4867        0.9074       82.6282       83.5356       1.048905       0.00000
  28     23.16       82.4816        1.1160       82.4145       83.5305       1.048905       0.00000
  27     28.12       82.4757        1.3542       82.1704       83.5246       1.048905       0.00000
  26     33.73       82.4691        1.6201       81.8979       83.5180       1.048905       0.00000
  25     40.54       82.4612        1.9407       81.5695       83.5101       1.048905      -0.00000
  24     48.69       82.4517        2.3258       81.1748       83.5006       1.048905       0.00000
  23     57.69       82.4413        2.7473       80.7428       83.4902       1.048905      -0.00000
  22     68.43       82.4289        3.2470       80.2307       83.4778       1.048905      -0.00000
  21     81.20       82.4141        3.8390       79.6240       83.4631       1.048905       0.00000
  20     96.49       82.3967        4.5396       78.9060       83.4456       1.048905       0.00000
  19     114.6       82.3761        5.3643       78.0607       83.4250       1.048905      -0.00000
  18     136.5       82.3518        6.3320       77.0688       83.4007       1.048905       0.00000
  17     162.9       82.3231        7.4703       75.9018       83.3720       1.048905       0.00000
  16     196.4       82.2863        8.9238       74.4115       83.3352       1.048905      -0.00000
  15     218.7       82.2624        9.8646       73.4467       83.3113       1.048905      -0.00000
  14     243.0       82.2366       10.8751       72.4103       83.2855       1.048905       0.00000
  13     269.0       82.2088       11.9562       71.3015       83.2577       1.048905       0.00000
  12     297.5       82.1791       13.1082       70.1197       83.2280       1.048905      -0.00000
  11     328.5       82.1472       14.3347       68.8614       83.1961       1.048905       0.00000
  10     361.9       82.1133       15.6341       67.5281       83.1622       1.048905       0.00000
   9     398.1       82.0772       17.0086       66.1174       83.1261       1.048905       0.00000
   8     437.6       82.0388       18.4577       64.6300       83.0877       1.048905      -0.00000
   7     480.5       81.9981       19.9804       63.0666       83.0470       1.048905       0.00000
   6     533.0       81.9487       21.8127       61.1849       82.9976       1.048905      -0.00000
   5     589.8       81.8962       23.7375       59.2076       82.9451       1.048905       0.00000
   4     651.6       81.8406       25.7510       57.1385       82.8895       1.048905      -0.00000
   3     718.7       81.7818       27.8490       54.9817       82.8307       1.048905       0.00000
   2     792.3       81.7200       30.0242       52.7446       82.7689       1.048905       0.00000
   1     891.5       81.6381       32.8470       49.8400       82.6870       1.048905       0.00000
   0    1013.0       81.5420       36.0723       46.5186       82.5909       1.048905      -0.00000



 Wavenumbers: 29000. - 38000. cm-1, ATM      1
 LEVEL PRESSURE   UPWARD FLUX   DIFDOWN FLUX  DIRDOWN FLUX  DOWNWARD FLUX   NET FLUX    HEATING RATE
          mb          W/m2          W/m2          W/m2        W/m2          W/m2       degree/day
  51    .06700       12.7316        0.0000       29.4660       29.4660      16.734372       0.00000
  50    .07753       12.7315        0.0003       29.4617       29.4620      16.730556       3.05884
  49    .09103       12.7313        0.0008       29.4555       29.4563      16.725003       3.47079
  48    0.1069       12.7311        0.0013       29.4474       29.4487      16.717567       3.95822
  47    0.1255       12.7309        0.0019       29.4366       29.4385      16.707619       4.51012
  46    0.1487       12.7306        0.0026       29.4210       29.4236      16.692973       5.33833
  45    0.1794       12.7303        0.0036       29.3969       29.4004      16.670139       6.26861
  44    0.2165       12.7299        0.0047       29.3645       29.3692      16.639307       7.01372
  43    0.2613       12.7296        0.0061       29.3212       29.3273      16.597751       7.83312
  42    0.3336       12.7290        0.0083       29.2404       29.2487      16.519688       9.10141
  41    0.4307       12.7285        0.0113       29.1216       29.1329      16.404451      10.01957
  40    0.5894       12.7278        0.0160       28.9044       28.9204      16.192528      11.26983
  39     1.339       12.7302        0.0366       27.6014       27.6380      14.907743      14.46434
  38     1.782       12.7351        0.0473       26.7907       26.8381      14.102929      15.32236
  37     2.292       12.7438        0.0590       25.9184       25.9775      13.233670      14.39720
  36     2.964       12.7596        0.0735       24.9351       25.0086      12.249042      12.36006
  35     3.853       12.7866        0.0919       23.8931       23.9850      11.198313       9.97161
  34     5.035       12.8286        0.1152       22.8387       22.9539      10.125264       7.66542
  33     6.613       12.8882        0.1455       21.8116       21.9571       9.068867       5.64750
  32     8.786       12.9669        0.1852       20.8422       21.0274       8.060500       3.91613
  31     11.80       13.0711        0.2407       19.8906       20.1314       7.060263       2.80035
  30     15.07       13.1735        0.2993       19.1622       19.4615       6.287978       1.99389
  29     18.79       13.2812        0.3641       18.5321       18.8962       5.614913       1.52605
  28     23.16       13.3981        0.4385       17.9546       18.3931       4.995022       1.19867
  27     28.12       13.5209        0.5224       17.4280       17.9505       4.429594       0.96119
  26     33.73       13.6397        0.6159       16.9644       17.5802       3.940556       0.73528
  25     40.54       13.7601        0.7281       16.5188       17.2469       3.486857       0.56286
  24     48.69       13.8826        0.8627       16.0802       16.9429       3.060297       0.44142
  23     57.69       13.9943        1.0096       15.6801       16.6896       2.695357       0.34208
  22     68.43       14.1005        1.1833       15.2796       16.4629       2.362394       0.26175
  21     81.20       14.1861        1.3902       14.8885       16.2787       2.092639       0.17825
  20     96.49       14.2482        1.6388       14.4959       16.1347       1.886511       0.11377
  19     114.6       14.3016        1.9258       14.0739       15.9997       1.698018       0.08801
  18     136.5       14.3529        2.2578       13.6094       15.8673       1.514344       0.07063
  17     162.9       14.4036        2.6414       13.0932       15.7346       1.331020       0.05860
  16     196.4       14.4418        3.1250       12.4834       15.6084       1.166641       0.04138
  15     218.7       14.4571        3.4338       12.1087       15.5425       1.085365       0.03086
  14     243.0       14.4696        3.7607       11.7184       15.4791       1.009480       0.02632
  13     269.0       14.4785        4.1054       11.3137       15.4191       0.940588       0.02235
  12     297.5       14.4835        4.4669       10.8958       15.3627       0.879192       0.01821
  11     328.5       14.4872        4.8446       10.4624       15.3070       0.819785       0.01615
  10     361.9       14.4896        5.2362       10.0161       15.2522       0.762635       0.01446
   9     398.1       14.4906        5.6413        9.5572       15.1985       0.707879       0.01276
   8     437.6       14.4909        6.0579        9.0876       15.1454       0.654512       0.01141
   7     480.5       14.4902        6.4843        8.6092       15.0935       0.603297       0.01006
   6     533.0       14.4885        6.9820        8.0533       15.0353       0.546825       0.00908
   5     589.8       14.4867        7.4868        7.4914       14.9782       0.491475       0.00822
   4     651.6       14.4853        7.9941        6.9279       14.9220       0.436676       0.00749
   3     718.7       14.4848        8.5018        6.3654       14.8672       0.382390       0.00682
   2     792.3       14.4854        9.0047        5.8093       14.8141       0.328671       0.00616
   1     891.5       14.4887        9.6223        5.1280       14.7503       0.261559       0.00571
   0    1013.0       14.4974       10.2795        4.4044       14.6839       0.186485       0.00521



 Wavenumbers: 38000. - 50000. cm-1, ATM      1
 LEVEL PRESSURE   UPWARD FLUX   DIFDOWN FLUX  DIRDOWN FLUX  DOWNWARD FLUX   NET FLUX    HEATING RATE
          mb          W/m2          W/m2          W/m2        W/m2          W/m2       degree/day
  51    .06700        0.0069        0.0000        1.8174        1.8174       1.810587       0.00000
  50    .07753        0.0068        0.0001        1.8150        1.8150       1.808250       1.87287
  49    .09103        0.0067        0.0002        1.8115        1.8116       1.804913       2.08560
  48    0.1069        0.0066        0.0002        1.8069        1.8072       1.800524       2.33660
  47    0.1255        0.0066        0.0004        1.8009        1.8013       1.794746       2.61955
  46    0.1487        0.0064        0.0005        1.7923        1.7928       1.786369       3.05332
  45    0.1794        0.0063        0.0007        1.7791        1.7798       1.773484       3.53721
  44    0.2165        0.0061        0.0009        1.7616        1.7625       1.756329       3.90263
  43    0.2613        0.0059        0.0011        1.7383        1.7395       1.733542       4.29520
  42    0.3336        0.0056        0.0015        1.6956        1.6971       1.691503       4.90131
  41    0.4307        0.0053        0.0020        1.6341        1.6361       1.630864       5.27240
  40    0.5894        0.0047        0.0026        1.5252        1.5278       1.523151       5.72807
  39     1.339        0.0029        0.0038        0.9646        0.9684       0.965456       6.27863
  38     1.782        0.0022        0.0036        0.6957        0.6993       0.697085       5.10936
  37     2.292        0.0017        0.0031        0.4747        0.4778       0.476111       3.65991
  36     2.964        0.0013        0.0025        0.3027        0.3052       0.303941       2.16125
  35     3.853        0.0009        0.0020        0.1866        0.1886       0.187698       1.10317
  34     5.035        0.0007        0.0016        0.1122        0.1138       0.113105       0.53286
  33     6.613        0.0005        0.0012        0.0667        0.0679       0.067378       0.24446
  32     8.786        0.0003        0.0009        0.0393        0.0402       0.039909       0.10668
  31     11.80        0.0002        0.0007        0.0215        0.0222       0.021941       0.05031
  30     15.07        0.0001        0.0005        0.0123        0.0127       0.012593       0.02414
  29     18.79        0.0001        0.0003        0.0069        0.0072       0.007141       0.01236
  28     23.16        0.0000        0.0002        0.0038        0.0040       0.003907       0.00625
  27     28.12        0.0000        0.0001        0.0020        0.0021       0.002085       0.00310
  26     33.73        0.0000        0.0001        0.0011        0.0011       0.001113       0.00146
  25     40.54        0.0000        0.0000        0.0005        0.0006       0.000564       0.00068
  24     48.69        0.0000        0.0000        0.0002        0.0003       0.000267       0.00031
  23     57.69        0.0000        0.0000        0.0001        0.0001       0.000125       0.00013
  22     68.43        0.0000        0.0000        0.0000        0.0001       0.000054       0.00006
  21     81.20        0.0000        0.0000        0.0000        0.0000       0.000021       0.00002
  20     96.49        0.0000        0.0000        0.0000        0.0000       0.000008       0.00001
  19     114.6        0.0000        0.0000        0.0000        0.0000       0.000002       0.00000
  18     136.5        0.0000        0.0000        0.0000        0.0000       0.000001       0.00000
  17     162.9        0.0000        0.0000        0.0000        0.0000       0.000000       0.00000
  16     196.4        0.0000        0.0000        0.0000        0.0000       0.000000       0.00000
  15     218.7        0.0000        0.0000        0.0000        0.0000       0.000000       0.00000
  14     243.0        0.0000        0.0000        0.0000        0.0000       0.000000       0.00000
  13     269.0        0.0000        0.0000        0.0000        0.0000       0.000000       0.00000
  12     297.5        0.0000        0.0000        0.0000        0.0000       0.000000       0.00000
  11     328.5        0.0000        0.0000        0.0000        0.0000       0.000000       0.00000
  10     361.9        0.0000        0.0000        0.0000        0.0000       0.000000       0.00000
   9     398.1        0.0000        0.0000        0.0000        0.0000       0.000000       0.00000
   8     437.6        0.0000        0.0000        0.0000        0.0000       0.000000       0.00000
   7     480.5        0.0000        0.0000        0.0000        0.0000       0.000000       0.00000
   6     533.0        0.0000        0.0000        0.0000        0.0000       0.000000       0.00000
   5     589.8        0.0000        0.0000        0.0000        0.0000       0.000000       0.00000
   4     651.6        0.0000        0.0000        0.0000        0.0000       0.000000       0.00000
   3     718.7        0.0000        0.0000        0.0000        0.0000       0.000000       0.00000
   2     792.3        0.0000        0.0000        0.0000        0.0000       0.000000       0.00000
   1     891.5        0.0000        0.0000        0.0000        0.0000       0.000000       0.00000
   0    1013.0        0.0000        0.0000        0.0000        0.0000       0.000000       0.00000



 Wavenumbers:   820. -  2600. cm-1, ATM      1
 LEVEL PRESSURE   UPWARD FLUX   DIFDOWN FLUX  DIRDOWN FLUX  DOWNWARD FLUX   NET FLUX    HEATING RATE
          mb          W/m2          W/m2          W/m2        W/m2          W/m2       degree/day
  51    .06700        1.1716        0.0000        8.5018        8.5018       7.330134       0.00000
  50    .07753        1.1716        0.0000        8.4967        8.4967       7.325061       4.06666
  49    .09103        1.1716        0.0000        8.4957        8.4957       7.324038       0.63942
  48    0.1069        1.1716        0.0000        8.4946        8.4946       7.322997       0.55374
  47    0.1255        1.1716        0.0000        8.4934        8.4934       7.321794       0.54563
  46    0.1487        1.1716        0.0000        8.4919        8.4919       7.320286       0.54971
  45    0.1794        1.1716        0.0000        8.4899        8.4899       7.318305       0.54373
  44    0.2165        1.1716        0.0000        8.4877        8.4877       7.316105       0.50038
  43    0.2613        1.1716        0.0000        8.4853        8.4853       7.313702       0.45299
  42    0.3336        1.1716        0.0000        8.4818        8.4818       7.310155       0.41357
  41    0.4307        1.1716        0.0000        8.4776        8.4776       7.306024       0.35917
  40    0.5894        1.1716        0.0000        8.4714        8.4714       7.299825       0.32969
  39     1.339        1.1716        0.0000        8.4430        8.4430       7.271426       0.31971
  38     1.782        1.1716        0.0000        8.4270        8.4270       7.255424       0.30466
  37     2.292        1.1716        0.0000        8.4092        8.4092       7.237559       0.29590
  36     2.964        1.1716        0.0000        8.3865        8.3865       7.214882       0.28467
  35     3.853        1.1716        0.0000        8.3577        8.3577       7.186062       0.27351
  34     5.035        1.1716        0.0000        8.3215        8.3215       7.149881       0.25846
  33     6.613        1.1716        0.0000        8.2764        8.2764       7.104771       0.24116
  32     8.786        1.1717        0.0000        8.2194        8.2194       7.047722       0.22156
  31     11.80        1.1717        0.0000        8.1446        8.1446       6.972944       0.20935
  30     15.07        1.1717        0.0000        8.0754        8.0754       6.903677       0.17883
  29     18.79        1.1717        0.0000        8.0128        8.0128       6.841121       0.14183
  28     23.16        1.1717        0.0000        7.9590        7.9590       6.787318       0.10404
  27     28.12        1.1717        0.0000        7.9161        7.9161       6.744399       0.07296
  26     33.73        1.1718        0.0000        7.8821        7.8821       6.710305       0.05126
  25     40.54        1.1718        0.0000        7.8499        7.8499       6.678152       0.03989
  24     48.69        1.1718        0.0000        7.8158        7.8158       6.644007       0.03533
  23     57.69        1.1719        0.0000        7.7797        7.7797       6.607886       0.03386
  22     68.43        1.1719        0.0000        7.7374        7.7374       6.565490       0.03333
  21     81.20        1.1720        0.0000        7.6882        7.6882       6.516249       0.03254
  20     96.49        1.1720        0.0000        7.6308        7.6308       6.458776       0.03172
  19     114.6        1.1721        0.0000        7.5634        7.5634       6.391291       0.03151
  18     136.5        1.1722        0.0000        7.4848        7.4848       6.312604       0.03026
  17     162.9        1.1723        0.0000        7.3856        7.3856       6.213257       0.03176
  16     196.4        1.1726        0.0000        7.2319        7.2319       6.059349       0.03874
  15     218.7        1.1728        0.0000        7.0876        7.0876       5.914750       0.05490
  14     243.0        1.1732        0.0000        6.8729        6.8730       5.699727       0.07458
  13     269.0        1.1738        0.0000        6.6091        6.6091       5.435241       0.08580
  12     297.5        1.1748        0.0000        6.3323        6.3324       5.157546       0.08236
  11     328.5        1.1761        0.0000        6.0695        6.0695       4.893365       0.07183
  10     361.9        1.1779        0.0000        5.7689        5.7689       4.591008       0.07650
   9     398.1        1.1803        0.0000        5.4237        5.4238       4.243497       0.08096
   8     437.6        1.1834        0.0000        5.0655        5.0655       3.882166       0.07725
   7     480.5        1.1872        0.0000        4.7587        4.7587       3.571564       0.06100
   6     533.0        1.1930        0.0000        4.5037        4.5038       3.310741       0.04196
   5     589.8        1.2018        0.0000        4.3065        4.3066       3.104773       0.03057
   4     651.6        1.2174        0.0001        4.0793        4.0793       2.861919       0.03321
   3     718.7        1.2444        0.0001        3.8014        3.8014       2.557049       0.03831
   2     792.3        1.2938        0.0001        3.4809        3.4809       2.187151       0.04242
   1     891.5        1.4199        0.0001        3.0516        3.0517       1.631804       0.04726
   0    1013.0        1.7461        0.0001        2.5222        2.5222       0.776083       0.05942

  Modules and versions used in this calculation:

       rrtmg_sw.1col.f90:  $Revision$                    rrtmg_sw_init.f90:  $Revision$        
     rrtmgsw_cldprop.f90:  $Revision$                  rrtmgsw_cldprmc.f90:  NOT USED          
     rrtmg_sw_reftra.f90:  $Revision$                  rrtmg_sw_spcvrt.f90:  NOT USED          
     rrtmg_sw_spcvmc.f90:  NOT USED                    rrtmgsw_setcoef.f90:  NOT USED          
     rrtmg_sw_taumol.f90:  $Revision$                  rrtmg_sw_vrtqdr.f90:  NOT USED          
                rrtatm.f:  NOT USED                             util_xxx.f:  NOT USED          
                 extra.f:  NOT USED                       rrtmg_sw_k_g.f90:  $Revision$        

