

 Wavenumbers:   820. - 50000. cm-1, ATM      1
 LEVEL PRESSURE   UPWARD FLUX   DIFDOWN FLUX  DIRDOWN FLUX  DOWNWARD FLUX   NET FLUX    HEATING RATE
          mb          W/m2          W/m2          W/m2        W/m2          W/m2       degree/day
  51    .06700      812.1947        0.0000     1278.7799     1278.7799     466.585218       0.00000
  50    .07753      812.1949        0.0018     1278.7584     1278.7602     466.565302      15.96295
  49    .09103      812.1952        0.0041     1278.7391     1278.7432     466.548019      10.80259
  48    0.1069      812.1957        0.0067     1278.7175     1278.7243     466.528630      10.32065
  47    0.1255      812.1962        0.0098     1278.6917     1278.7015     466.505254      10.59758
  46    0.1487      812.1971        0.0136     1278.6568     1278.6704     466.473288      11.65220
  45    0.1794      812.1985        0.0188     1278.6056     1278.6244     466.425920      13.00365
  44    0.2165      812.2003        0.0249     1278.5398     1278.5647     466.364431      13.98752
  43    0.2613      812.2028        0.0322     1278.4547     1278.4869     466.284124      15.13756
  42    0.3336      812.2076        0.0442     1278.3008     1278.3450     466.137416      17.10472
  41    0.4307      812.2148        0.0601     1278.0803     1278.1403     465.925510      18.42475
  40    0.5894      812.2286        0.0858     1277.6854     1277.7711     465.542514      20.36726
  39     1.339      812.3311        0.2040     1275.3444     1275.5484     463.217338      26.17725
  38     1.782      812.4176        0.2712     1273.8499     1274.1211     461.703451      28.82196
  37     2.292      812.5421        0.3478     1272.1980     1272.5459     460.003778      28.15103
  36     2.964      812.7426        0.4476     1270.2920     1270.7397     457.997090      25.18999
  35     3.853      813.0593        0.5788     1268.2542     1268.8330     455.773640      21.10095
  34     5.035      813.5313        0.7523     1266.1620     1266.9143     453.382991      17.07780
  33     6.613      814.1890        0.9836     1264.0075     1264.9911     450.802078      13.79757
  32     8.786      815.0506        1.2945     1261.7729     1263.0674     448.016760      10.81717
  31     11.80      816.1882        1.7383     1259.2970     1261.0353     444.847094       8.87407
  30     15.07      817.2993        2.2140     1257.1408     1259.3548     442.055576       7.20716
  29     18.79      818.4560        2.7503     1255.0524     1257.8026     439.346636       6.14200
  28     23.16      819.6940        3.3758     1252.9251     1256.3009     436.606882       5.29780
  27     28.12      820.9768        4.0904     1250.7836     1254.8741     433.897251       4.60619
  26     33.73      822.2155        4.8903     1248.7001     1253.5904     431.374925       3.79238
  25     40.54      823.4804        5.8570     1246.4954     1252.3524     428.872015       3.10514
  24     48.69      824.7799        7.0225     1244.1262     1251.1486     426.368739       2.59050
  23     57.69      825.9862        8.3024     1241.7768     1250.0792     424.093030       2.13314
  22     68.43      827.1799        9.8269     1239.2312     1249.0581     421.878180       1.74117
  21     81.20      828.2586       11.6447     1236.5060     1248.1508     419.892193       1.31231
  20     96.49      829.2197       13.8114     1233.5331     1247.3445     418.124746       0.97550
  19     114.6      830.2201       16.3787     1230.1406     1246.5192     416.299180       0.85241
  18     136.5      831.2877       19.4080     1226.2402     1245.6482     414.360537       0.74545
  17     162.9      832.4509       22.9965     1221.6571     1244.6537     412.202744       0.68972
  16     196.4      833.7180       27.6254     1215.6628     1243.2882     409.570202       0.66264
  15     218.7      834.4603       30.6477     1211.2488     1241.8965     407.436192       0.81020
  14     243.0      835.2264       33.9160     1205.7409     1239.6569     404.430485       1.04248
  13     269.0      836.0154       37.4385     1198.7712     1236.2097     400.194332       1.37419
  12     297.5      836.8324       41.2228     1190.0760     1231.2988     394.466406       1.69884
  11     328.5      837.7034       45.2851     1180.4214     1225.7065     388.003073       1.75736
  10     361.9      838.6355       49.6283     1169.9934     1219.6217     380.986203       1.77534
   9     398.1      839.6430       54.2677     1158.5390     1212.8067     373.163694       1.82247
   8     437.6      840.7510       59.2098     1145.6747     1204.8845     364.133512       1.93071
   7     480.5      841.9821       64.4624     1131.4609     1195.9233     353.941136       2.00174
   6     533.0      843.5959       70.8665     1113.5980     1184.4645     340.868622       2.10295
   5     589.8      845.5388       77.6944     1093.8007     1171.4951     325.956345       2.21347
   4     651.6      848.0766       84.9473     1070.9832     1155.9305     307.853851       2.47556
   3     718.7      851.5110       92.6287     1045.8677     1138.4964     286.985379       2.62259
   2     792.3      856.5675      100.7267     1018.3094     1119.0361     262.468537       2.81181
   1     891.5      867.1850      111.4447      981.1539     1092.5987     225.413691       3.15319
   0    1013.0      891.1444      124.0115      938.0844     1062.0959     170.951480       3.78159



 Wavenumbers:  2600. -  3250. cm-1, ATM      1
 LEVEL PRESSURE   UPWARD FLUX   DIFDOWN FLUX  DIRDOWN FLUX  DOWNWARD FLUX   NET FLUX    HEATING RATE
          mb          W/m2          W/m2          W/m2        W/m2          W/m2       degree/day
  51    .06700        0.0148        0.0000       11.2704       11.2704      11.255585       0.00000
  50    .07753        0.0148        0.0000       11.2704       11.2704      11.255577       0.00640
  49    .09103        0.0148        0.0000       11.2704       11.2704      11.255567       0.00627
  48    0.1069        0.0148        0.0000       11.2704       11.2704      11.255556       0.00613
  47    0.1255        0.0148        0.0000       11.2704       11.2704      11.255542       0.00600
  46    0.1487        0.0148        0.0000       11.2703       11.2703      11.255526       0.00608
  45    0.1794        0.0148        0.0000       11.2703       11.2703      11.255503       0.00625
  44    0.2165        0.0148        0.0000       11.2703       11.2703      11.255476       0.00613
  43    0.2613        0.0148        0.0000       11.2703       11.2703      11.255444       0.00601
  42    0.3336        0.0148        0.0000       11.2702       11.2702      11.255391       0.00618
  41    0.4307        0.0148        0.0000       11.2701       11.2701      11.255319       0.00622
  40    0.5894        0.0148        0.0000       11.2700       11.2700      11.255199       0.00640
  39     1.339        0.0148        0.0000       11.2693       11.2693      11.254483       0.00806
  38     1.782        0.0148        0.0000       11.2688       11.2688      11.253929       0.01056
  37     2.292        0.0148        0.0000       11.2680       11.2680      11.253190       0.01224
  36     2.964        0.0148        0.0000       11.2669       11.2669      11.252103       0.01364
  35     3.853        0.0148        0.0000       11.2653       11.2653      11.250524       0.01498
  34     5.035        0.0148        0.0000       11.2631       11.2631      11.248263       0.01615
  33     6.613        0.0148        0.0000       11.2599       11.2599      11.245072       0.01706
  32     8.786        0.0148        0.0000       11.2555       11.2555      11.240644       0.01719
  31     11.80        0.0148        0.0000       11.2491       11.2491      11.234280       0.01782
  30     15.07        0.0148        0.0000       11.2424       11.2425      11.227634       0.01716
  29     18.79        0.0148        0.0000       11.2354       11.2354      11.220562       0.01604
  28     23.16        0.0148        0.0000       11.2277       11.2277      11.212926       0.01477
  27     28.12        0.0148        0.0000       11.2197       11.2197      11.204933       0.01359
  26     33.73        0.0148        0.0000       11.2112       11.2112      11.196359       0.01289
  25     40.54        0.0148        0.0000       11.2009       11.2009      11.186111       0.01271
  24     48.69        0.0148        0.0000       11.1885       11.1885      11.173732       0.01281
  23     57.69        0.0148        0.0000       11.1745       11.1745      11.159720       0.01313
  22     68.43        0.0148        0.0000       11.1569       11.1569      11.142127       0.01383
  21     81.20        0.0148        0.0000       11.1345       11.1345      11.119737       0.01480
  20     96.49        0.0148        0.0000       11.1061       11.1061      11.091302       0.01569
  19     114.6        0.0148        0.0000       11.0695       11.0696      11.054804       0.01704
  18     136.5        0.0148        0.0000       11.0246       11.0246      11.009836       0.01729
  17     162.9        0.0148        0.0001       10.9696       10.9697      10.954936       0.01755
  16     196.4        0.0148        0.0001       10.8975       10.8976      10.882796       0.01816
  15     218.7        0.0148        0.0001       10.8466       10.8467      10.831924       0.01931
  14     243.0        0.0148        0.0001       10.7840       10.7840      10.769284       0.02173
  13     269.0        0.0148        0.0001       10.7045       10.7046      10.689829       0.02578
  12     297.5        0.0148        0.0001       10.6060       10.6061      10.591324       0.02922
  11     328.5        0.0148        0.0001       10.4945       10.4946      10.479860       0.03031
  10     361.9        0.0148        0.0001       10.3704       10.3706      10.355769       0.03140
   9     398.1        0.0148        0.0001       10.2282       10.2284      10.213566       0.03313
   8     437.6        0.0148        0.0001       10.0579       10.0580      10.043156       0.03643
   7     480.5        0.0149        0.0001        9.8478        9.8480       9.833071       0.04126
   6     533.0        0.0150        0.0002        9.5459        9.5460       9.531044       0.04859
   5     589.8        0.0151        0.0002        9.1576        9.1577       9.142637       0.05765
   4     651.6        0.0153        0.0002        8.6607        8.6609       8.645540       0.06798
   3     718.7        0.0157        0.0002        8.0967        8.0969       8.081168       0.07093
   2     792.3        0.0163        0.0002        7.4761        7.4763       7.459995       0.07124
   1     891.5        0.0178        0.0002        6.6297        6.6299       6.612075       0.07215
   0    1013.0        0.0220        0.0002        5.6304        5.6306       5.608597       0.06968



 Wavenumbers:  3250. -  4000. cm-1, ATM      1
 LEVEL PRESSURE   UPWARD FLUX   DIFDOWN FLUX  DIRDOWN FLUX  DOWNWARD FLUX   NET FLUX    HEATING RATE
          mb          W/m2          W/m2          W/m2        W/m2          W/m2       degree/day
  51    .06700        0.0005        0.0000       19.0003       19.0003      18.999743       0.00000
  50    .07753        0.0005        0.0000       18.9946       18.9946      18.994122       4.50546
  49    .09103        0.0005        0.0000       18.9895       18.9895      18.989028       3.18366
  48    0.1069        0.0005        0.0000       18.9853       18.9853      18.984781       2.26090
  47    0.1255        0.0005        0.0000       18.9816       18.9816      18.981068       1.68342
  46    0.1487        0.0005        0.0000       18.9778       18.9778      18.977313       1.36872
  45    0.1794        0.0005        0.0000       18.9735       18.9735      18.973030       1.17577
  44    0.2165        0.0005        0.0000       18.9691       18.9691      18.968613       1.00472
  43    0.2613        0.0005        0.0000       18.9645       18.9645      18.963934       0.88194
  42    0.3336        0.0005        0.0000       18.9577       18.9577      18.957164       0.78934
  41    0.4307        0.0005        0.0000       18.9501       18.9501      18.949587       0.65876
  40    0.5894        0.0005        0.0000       18.9398       18.9398      18.939318       0.54609
  39     1.339        0.0005        0.0000       18.9033       18.9033      18.902805       0.41108
  38     1.782        0.0005        0.0000       18.8860       18.8860      18.885443       0.33053
  37     2.292        0.0005        0.0000       18.8685       18.8685      18.867968       0.28944
  36     2.964        0.0005        0.0000       18.8485       18.8485      18.847954       0.25124
  35     3.853        0.0005        0.0000       18.8252       18.8252      18.824686       0.22082
  34     5.035        0.0005        0.0000       18.7974       18.7975      18.796947       0.19815
  33     6.613        0.0005        0.0000       18.7631       18.7631      18.762608       0.18358
  32     8.786        0.0005        0.0000       18.7180       18.7180      18.717499       0.17518
  31     11.80        0.0005        0.0000       18.6524       18.6524      18.651934       0.18356
  30     15.07        0.0005        0.0000       18.5791       18.5791      18.578637       0.18924
  29     18.79        0.0005        0.0000       18.4931       18.4931      18.492596       0.19508
  28     23.16        0.0005        0.0000       18.3897       18.3897      18.389228       0.19988
  27     28.12        0.0005        0.0000       18.2697       18.2697      18.269234       0.20398
  26     33.73        0.0005        0.0000       18.1365       18.1365      18.136056       0.20024
  25     40.54        0.0005        0.0001       17.9809       17.9809      17.980464       0.19303
  24     48.69        0.0005        0.0001       17.8058       17.8058      17.805394       0.18117
  23     57.69        0.0004        0.0001       17.6304       17.6305      17.630088       0.16432
  22     68.43        0.0004        0.0001       17.4421       17.4422      17.441738       0.14807
  21     81.20        0.0004        0.0001       17.2380       17.2381      17.237724       0.13481
  20     96.49        0.0004        0.0001       17.0103       17.0104      17.010013       0.12568
  19     114.6        0.0004        0.0001       16.7388       16.7389      16.738555       0.12675
  18     136.5        0.0003        0.0002       16.4241       16.4243      16.423958       0.12097
  17     162.9        0.0003        0.0002       16.0419       16.0421      16.041820       0.12215
  16     196.4        0.0003        0.0002       15.4831       15.4833      15.483042       0.14065
  15     218.7        0.0003        0.0002       14.9638       14.9641      14.963823       0.19713
  14     243.0        0.0002        0.0003       14.2386       14.2388      14.238608       0.25153
  13     269.0        0.0002        0.0003       13.2718       13.2721      13.271868       0.31361
  12     297.5        0.0002        0.0003       12.1235       12.1237      12.123540       0.34058
  11     328.5        0.0002        0.0003       10.9858       10.9860      10.985887       0.30932
  10     361.9        0.0001        0.0002        9.8785        9.8787       9.878598       0.28016
   9     398.1        0.0001        0.0002        8.7693        8.7695       8.769422       0.25841
   8     437.6        0.0001        0.0002        7.6802        7.6804       7.680290       0.23286
   7     480.5        0.0001        0.0002        6.6852        6.6854       6.685333       0.19541
   6     533.0        0.0001        0.0002        5.6359        5.6361       5.636057       0.16880
   5     589.8        0.0001        0.0002        4.6367        4.6369       4.636833       0.14832
   4     651.6        0.0001        0.0001        3.6239        3.6240       3.623941       0.13852
   3     718.7        0.0001        0.0001        2.6564        2.6565       2.656460       0.12159
   2     792.3        0.0001        0.0001        1.7504        1.7504       1.750353       0.10392
   1     891.5        0.0002        0.0000        0.8623        0.8623       0.862096       0.07559
   0    1013.0        0.0020        0.0000        0.2532        0.2532       0.251154       0.04242



 Wavenumbers:  4000. -  4650. cm-1, ATM      1
 LEVEL PRESSURE   UPWARD FLUX   DIFDOWN FLUX  DIRDOWN FLUX  DOWNWARD FLUX   NET FLUX    HEATING RATE
          mb          W/m2          W/m2          W/m2        W/m2          W/m2       degree/day
  51    .06700        1.2028        0.0000       22.3120       22.3120      21.109274       0.00000
  50    .07753        1.2028        0.0000       22.3120       22.3120      21.109273       0.00080
  49    .09103        1.2028        0.0000       22.3120       22.3120      21.109271       0.00078
  48    0.1069        1.2028        0.0000       22.3120       22.3120      21.109270       0.00076
  47    0.1255        1.2028        0.0000       22.3120       22.3120      21.109268       0.00075
  46    0.1487        1.2028        0.0000       22.3120       22.3120      21.109266       0.00076
  45    0.1794        1.2028        0.0000       22.3120       22.3120      21.109263       0.00078
  44    0.2165        1.2028        0.0000       22.3120       22.3120      21.109260       0.00076
  43    0.2613        1.2028        0.0000       22.3120       22.3120      21.109256       0.00075
  42    0.3336        1.2028        0.0000       22.3120       22.3120      21.109249       0.00077
  41    0.4307        1.2028        0.0000       22.3120       22.3120      21.109241       0.00077
  40    0.5894        1.2028        0.0000       22.3120       22.3120      21.109226       0.00080
  39     1.339        1.2028        0.0000       22.3119       22.3119      21.109136       0.00101
  38     1.782        1.2028        0.0000       22.3118       22.3118      21.109066       0.00133
  37     2.292        1.2028        0.0000       22.3117       22.3117      21.108972       0.00156
  36     2.964        1.2028        0.0000       22.3116       22.3116      21.108832       0.00176
  35     3.853        1.2028        0.0000       22.3114       22.3114      21.108624       0.00198
  34     5.035        1.2028        0.0000       22.3111       22.3111      21.108317       0.00219
  33     6.613        1.2028        0.0000       22.3106       22.3106      21.107864       0.00242
  32     8.786        1.2027        0.0000       22.3099       22.3099      21.107196       0.00260
  31     11.80        1.2027        0.0000       22.3088       22.3089      21.106143       0.00295
  30     15.07        1.2027        0.0001       22.3076       22.3076      21.104906       0.00319
  29     18.79        1.2027        0.0001       22.3060       22.3061      21.103406       0.00340
  28     23.16        1.2027        0.0001       22.3042       22.3042      21.101539       0.00361
  27     28.12        1.2027        0.0001       22.3019       22.3020      21.099272       0.00386
  26     33.73        1.2027        0.0001       22.2990       22.2991      21.096465       0.00422
  25     40.54        1.2027        0.0002       22.2951       22.2953      21.092641       0.00474
  24     48.69        1.2026        0.0002       22.2900       22.2902      21.087517       0.00530
  23     57.69        1.2026        0.0002       22.2838       22.2840      21.081407       0.00573
  22     68.43        1.2026        0.0003       22.2761       22.2763      21.073707       0.00605
  21     81.20        1.2026        0.0003       22.2665       22.2668      21.064160       0.00631
  20     96.49        1.2026        0.0004       22.2547       22.2551      21.052476       0.00645
  19     114.6        1.2026        0.0004       22.2399       22.2404      21.037783       0.00686
  18     136.5        1.2026        0.0005       22.2221       22.2226      21.019984       0.00684
  17     162.9        1.2027        0.0006       22.2001       22.2008      20.998087       0.00700
  16     196.4        1.2028        0.0007       22.1698       22.1706      20.967776       0.00763
  15     218.7        1.2029        0.0008       22.1465       22.1473      20.944371       0.00889
  14     243.0        1.2031        0.0009       22.1147       22.1156      20.912449       0.01107
  13     269.0        1.2035        0.0010       22.0693       22.0703      20.866748       0.01483
  12     297.5        1.2041        0.0011       22.0062       22.0073      20.803180       0.01885
  11     328.5        1.2049        0.0012       21.9283       21.9295      20.724605       0.02136
  10     361.9        1.2060        0.0013       21.8316       21.8330      20.626934       0.02471
   9     398.1        1.2074        0.0015       21.7062       21.7076      20.500204       0.02953
   8     437.6        1.2092        0.0016       21.5378       21.5394      20.330216       0.03634
   7     480.5        1.2114        0.0017       21.3212       21.3229      20.111443       0.04297
   6     533.0        1.2148        0.0019       21.0132       21.0151      19.800285       0.05006
   5     589.8        1.2196        0.0020       20.6436       20.6456      19.426048       0.05555
   4     651.6        1.2270        0.0022       20.1968       20.1990      18.972023       0.06209
   3     718.7        1.2387        0.0023       19.6679       19.6702      18.431559       0.06792
   2     792.3        1.2584        0.0024       18.9698       18.9723      17.713846       0.08231
   1     891.5        1.3055        0.0026       17.8241       17.8267      16.521244       0.10148
   0    1013.0        1.4329        0.0027       16.4283       16.4309      14.997987       0.10577



 Wavenumbers:  4650. -  5150. cm-1, ATM      1
 LEVEL PRESSURE   UPWARD FLUX   DIFDOWN FLUX  DIRDOWN FLUX  DOWNWARD FLUX   NET FLUX    HEATING RATE
          mb          W/m2          W/m2          W/m2        W/m2          W/m2       degree/day
  51    .06700        0.2216        0.0000       21.1194       21.1194      20.897794       0.00000
  50    .07753        0.2216        0.0000       21.1192       21.1192      20.897558       0.18923
  49    .09103        0.2216        0.0000       21.1189       21.1189      20.897262       0.18500
  48    0.1069        0.2216        0.0000       21.1185       21.1185      20.896923       0.18057
  47    0.1255        0.2216        0.0000       21.1181       21.1181      20.896535       0.17612
  46    0.1487        0.2216        0.0000       21.1176       21.1176      20.896046       0.17799
  45    0.1794        0.2216        0.0000       21.1170       21.1170      20.895383       0.18220
  44    0.2165        0.2216        0.0000       21.1162       21.1162      20.894602       0.17758
  43    0.2613        0.2216        0.0000       21.1153       21.1153      20.893685       0.17293
  42    0.3336        0.2216        0.0000       21.1138       21.1138      20.892183       0.17506
  41    0.4307        0.2216        0.0000       21.1118       21.1118      20.890222       0.17050
  40    0.5894        0.2216        0.0000       21.1087       21.1087      20.887091       0.16648
  39     1.339        0.2216        0.0000       21.0950       21.0950      20.873400       0.15414
  38     1.782        0.2216        0.0000       21.0877       21.0877      20.866147       0.13809
  37     2.292        0.2216        0.0000       21.0800       21.0800      20.858425       0.12789
  36     2.964        0.2216        0.0000       21.0708       21.0708      20.849239       0.11532
  35     3.853        0.2216        0.0000       21.0601       21.0601      20.838566       0.10129
  34     5.035        0.2216        0.0000       21.0481       21.0481      20.826526       0.08600
  33     6.613        0.2216        0.0000       21.0349       21.0349      20.813347       0.07046
  32     8.786        0.2216        0.0000       21.0207       21.0208      20.799238       0.05479
  31     11.80        0.2215        0.0001       21.0049       21.0050      20.783417       0.04429
  30     15.07        0.2215        0.0001       20.9907       20.9908      20.769250       0.03658
  29     18.79        0.2215        0.0001       20.9759       20.9760      20.754455       0.03354
  28     23.16        0.2215        0.0001       20.9585       20.9587      20.737167       0.03343
  27     28.12        0.2215        0.0002       20.9377       20.9378      20.716353       0.03538
  26     33.73        0.2214        0.0002       20.9125       20.9127      20.691287       0.03769
  25     40.54        0.2214        0.0002       20.8796       20.8798      20.658413       0.04078
  24     48.69        0.2214        0.0003       20.8366       20.8369      20.615490       0.04442
  23     57.69        0.2214        0.0003       20.7859       20.7863      20.564900       0.04742
  22     68.43        0.2213        0.0004       20.7220       20.7224      20.501078       0.05017
  21     81.20        0.2213        0.0004       20.6423       20.6427      20.421434       0.05263
  20     96.49        0.2212        0.0005       20.5449       20.5454      20.324210       0.05366
  19     114.6        0.2212        0.0006       20.4289       20.4295      20.208317       0.05411
  18     136.5        0.2212        0.0007       20.2939       20.2946      20.073438       0.05186
  17     162.9        0.2211        0.0009       20.1397       20.1405      19.919382       0.04924
  16     196.4        0.2211        0.0010       19.9532       19.9542      19.733116       0.04689
  15     218.7        0.2211        0.0011       19.8380       19.8392      19.618062       0.04368
  14     243.0        0.2211        0.0012       19.7166       19.7179      19.496755       0.04207
  13     269.0        0.2212        0.0014       19.5862       19.5876      19.366385       0.04229
  12     297.5        0.2213        0.0015       19.4412       19.4427      19.221357       0.04301
  11     328.5        0.2216        0.0016       19.2809       19.2826      19.061021       0.04359
  10     361.9        0.2219        0.0018       19.1016       19.1034      18.881518       0.04542
   9     398.1        0.2223        0.0019       18.8966       18.8986      18.676301       0.04781
   8     437.6        0.2229        0.0021       18.6587       18.6607      18.437876       0.05098
   7     480.5        0.2237        0.0022       18.3798       18.3820      18.158354       0.05490
   6     533.0        0.2249        0.0024       18.0016       18.0040      17.779063       0.06102
   5     589.8        0.2267        0.0026       17.5427       17.5453      17.318513       0.06836
   4     651.6        0.2295        0.0027       16.9692       16.9719      16.742450       0.07878
   3     718.7        0.2337        0.0029       16.2795       16.2824      16.048702       0.08718
   2     792.3        0.2403        0.0030       15.4792       15.4822      15.241918       0.09253
   1     891.5        0.2546        0.0031       14.3745       14.3776      14.122962       0.09522
   0    1013.0        0.2869        0.0031       13.1510       13.1541      12.867259       0.08719



 Wavenumbers:  5150. -  6150. cm-1, ATM      1
 LEVEL PRESSURE   UPWARD FLUX   DIFDOWN FLUX  DIRDOWN FLUX  DOWNWARD FLUX   NET FLUX    HEATING RATE
          mb          W/m2          W/m2          W/m2        W/m2          W/m2       degree/day
  51    .06700        2.8270        0.0000       52.9464       52.9464      50.119425       0.00000
  50    .07753        2.8270        0.0000       52.9464       52.9464      50.119385       0.03157
  49    .09103        2.8270        0.0000       52.9463       52.9463      50.119334       0.03206
  48    0.1069        2.8270        0.0000       52.9463       52.9463      50.119273       0.03257
  47    0.1255        2.8270        0.0000       52.9462       52.9462      50.119200       0.03308
  46    0.1487        2.8270        0.0000       52.9461       52.9461      50.119104       0.03485
  45    0.1794        2.8270        0.0000       52.9460       52.9460      50.118969       0.03711
  44    0.2165        2.8270        0.0000       52.9458       52.9458      50.118804       0.03768
  43    0.2613        2.8270        0.0000       52.9456       52.9456      50.118601       0.03827
  42    0.3336        2.8270        0.0000       52.9452       52.9452      50.118254       0.04046
  41    0.4307        2.8270        0.0000       52.9448       52.9448      50.117782       0.04103
  40    0.5894        2.8270        0.0000       52.9440       52.9440      50.116990       0.04210
  39     1.339        2.8270        0.0000       52.9401       52.9401      50.113160       0.04312
  38     1.782        2.8270        0.0000       52.9378       52.9379      50.110918       0.04268
  37     2.292        2.8269        0.0001       52.9353       52.9353      50.108370       0.04221
  36     2.964        2.8269        0.0001       52.9320       52.9320      50.105115       0.04086
  35     3.853        2.8269        0.0001       52.9278       52.9279      50.100950       0.03952
  34     5.035        2.8269        0.0001       52.9223       52.9224      50.095539       0.03865
  33     6.613        2.8269        0.0002       52.9151       52.9153      50.088439       0.03796
  32     8.786        2.8268        0.0002       52.9057       52.9059      50.079098       0.03628
  31     11.80        2.8268        0.0003       52.8927       52.8930      50.066204       0.03610
  30     15.07        2.8267        0.0004       52.8793       52.8797      50.052966       0.03418
  29     18.79        2.8267        0.0005       52.8650       52.8655      50.038785       0.03215
  28     23.16        2.8266        0.0006       52.8491       52.8497      50.023096       0.03034
  27     28.12        2.8265        0.0007       52.8319       52.8326      50.006119       0.02886
  26     33.73        2.8265        0.0009       52.8140       52.8149      49.988397       0.02665
  25     40.54        2.8264        0.0011       52.7938       52.7949      49.968529       0.02465
  24     48.69        2.8263        0.0013       52.7717       52.7730      49.946692       0.02260
  23     57.69        2.8262        0.0015       52.7491       52.7506      49.924451       0.02085
  22     68.43        2.8261        0.0018       52.7240       52.7258      49.899731       0.01943
  21     81.20        2.8260        0.0022       52.6957       52.6978      49.871836       0.01843
  20     96.49        2.8258        0.0026       52.6630       52.6656      49.839744       0.01771
  19     114.6        2.8257        0.0030       52.6249       52.6280      49.802277       0.01749
  18     136.5        2.8255        0.0036       52.5798       52.5834      49.757883       0.01707
  17     162.9        2.8254        0.0043       52.5113       52.5156      49.690247       0.02162
  16     196.4        2.8252        0.0052       52.3636       52.3687      49.543556       0.03692
  15     218.7        2.8250        0.0057       52.1489       52.1546      49.329596       0.08123
  14     243.0        2.8250        0.0063       51.7554       51.7617      48.936736       0.13626
  13     269.0        2.8249        0.0068       51.0425       51.0493      48.224381       0.23108
  12     297.5        2.8250        0.0074       49.9369       49.9443      47.119251       0.32777
  11     328.5        2.8253        0.0079       48.7247       48.7326      45.907373       0.32951
  10     361.9        2.8257        0.0084       47.4660       47.4744      44.648737       0.31845
   9     398.1        2.8263        0.0090       46.0350       46.0440      43.217714       0.33340
   8     437.6        2.8273        0.0094       44.3315       44.3409      41.513652       0.36434
   7     480.5        2.8287        0.0099       42.4524       42.4623      39.633577       0.36924
   6     533.0        2.8314        0.0104       40.1842       40.1946      37.363200       0.36523
   5     589.8        2.8357        0.0108       37.8122       37.8230      34.987299       0.35266
   4     651.6        2.8438        0.0113       35.3335       35.3448      32.501033       0.34000
   3     718.7        2.8584        0.0118       33.0920       33.1038      30.245436       0.28347
   2     792.3        2.8861        0.0124       31.1917       31.2041      28.317982       0.22106
   1     891.5        2.9623        0.0131       29.2817       29.2949      26.332542       0.16895
   0    1013.0        3.2068        0.0139       27.3174       27.3313      24.124461       0.15332



 Wavenumbers:  6150. -  7700. cm-1, ATM      1
 LEVEL PRESSURE   UPWARD FLUX   DIFDOWN FLUX  DIRDOWN FLUX  DOWNWARD FLUX   NET FLUX    HEATING RATE
          mb          W/m2          W/m2          W/m2        W/m2          W/m2       degree/day
  51    .06700        5.9531        0.0000       97.9264       97.9264      91.973365       0.00000
  50    .07753        5.9531        0.0000       97.9264       97.9264      91.973309       0.04554
  49    .09103        5.9531        0.0000       97.9263       97.9263      91.973235       0.04583
  48    0.1069        5.9531        0.0000       97.9262       97.9262      91.973149       0.04615
  47    0.1255        5.9531        0.0000       97.9261       97.9261      91.973046       0.04646
  46    0.1487        5.9530        0.0000       97.9260       97.9260      91.972913       0.04854
  45    0.1794        5.9530        0.0000       97.9258       97.9258      91.972726       0.05129
  44    0.2165        5.9530        0.0000       97.9255       97.9255      91.972499       0.05171
  43    0.2613        5.9530        0.0000       97.9252       97.9253      91.972222       0.05215
  42    0.3336        5.9530        0.0000       97.9248       97.9248      91.971752       0.05478
  41    0.4307        5.9530        0.0000       97.9241       97.9241      91.971116       0.05530
  40    0.5894        5.9530        0.0001       97.9230       97.9231      91.970054       0.05647
  39     1.339        5.9529        0.0001       97.9177       97.9179      91.964936       0.05762
  38     1.782        5.9529        0.0002       97.9146       97.9148      91.961940       0.05704
  37     2.292        5.9528        0.0003       97.9111       97.9114      91.958525       0.05656
  36     2.964        5.9528        0.0003       97.9066       97.9069      91.954143       0.05502
  35     3.853        5.9527        0.0004       97.9008       97.9012      91.948501       0.05354
  34     5.035        5.9526        0.0006       97.8932       97.8937      91.941140       0.05258
  33     6.613        5.9524        0.0007       97.8831       97.8839      91.931444       0.05183
  32     8.786        5.9522        0.0010       97.8699       97.8709      91.918618       0.04981
  31     11.80        5.9519        0.0013       97.8514       97.8527      91.900758       0.05000
  30     15.07        5.9516        0.0017       97.8321       97.8338      91.882211       0.04788
  29     18.79        5.9513        0.0021       97.8112       97.8133      91.862067       0.04567
  28     23.16        5.9509        0.0026       97.7877       97.7903      91.839454       0.04373
  27     28.12        5.9504        0.0032       97.7618       97.7650      91.814607       0.04224
  26     33.73        5.9499        0.0038       97.7342       97.7381      91.788208       0.03969
  25     40.54        5.9492        0.0046       97.7027       97.7073      91.758078       0.03738
  24     48.69        5.9485        0.0055       97.6672       97.6727      91.724218       0.03504
  23     57.69        5.9476        0.0065       97.6302       97.6367      91.689102       0.03292
  22     68.43        5.9466        0.0077       97.5882       97.5960      91.649395       0.03122
  21     81.20        5.9454        0.0092       97.5402       97.5494      91.604028       0.02998
  20     96.49        5.9439        0.0109       97.4843       97.4952      91.551297       0.02910
  19     114.6        5.9422        0.0130       97.4184       97.4314      91.489163       0.02901
  18     136.5        5.9402        0.0154       97.3400       97.3553      91.415144       0.02846
  17     162.9        5.9378        0.0183       97.2259       97.2442      91.306433       0.03475
  16     196.4        5.9347        0.0220       96.9899       97.0119      91.077240       0.05769
  15     218.7        5.9327        0.0244       96.6506       96.6750      90.742257       0.12718
  14     243.0        5.9307        0.0269       96.0373       96.0642      90.133556       0.21112
  13     269.0        5.9286        0.0294       95.0551       95.0845      89.155877       0.31715
  12     297.5        5.9268        0.0318       93.4927       93.5245      87.597734       0.46213
  11     328.5        5.9252        0.0342       91.4942       91.5284      85.603227       0.54230
  10     361.9        5.9240        0.0367       89.2283       89.2650      83.340990       0.57237
   9     398.1        5.9236        0.0391       86.7473       86.7864      80.862788       0.57737
   8     437.6        5.9244        0.0413       83.9094       83.9507      78.026306       0.60646
   7     480.5        5.9269        0.0433       80.6595       80.7028      74.775887       0.63837
   6     533.0        5.9334        0.0455       76.5086       76.5541      70.620683       0.66844
   5     589.8        5.9465        0.0473       71.9671       72.0144      66.067859       0.67579
   4     651.6        5.9739        0.0486       66.8481       66.8967      60.922821       0.70360
   3     718.7        6.0258        0.0496       61.6305       61.6801      55.654311       0.66211
   2     792.3        6.1264        0.0503       56.4560       56.5063      50.379874       0.60492
   1     891.5        6.3985        0.0509       50.3929       50.4438      44.045318       0.53904
   0    1013.0        7.2629        0.0517       44.5649       44.6167      37.353759       0.46463



 Wavenumbers:  7700. -  8050. cm-1, ATM      1
 LEVEL PRESSURE   UPWARD FLUX   DIFDOWN FLUX  DIRDOWN FLUX  DOWNWARD FLUX   NET FLUX    HEATING RATE
          mb          W/m2          W/m2          W/m2        W/m2          W/m2       degree/day
  51    .06700        9.9064        0.0000       23.1429       23.1429      13.236564       0.00000
  50    .07753        9.9064        0.0000       23.1429       23.1429      13.236539       0.01986
  49    .09103        9.9064        0.0000       23.1429       23.1429      13.236508       0.01947
  48    0.1069        9.9064        0.0000       23.1429       23.1429      13.236472       0.01906
  47    0.1255        9.9064        0.0000       23.1428       23.1428      13.236431       0.01865
  46    0.1487        9.9064        0.0000       23.1428       23.1428      13.236379       0.01892
  45    0.1794        9.9064        0.0000       23.1427       23.1427      13.236308       0.01947
  44    0.2165        9.9065        0.0000       23.1427       23.1427      13.236224       0.01910
  43    0.2613        9.9065        0.0000       23.1426       23.1426      13.236125       0.01875
  42    0.3336        9.9065        0.0000       23.1425       23.1425      13.235960       0.01918
  41    0.4307        9.9066        0.0000       23.1423       23.1423      13.235742       0.01897
  40    0.5894        9.9067        0.0000       23.1420       23.1421      13.235386       0.01895
  39     1.339        9.9072        0.0001       23.1408       23.1409      13.233699       0.01899
  38     1.782        9.9074        0.0001       23.1400       23.1401      13.232708       0.01887
  37     2.292        9.9078        0.0001       23.1392       23.1393      13.231561       0.01900
  36     2.964        9.9082        0.0002       23.1380       23.1382      13.230054       0.01892
  35     3.853        9.9087        0.0002       23.1365       23.1368      13.228062       0.01890
  34     5.035        9.9095        0.0003       23.1346       23.1349      13.225416       0.01890
  33     6.613        9.9105        0.0004       23.1319       23.1323      13.221879       0.01891
  32     8.786        9.9118        0.0006       23.1283       23.1289      13.217110       0.01852
  31     11.80        9.9137        0.0008       23.1232       23.1240      13.210284       0.01911
  30     15.07        9.9157        0.0010       23.1177       23.1187      13.202950       0.01893
  29     18.79        9.9181        0.0012       23.1115       23.1127      13.194660       0.01880
  28     23.16        9.9208        0.0015       23.1043       23.1058      13.184972       0.01873
  27     28.12        9.9239        0.0018       23.0960       23.0978      13.173886       0.01885
  26     33.73        9.9275        0.0022       23.0867       23.0889      13.161474       0.01866
  25     40.54        9.9317        0.0026       23.0756       23.0782      13.146470       0.01861
  24     48.69        9.9369        0.0032       23.0621       23.0653      13.128374       0.01873
  23     57.69        9.9426        0.0037       23.0474       23.0511      13.108488       0.01864
  22     68.43        9.9495        0.0044       23.0298       23.0343      13.084796       0.01863
  21     81.20        9.9577        0.0052       23.0090       23.0143      13.056562       0.01866
  20     96.49        9.9676        0.0062       22.9843       22.9905      13.022912       0.01857
  19     114.6        9.9795        0.0074       22.9550       22.9624      12.982952       0.01866
  18     136.5        9.9937        0.0088       22.9205       22.9293      12.935582       0.01822
  17     162.9       10.0109        0.0104       22.8797       22.8901      12.879156       0.01804
  16     196.4       10.0337        0.0126       22.8271       22.8396      12.805943       0.01843
  15     218.7       10.0489        0.0140       22.7927       22.8067      12.757800       0.01828
  14     243.0       10.0656        0.0155       22.7555       22.7710      12.705352       0.01819
  13     269.0       10.0842        0.0172       22.7153       22.7325      12.648289       0.01851
  12     297.5       10.1046        0.0189       22.6719       22.6908      12.586214       0.01841
  11     328.5       10.1273        0.0209       22.6250       22.6459      12.518604       0.01838
  10     361.9       10.1524        0.0230       22.5745       22.5975      12.445035       0.01861
   9     398.1       10.1804        0.0252       22.5199       22.5452      12.364714       0.01871
   8     437.6       10.2118        0.0276       22.4608       22.4885      12.276679       0.01882
   7     480.5       10.2470        0.0302       22.3968       22.4270      12.179972       0.01899
   6     533.0       10.2929        0.0334       22.3164       22.3498      12.056891       0.01980
   5     589.8       10.3464        0.0369       22.2269       22.2637      11.917322       0.02072
   4     651.6       10.4106        0.0406       22.1246       22.1652      11.754504       0.02227
   3     718.7       10.4894        0.0445       22.0056       22.0502      11.560750       0.02435
   2     792.3       10.5897        0.0487       21.8632       21.9119      11.322217       0.02736
   1     891.5       10.7601        0.0543       21.6401       21.6943      10.934216       0.03302
   0    1013.0       11.0359        0.0608       21.3232       21.3840      10.348037       0.04070



 Wavenumbers:  8050. - 12850. cm-1, ATM      1
 LEVEL PRESSURE   UPWARD FLUX   DIFDOWN FLUX  DIRDOWN FLUX  DOWNWARD FLUX   NET FLUX    HEATING RATE
          mb          W/m2          W/m2          W/m2        W/m2          W/m2       degree/day
  51    .06700      187.7592        0.0000      324.0181      324.0181     136.258924       0.00000
  50    .07753      187.7591        0.0000      324.0180      324.0181     136.258924      -0.00000
  49    .09103      187.7591        0.0001      324.0180      324.0181     136.258924       0.00000
  48    0.1069      187.7591        0.0002      324.0179      324.0181     136.258924       0.00000
  47    0.1255      187.7591        0.0002      324.0178      324.0181     136.258924      -0.00000
  46    0.1487      187.7591        0.0003      324.0178      324.0181     136.258924       0.00000
  45    0.1794      187.7591        0.0004      324.0176      324.0180     136.258924      -0.00000
  44    0.2165      187.7591        0.0006      324.0175      324.0180     136.258924       0.00000
  43    0.2613      187.7591        0.0007      324.0173      324.0180     136.258924      -0.00000
  42    0.3336      187.7591        0.0010      324.0170      324.0180     136.258924       0.00000
  41    0.4307      187.7591        0.0014      324.0166      324.0180     136.258924      -0.00000
  40    0.5894      187.7590        0.0019      324.0160      324.0179     136.258924       0.00000
  39     1.339      187.7588        0.0047      324.0131      324.0178     136.258924       0.00000
  38     1.782      187.7587        0.0063      324.0113      324.0177     136.258924      -0.00000
  37     2.292      187.7586        0.0082      324.0093      324.0175     136.258924       0.00000
  36     2.964      187.7584        0.0107      324.0067      324.0174     136.258924       0.00000
  35     3.853      187.7582        0.0140      324.0032      324.0172     136.258924      -0.00000
  34     5.035      187.7579        0.0183      323.9985      324.0169     136.258924       0.00000
  33     6.613      187.7576        0.0242      323.9923      324.0165     136.258924      -0.00000
  32     8.786      187.7570        0.0320      323.9840      324.0160     136.258924      -0.00000
  31     11.80      187.7563        0.0432      323.9720      324.0152     136.258924       0.00000
  30     15.07      187.7555        0.0553      323.9591      324.0144     136.258924       0.00000
  29     18.79      187.7546        0.0690      323.9445      324.0135     136.258924       0.00000
  28     23.16      187.7535        0.0850      323.9275      324.0125     136.258924      -0.00000
  27     28.12      187.7523        0.1033      323.9080      324.0113     136.258924      -0.00000
  26     33.73      187.7510        0.1238      323.8862      324.0099     136.258924       0.00000
  25     40.54      187.7493        0.1486      323.8597      324.0083     136.258924      -0.00000
  24     48.69      187.7474        0.1785      323.8278      324.0063     136.258924      -0.00000
  23     57.69      187.7452        0.2114      323.7927      324.0041     136.258924       0.00000
  22     68.43      187.7426        0.2507      323.7508      324.0015     136.258924      -0.00000
  21     81.20      187.7395        0.2977      323.7007      323.9984     136.258924       0.00000
  20     96.49      187.7358        0.3537      323.6410      323.9947     136.258924      -0.00000
  19     114.6      187.7317        0.4203      323.5639      323.9842     136.252496       0.00300
  18     136.5      187.7269        0.4995      323.4720      323.9714     136.244521       0.00307
  17     162.9      187.7212        0.5940      323.3585      323.9526     136.231305       0.00422
  16     196.4      187.7141        0.7170      323.1946      323.9116     136.197448       0.00852
  15     218.7      187.7099        0.7979      323.0457      323.8436     136.133738       0.02419
  14     243.0      187.7065        0.8860      322.7993      323.6852     135.978751       0.05375
  13     269.0      187.7056        0.9813      322.3745      323.3559     135.650232       0.10657
  12     297.5      187.7104        1.0842      321.6982      322.7825     135.072070       0.17148
  11     328.5      187.7229        1.1954      320.8253      322.0208     134.297902       0.21049
  10     361.9      187.7470        1.3150      319.7667      321.0817     133.334765       0.24368
   9     398.1      187.7894        1.4433      318.4780      319.9213     132.131944       0.28023
   8     437.6      187.8614        1.5804      316.8506      318.4310     130.569525       0.33406
   7     480.5      187.9766        1.7262      314.7952      316.5215     128.544816       0.39765
   6     533.0      188.1902        1.9038      311.7933      313.6971     125.506950       0.48870
   5     589.8      188.5523        2.0918      307.8700      309.9618     121.409567       0.60819
   4     651.6      189.2194        2.2872      302.4467      304.7339     115.514432       0.80618
   3     718.7      190.4009        2.4887      295.4645      297.9532     107.552269       1.00062
   2     792.3      192.5693        2.6923      286.7460      289.4383      96.868964       1.22526
   1     891.5      198.0668        2.9458      273.7624      276.7082      78.641322       1.55108
   0    1013.0      212.9167        3.2251      257.8040      261.0291      48.112395       2.11978



 Wavenumbers: 12850. - 16000. cm-1, ATM      1
 LEVEL PRESSURE   UPWARD FLUX   DIFDOWN FLUX  DIRDOWN FLUX  DOWNWARD FLUX   NET FLUX    HEATING RATE
          mb          W/m2          W/m2          W/m2        W/m2          W/m2       degree/day
  51    .06700      167.2994        0.0000      203.0260      203.0260      35.726561       0.00000
  50    .07753      167.2994        0.0001      203.0251      203.0252      35.725746       0.65284
  49    .09103      167.2995        0.0002      203.0240      203.0242      35.724714       0.64528
  48    0.1069      167.2996        0.0004      203.0227      203.0231      35.723515       0.63827
  47    0.1255      167.2997        0.0005      203.0213      203.0218      35.722120       0.63217
  46    0.1487      167.2999        0.0007      203.0195      203.0202      35.720336       0.65056
  45    0.1794      167.3001        0.0010      203.0170      203.0180      35.717868       0.67742
  44    0.2165      167.3005        0.0013      203.0140      203.0154      35.714909       0.67304
  43    0.2613      167.3009        0.0017      203.0105      203.0123      35.711355       0.66996
  42    0.3336      167.3018        0.0024      203.0048      203.0072      35.705395       0.69495
  41    0.4307      167.3031        0.0033      202.9972      203.0005      35.697425       0.69291
  40    0.5894      167.3055        0.0047      202.9851      202.9898      35.684276       0.69926
  39     1.339      167.3233        0.0113      202.9295      202.9409      35.617549       0.75122
  38     1.782      167.3384        0.0153      202.8976      202.9129      35.574424       0.82103
  37     2.292      167.3602        0.0198      202.8604      202.8802      35.519958       0.90211
  36     2.964      167.3954        0.0258      202.8104      202.8361      35.440731       0.99453
  35     3.853      167.4512        0.0337      202.7423      202.7760      35.324752       1.10066
  34     5.035      167.5345        0.0441      202.6509      202.6951      35.160591       1.17270
  33     6.613      167.6504        0.0581      202.5317      202.5898      34.939443       1.18226
  32     8.786      167.8016        0.0769      202.3806      202.4576      34.655913       1.10113
  31     11.80      167.9999        0.1039      202.1830      202.2869      34.286975       1.03291
  30     15.07      168.1917        0.1328      201.9890      202.1218      33.930170       0.92120
  29     18.79      168.3892        0.1655      201.7852      201.9507      33.561450       0.83600
  28     23.16      168.5981        0.2038      201.5642      201.7679      33.169805       0.75732
  27     28.12      168.8114        0.2475      201.3311      201.5786      32.767205       0.68439
  26     33.73      169.0134        0.2965      201.0980      201.3946      32.381182       0.58040
  25     40.54      169.2150        0.3558      200.8483      201.2042      31.989182       0.48632
  24     48.69      169.4168        0.4275      200.5787      201.0062      31.589340       0.41377
  23     57.69      169.5985        0.5062      200.3135      200.8197      31.221160       0.34511
  22     68.43      169.7717        0.6003      200.0313      200.6316      30.859906       0.28399
  21     81.20      169.9186        0.7126      199.7420      200.4545      30.535964       0.21406
  20     96.49      170.0387        0.8468      199.4427      200.2895      30.250742       0.15742
  19     114.6      170.1803        1.0084      199.1139      200.1224      29.942046       0.14414
  18     136.5      170.3241        1.2004      198.7488      199.9493      29.625194       0.12184
  17     162.9      170.4731        1.4294      198.3377      199.7671      29.293964       0.10587
  16     196.4      170.6194        1.7272      197.8414      199.5685      28.949103       0.08681
  15     218.7      170.6988        1.9231      197.5263      199.4495      28.750641       0.07535
  14     243.0      170.7782        2.1365      197.1856      199.3220      28.543882       0.07171
  13     269.0      170.8579        2.3681      196.8154      199.1835      28.325630       0.07080
  12     297.5      170.9397        2.6189      196.4095      199.0284      28.088751       0.07026
  11     328.5      171.0289        2.8905      195.9623      198.8528      27.823901       0.07201
  10     361.9      171.1279        3.1836      195.4689      198.6525      27.524639       0.07572
   9     398.1      171.2409        3.4997      194.9238      198.4235      27.182621       0.07968
   8     437.6      171.3752        3.8401      194.3175      198.1576      26.782415       0.08557
   7     480.5      171.5382        4.2058      193.6433      197.8491      26.310844       0.09261
   6     533.0      171.7758        4.6571      192.7725      197.4296      25.653809       0.10570
   5     589.8      172.1005        5.1446      191.7660      196.9106      24.810106       0.12523
   4     651.6      172.5895        5.6686      190.5502      196.2188      23.629323       0.16148
   3     718.7      173.2985        6.2276      189.0969      195.3245      22.026047       0.20149
   2     792.3      174.3978        6.8175      187.3074      194.1249      19.727072       0.26367
   1     891.5      176.7161        7.5944      184.4766      192.0710      15.354891       0.37205
   0    1013.0      181.3496        8.4993      180.5979      189.0972       7.747671       0.52821



 Wavenumbers: 16000. - 22650. cm-1, ATM      1
 LEVEL PRESSURE   UPWARD FLUX   DIFDOWN FLUX  DIRDOWN FLUX  DOWNWARD FLUX   NET FLUX    HEATING RATE
          mb          W/m2          W/m2          W/m2        W/m2          W/m2       degree/day
  51    .06700      296.6745        0.0000      323.7024      323.7024      27.027945       0.00000
  50    .07753      296.6747        0.0006      323.7018      323.7024      27.027725       0.17663
  49    .09103      296.6750        0.0013      323.7011      323.7024      27.027404       0.20033
  48    0.1069      296.6754        0.0021      323.7003      323.7023      27.026975       0.22845
  47    0.1255      296.6758        0.0030      323.6992      323.7022      27.026401       0.26040
  46    0.1487      296.6765        0.0042      323.6979      323.7021      27.025554       0.30857
  45    0.1794      296.6776        0.0058      323.6960      323.7018      27.024231       0.36332
  44    0.2165      296.6790        0.0077      323.6937      323.7014      27.022436       0.40833
  43    0.2613      296.6808        0.0100      323.6908      323.7008      27.020000       0.45907
  42    0.3336      296.6842        0.0137      323.6858      323.6995      27.015370       0.53986
  41    0.4307      296.6892        0.0187      323.6789      323.6976      27.008390       0.60688
  40    0.5894      296.6986        0.0268      323.6669      323.6937      26.995078       0.70792
  39     1.339      296.7650        0.0652      323.5966      323.6618      26.896711       1.10744
  38     1.782      296.8203        0.0877      323.5455      323.6332      26.812892       1.59576
  37     2.292      296.8995        0.1138      323.4772      323.5910      26.691534       2.01002
  36     2.964      297.0267        0.1481      323.3735      323.5215      26.494856       2.46890
  35     3.853      297.2275        0.1933      323.2168      323.4101      26.182590       2.96346
  34     5.035      297.5267        0.2534      322.9896      323.2430      25.716300       3.33098
  33     6.613      297.9429        0.3336      322.6767      323.0103      25.067475       3.46862
  32     8.786      298.4867        0.4417      322.2668      322.7085      24.221784       3.28436
  31     11.80      299.2011        0.5964      321.7206      322.3170      23.115935       3.09603
  30     15.07      299.8939        0.7624      321.1809      321.9434      22.049506       2.75331
  29     18.79      300.6097        0.9501      320.6134      321.5635      20.953791       2.48432
  28     23.16      301.3686        1.1693      319.9988      321.1681      19.799457       2.23211
  27     28.12      302.1463        1.4202      319.3517      320.7719      18.625549       1.99556
  26     33.73      302.8871        1.7012      318.7058      320.4070      17.519859       1.66243
  25     40.54      303.6321        2.0411      318.0150      320.0561      16.424024       1.35951
  24     48.69      304.3843        2.4515      317.2688      319.7203      15.336022       1.12591
  23     57.69      305.0694        2.9029      316.5325      319.4353      14.365923       0.90932
  22     68.43      305.7330        3.4412      315.7444      319.1857      13.452703       0.71791
  21     81.20      306.3144        4.0840      314.9256      319.0096      12.695147       0.50058
  20     96.49      306.8130        4.8515      314.0606      318.9120      12.099036       0.32901
  19     114.6      307.3035        5.7631      313.0928      318.8559      11.552379       0.25525
  18     136.5      307.8163        6.8437      311.9856      318.8293      11.012995       0.20741
  17     162.9      308.3638        8.1302      310.7044      318.8346      10.470855       0.17329
  16     196.4      308.9381        9.7992      309.1203      318.9195       9.981324       0.12322
  15     218.7      309.2649       10.8952      308.1090      319.0042       9.739321       0.09188
  14     243.0      309.5961       12.0863      307.0237      319.1100       9.513945       0.07817
  13     269.0      309.9299       13.3768      305.8622      319.2390       9.309119       0.06644
  12     297.5      310.2664       14.7712      304.6208      319.3920       9.125563       0.05444
  11     328.5      310.6178       16.2775      303.2868      319.5643       8.946432       0.04871
  10     361.9      310.9844       17.8989      301.8574      319.7563       8.771960       0.04414
   9     398.1      311.3681       19.6435      300.3253      319.9688       8.600748       0.03989
   8     437.6      311.7730       21.5166      298.6841      320.2007       8.427758       0.03699
   7     480.5      312.2001       23.5242      296.9284      320.4526       8.252484       0.03442
   6     533.0      312.7216       25.9956      294.7689      320.7644       8.042801       0.03373
   5     589.8      313.2875       28.6601      292.4370      321.0971       7.809555       0.03462
   4     651.6      313.9153       31.5260      289.9151      321.4411       7.525803       0.03880
   3     718.7      314.6226       34.6027      287.1858      321.7884       7.165842       0.04524
   2     792.3      315.4500       37.8941      284.2228      322.1169       6.666895       0.05722
   1     891.5      316.7431       42.3284      280.1335      322.4619       5.718752       0.08068
   0    1013.0      318.5900       47.6400      275.1007      322.7406       4.150605       0.10888



 Wavenumbers: 22650. - 29000. cm-1, ATM      1
 LEVEL PRESSURE   UPWARD FLUX   DIFDOWN FLUX  DIRDOWN FLUX  DOWNWARD FLUX   NET FLUX    HEATING RATE
          mb          W/m2          W/m2          W/m2        W/m2          W/m2       degree/day
  51    .06700      121.1541        0.0000      122.1535      122.1535       0.999383       0.00000
  50    .07753      121.1542        0.0007      122.1530      122.1536       0.999383       0.00000
  49    .09103      121.1544        0.0015      122.1523      122.1538       0.999383       0.00000
  48    0.1069      121.1545        0.0024      122.1515      122.1539       0.999383       0.00000
  47    0.1255      121.1547        0.0035      122.1506      122.1541       0.999383      -0.00000
  46    0.1487      121.1549        0.0049      122.1494      122.1543       0.999383       0.00000
  45    0.1794      121.1553        0.0068      122.1478      122.1546       0.999383       0.00000
  44    0.2165      121.1556        0.0091      122.1459      122.1550       0.999383      -0.00000
  43    0.2613      121.1561        0.0117      122.1437      122.1555       0.999383       0.00000
  42    0.3336      121.1568        0.0161      122.1401      122.1562       0.999383       0.00000
  41    0.4307      121.1578        0.0220      122.1352      122.1572       0.999383       0.00000
  40    0.5894      121.1594        0.0315      122.1273      122.1587       0.999383      -0.00000
  39     1.339      121.1668        0.0766      122.0897      122.1662       0.999383       0.00000
  38     1.782      121.1712        0.1030      122.0676      122.1706       0.999383       0.00000
  37     2.292      121.1763        0.1337      122.0420      122.1757       0.999383       0.00000
  36     2.964      121.1830        0.1739      122.0084      122.1824       0.999383      -0.00000
  35     3.853      121.1918        0.2271      121.9641      122.1912       0.999383       0.00000
  34     5.035      121.2035        0.2977      121.9052      122.2029       0.999383       0.00000
  33     6.613      121.2192        0.3921      121.8265      122.2186       0.999383       0.00000
  32     8.786      121.2403        0.5193      121.7204      122.2397       0.999383      -0.00000
  31     11.80      121.2705        0.7012      121.5687      122.2699       0.999383       0.00000
  30     15.07      121.3029        0.8964      121.4059      122.3023       0.999383       0.00000
  29     18.79      121.3395        1.1169      121.2220      122.3389       0.999383      -0.00000
  28     23.16      121.3822        1.3742      121.0073      122.3816       0.999383       0.00000
  27     28.12      121.4310        1.6683      120.7620      122.4304       0.999383      -0.00000
  26     33.73      121.4855        1.9972      120.4878      122.4849       0.999383       0.00000
  25     40.54      121.5514        2.3939      120.1568      122.5508       0.999383      -0.00000
  24     48.69      121.6306        2.8715      119.7585      122.6300       0.999383       0.00000
  23     57.69      121.7174        3.3949      119.3219      122.7168       0.999383       0.00000
  22     68.43      121.8206        4.0168      118.8032      122.8199       0.999383       0.00000
  21     81.20      121.9430        4.7553      118.1871      122.9424       0.999383      -0.00000
  20     96.49      122.0884        5.6317      117.4560      123.0877       0.999383      -0.00000
  19     114.6      122.2600        6.6671      116.5923      123.2594       0.999383       0.00000
  18     136.5      122.4622        7.8869      115.5747      123.4616       0.999383      -0.00000
  17     162.9      122.7011        9.3287      114.3718      123.7005       0.999383       0.00000
  16     196.4      123.0079       11.1810      112.8263      124.0073       0.999383      -0.00000
  15     218.7      123.2076       12.3867      111.8202      124.2070       0.999383       0.00000
  14     243.0      123.4230       13.6879      110.7345      124.4224       0.999383       0.00000
  13     269.0      123.6545       15.0870      109.5669      124.6539       0.999383       0.00000
  12     297.5      123.9026       16.5863      108.3157      124.9020       0.999383      -0.00000
  11     328.5      124.1681       18.1920      106.9756      125.1675       0.999383       0.00000
  10     361.9      124.4512       19.9042      105.5464      125.4506       0.999383      -0.00000
   9     398.1      124.7526       21.7281      104.0239      125.7520       0.999383      -0.00000
   8     437.6      125.0726       23.6654      102.4066      126.0719       0.999383       0.00000
   7     480.5      125.4114       25.7178      100.6930      126.4108       0.999383       0.00000
   6     533.0      125.8227       28.2107       98.6113      126.8220       0.999383      -0.00000
   5     589.8      126.2591       30.8579       96.4006      127.2584       0.999383       0.00000
   4     651.6      126.7206       33.6595       94.0604      127.7200       0.999383       0.00000
   3     718.7      127.2071       36.6159       91.5906      128.2065       0.999383      -0.00000
   2     792.3      127.7179       39.7228       88.9945      128.7173       0.999383       0.00000
   1     891.5      128.3914       43.8242       85.5665      129.3908       0.999383      -0.00000
   0    1013.0      129.1756       48.6083       81.5667      130.1750       0.999383       0.00000



 Wavenumbers: 29000. - 38000. cm-1, ATM      1
 LEVEL PRESSURE   UPWARD FLUX   DIFDOWN FLUX  DIRDOWN FLUX  DOWNWARD FLUX   NET FLUX    HEATING RATE
          mb          W/m2          W/m2          W/m2        W/m2          W/m2       degree/day
  51    .06700       19.1667        0.0000       43.0764       43.0764      23.909702       0.00000
  50    .07753       19.1666        0.0004       43.0721       43.0725      23.905871       3.07034
  49    .09103       19.1665        0.0009       43.0659       43.0668      23.900295       3.48516
  48    0.1069       19.1664        0.0014       43.0578       43.0592      23.892825       3.97668
  47    0.1255       19.1663        0.0021       43.0470       43.0491      23.882823       4.53425
  46    0.1487       19.1662        0.0029       43.0314       43.0342      23.868086       5.37199
  45    0.1794       19.1660        0.0040       43.0071       43.0111      23.845074       6.31712
  44    0.2165       19.1660        0.0053       42.9746       42.9799      23.813941       7.08232
  43    0.2613       19.1659        0.0068       42.9309       42.9378      23.771864       7.93124
  42    0.3336       19.1660        0.0094       42.8491       42.8584      23.692468       9.25690
  41    0.4307       19.1663        0.0127       42.7280       42.7407      23.574408      10.26503
  40    0.5894       19.1672        0.0181       42.5039       42.5220      23.354785      11.67926
  39     1.339       19.1794        0.0418       41.0784       41.1202      21.940781      15.91912
  38     1.782       19.1919        0.0544       40.1126       40.1670      20.975123      18.38457
  37     2.292       19.2108        0.0683       39.0018       39.0701      19.859243      18.48188
  36     2.964       19.2425        0.0856       37.6722       37.7578      18.515249      16.87118
  35     3.853       19.2940        0.1075       36.2246       36.3321      17.038055      14.01885
  34     5.035       19.3719        0.1358       34.7682       34.9040      15.532047      10.75830
  33     6.613       19.4816        0.1727       33.3539       33.5265      14.044883       7.95038
  32     8.786       19.6268        0.2214       32.0154       32.2369      12.610121       5.57210
  31     11.80       19.8209        0.2901       30.7043       30.9944      11.173548       4.02195
  30     15.07       20.0142        0.3630       29.7034       30.0664      10.052161       2.89520
  29     18.79       20.2201        0.4442       28.8397       29.2839       9.063773       2.24098
  28     23.16       20.4465        0.5381       28.0517       28.5899       8.143380       1.77974
  27     28.12       20.6883        0.6448       27.3377       27.9825       7.294194       1.44356
  26     33.73       20.9281        0.7642       26.7158       27.4800       6.551926       1.11602
  25     40.54       21.1788        0.9087       26.1257       27.0343       5.855560       0.86392
  24     48.69       21.4428        1.0830       25.5534       26.6364       5.193644       0.68498
  23     57.69       21.6929        1.2745       25.0386       26.3131       4.620244       0.53748
  22     68.43       21.9437        1.5031       24.5319       26.0350       4.091300       0.41582
  21     81.20       22.1678        1.7777       24.0471       25.8248       3.657024       0.28696
  20     96.49       22.3604        2.1070       23.5704       25.6774       3.317022       0.18766
  19     114.6       22.5510        2.4951       23.0618       25.5569       3.005899       0.14527
  18     136.5       22.7527        2.9483       22.5024       25.4507       2.697938       0.11842
  17     162.9       22.9716        3.4794       21.8793       25.3587       2.387117       0.09935
  16     196.4       23.1988        4.1593       21.1432       25.3025       2.103688       0.07134
  15     218.7       23.3265        4.5983       20.6893       25.2876       1.961166       0.05411
  14     243.0       23.4551        5.0682       20.2137       25.2818       1.826741       0.04662
  13     269.0       23.5830        5.5691       19.7173       25.2864       1.703420       0.04000
  12     297.5       23.7093        6.1010       19.2007       25.3017       1.592386       0.03293
  11     328.5       23.8395        6.6634       18.6598       25.3232       1.483776       0.02953
  10     361.9       23.9730        7.2550       18.0962       25.3512       1.378195       0.02671
   9     398.1       24.1100        7.8760       17.5099       25.3859       1.275911       0.02383
   8     437.6       24.2512        8.5248       16.9015       25.4263       1.175121       0.02155
   7     480.5       24.3959        9.2005       16.2726       25.4732       1.077299       0.01921
   6     533.0       24.5660       10.0054       15.5288       25.5342       0.968189       0.01755
   5     589.8       24.7420       10.8401       14.7619       25.6020       0.860004       0.01606
   4     651.6       24.9243       11.7003       13.9752       25.6755       0.751168       0.01488
   3     718.7       25.1128       12.5825       13.1721       25.7546       0.641845       0.01374
   2     792.3       25.3073       13.4829       12.3567       25.8396       0.532258       0.01257
   1     891.5       25.5598       14.6277       11.3253       25.9530       0.393199       0.01183
   0    1013.0       25.8523       15.9064       10.1808       26.0871       0.234849       0.01100



 Wavenumbers: 38000. - 50000. cm-1, ATM      1
 LEVEL PRESSURE   UPWARD FLUX   DIFDOWN FLUX  DIRDOWN FLUX  DOWNWARD FLUX   NET FLUX    HEATING RATE
          mb          W/m2          W/m2          W/m2        W/m2          W/m2       degree/day
  51    .06700        0.0076        0.0000        2.6569        2.6569       2.649329       0.00000
  50    .07753        0.0075        0.0001        2.6545        2.6545       2.646990       1.87409
  49    .09103        0.0075        0.0002        2.6510        2.6511       2.643650       2.08817
  48    0.1069        0.0074        0.0003        2.6464        2.6466       2.639251       2.34138
  47    0.1255        0.0073        0.0004        2.6404        2.6408       2.633455       2.62776
  46    0.1487        0.0072        0.0005        2.6317        2.6322       2.625039       3.06759
  45    0.1794        0.0070        0.0007        2.6184        2.6191       2.612064       3.56203
  44    0.2165        0.0069        0.0009        2.6007        2.6016       2.594730       3.94316
  43    0.2613        0.0067        0.0012        2.5772        2.5783       2.571602       4.35943
  42    0.3336        0.0064        0.0015        2.5335        2.5350       2.528613       5.01219
  41    0.4307        0.0060        0.0020        2.4699        2.4719       2.465836       5.45827
  40    0.5894        0.0055        0.0027        2.3549        2.3576       2.352096       6.04858
  39     1.339        0.0037        0.0041        1.6991        1.7032       1.699541       7.34658
  38     1.782        0.0029        0.0040        1.3269        1.3309       1.327930       7.07486
  37     2.292        0.0023        0.0035        0.9724        0.9759       0.973591       5.86878
  36     2.964        0.0018        0.0029        0.6514        0.6543       0.652515       4.03047
  35     3.853        0.0014        0.0024        0.4147        0.4171       0.415693       2.24748
  34     5.035        0.0011        0.0019        0.2616        0.2635       0.262398       1.09508
  33     6.613        0.0008        0.0015        0.1640        0.1655       0.164687       0.52236
  32     8.786        0.0006        0.0012        0.1029        0.1042       0.103521       0.23755
  31     11.80        0.0005        0.0009        0.0630        0.0640       0.063522       0.11199
  30     15.07        0.0003        0.0007        0.0413        0.0420       0.041685       0.05638
  29     18.79        0.0002        0.0006        0.0271        0.0277       0.027445       0.03229
  28     23.16        0.0002        0.0004        0.0174        0.0178       0.017663       0.01891
  27     28.12        0.0001        0.0003        0.0110        0.0113       0.011175       0.01103
  26     33.73        0.0001        0.0002        0.0070        0.0072       0.007084       0.00615
  25     40.54        0.0001        0.0001        0.0043        0.0044       0.004337       0.00341
  24     48.69        0.0000        0.0001        0.0025        0.0026       0.002534       0.00187
  23     57.69        0.0000        0.0001        0.0014        0.0015       0.001475       0.00099
  22     68.43        0.0000        0.0000        0.0008        0.0008       0.000813       0.00052
  21     81.20        0.0000        0.0000        0.0004        0.0004       0.000426       0.00026
  20     96.49        0.0000        0.0000        0.0002        0.0002       0.000208       0.00012
  19     114.6        0.0000        0.0000        0.0001        0.0001       0.000091       0.00005
  18     136.5        0.0000        0.0000        0.0000        0.0000       0.000034       0.00002
  17     162.9        0.0000        0.0000        0.0000        0.0000       0.000011       0.00001
  16     196.4        0.0000        0.0000        0.0000        0.0000       0.000003       0.00000
  15     218.7        0.0000        0.0000        0.0000        0.0000       0.000001       0.00000
  14     243.0        0.0000        0.0000        0.0000        0.0000       0.000000       0.00000
  13     269.0        0.0000        0.0000        0.0000        0.0000       0.000000       0.00000
  12     297.5        0.0000        0.0000        0.0000        0.0000       0.000000       0.00000
  11     328.5        0.0000        0.0000        0.0000        0.0000       0.000000       0.00000
  10     361.9        0.0000        0.0000        0.0000        0.0000       0.000000       0.00000
   9     398.1        0.0000        0.0000        0.0000        0.0000       0.000000       0.00000
   8     437.6        0.0000        0.0000        0.0000        0.0000       0.000000       0.00000
   7     480.5        0.0000        0.0000        0.0000        0.0000       0.000000       0.00000
   6     533.0        0.0000        0.0000        0.0000        0.0000       0.000000       0.00000
   5     589.8        0.0000        0.0000        0.0000        0.0000       0.000000       0.00000
   4     651.6        0.0000        0.0000        0.0000        0.0000       0.000000       0.00000
   3     718.7        0.0000        0.0000        0.0000        0.0000       0.000000       0.00000
   2     792.3        0.0000        0.0000        0.0000        0.0000       0.000000       0.00000
   1     891.5        0.0000        0.0000        0.0000        0.0000       0.000000       0.00000
   0    1013.0        0.0000        0.0000        0.0000        0.0000       0.000000       0.00000



 Wavenumbers:   820. -  2600. cm-1, ATM      1
 LEVEL PRESSURE   UPWARD FLUX   DIFDOWN FLUX  DIRDOWN FLUX  DOWNWARD FLUX   NET FLUX    HEATING RATE
          mb          W/m2          W/m2          W/m2        W/m2          W/m2       degree/day
  51    .06700        0.0071        0.0000       12.4287       12.4287      12.421624       0.00000
  50    .07753        0.0071        0.0000       12.4220       12.4220      12.414899       5.39020
  49    .09103        0.0071        0.0000       12.4205       12.4205      12.413443       0.91059
  48    0.1069        0.0071        0.0000       12.4194       12.4194      12.412335       0.58973
  47    0.1255        0.0071        0.0000       12.4182       12.4182      12.411059       0.57854
  46    0.1487        0.0071        0.0000       12.4165       12.4165      12.409419       0.59763
  45    0.1794        0.0071        0.0000       12.4143       12.4143      12.407194       0.61089
  44    0.2165        0.0071        0.0000       12.4117       12.4117      12.404631       0.58300
  43    0.2613        0.0071        0.0000       12.4088       12.4088      12.401729       0.54706
  42    0.3336        0.0071        0.0000       12.4044       12.4044      12.397311       0.51505
  41    0.4307        0.0071        0.0000       12.3992       12.3992      12.392135       0.45009
  40    0.5894        0.0071        0.0000       12.3918       12.3918      12.384708       0.39494
  39     1.339        0.0071        0.0000       12.3599       12.3599      12.352831       0.35888
  38     1.782        0.0071        0.0000       12.3417       12.3417      12.334624       0.34663
  37     2.292        0.0071        0.0000       12.3212       12.3212      12.314134       0.33936
  36     2.964        0.0071        0.0000       12.2951       12.2951      12.287993       0.32816
  35     3.853        0.0071        0.0000       12.2614       12.2614      12.254330       0.31947
  34     5.035        0.0071        0.0000       12.2183       12.2183      12.211200       0.30810
  33     6.613        0.0071        0.0000       12.1637       12.1637      12.156630       0.29173
  32     8.786        0.0071        0.0000       12.0948       12.0948      12.087712       0.26765
  31     11.80        0.0071        0.0000       12.0029       12.0029      11.995787       0.25736
  30     15.07        0.0071        0.0000       11.9123       11.9123      11.905191       0.23390
  29     18.79        0.0071        0.0000       11.8224       11.8224      11.815338       0.20372
  28     23.16        0.0071        0.0000       11.7370       11.7370      11.729887       0.16524
  27     28.12        0.0071        0.0000       11.6635       11.6635      11.656418       0.12489
  26     33.73        0.0071        0.0000       11.6054       11.6054      11.598322       0.08735
  25     40.54        0.0071        0.0000       11.5570       11.5570      11.549899       0.06007
  24     48.69        0.0071        0.0000       11.5146       11.5146      11.507477       0.04390
  23     57.69        0.0071        0.0000       11.4749       11.4749      11.467766       0.03722
  22     68.43        0.0071        0.0000       11.4297       11.4297      11.422580       0.03552
  21     81.20        0.0071        0.0000       11.3769       11.3769      11.369845       0.03485
  20     96.49        0.0071        0.0000       11.3146       11.3146      11.307477       0.03442
  19     114.6        0.0071        0.0000       11.2401       11.2401      11.233033       0.03476
  18     136.5        0.0071        0.0000       11.1517       11.1517      11.144647       0.03399
  17     162.9        0.0071        0.0000       11.0371       11.0371      11.030050       0.03663
  16     196.4        0.0071        0.0000       10.8529       10.8529      10.845784       0.04638
  15     218.7        0.0071        0.0000       10.6712       10.6712      10.664109       0.06897
  14     243.0        0.0071        0.0000       10.3821       10.3821      10.375042       0.10026
  13     269.0        0.0071        0.0000        9.9902        9.9903       9.983171       0.12712
  12     297.5        0.0071        0.0000        9.5527        9.5527       9.545653       0.12976
  11     328.5        0.0071        0.0000        9.1782        9.1782       9.171101       0.10184
  10     361.9        0.0071        0.0000        8.8068        8.8068       8.799678       0.09397
   9     398.1        0.0071        0.0000        8.3755        8.3755       8.368379       0.10048
   8     437.6        0.0071        0.0000        7.8782        7.8783       7.871137       0.10631
   7     480.5        0.0072        0.0000        7.3858        7.3858       7.378673       0.09672
   6     533.0        0.0072        0.0000        6.9174        6.9175       6.910268       0.07535
   5     589.8        0.0073        0.0000        6.5784        6.5785       6.571219       0.05033
   4     651.6        0.0074        0.0000        6.2787        6.2788       6.271431       0.04100
   3     718.7        0.0075        0.0000        5.9291        5.9291       5.921606       0.04396
   2     792.3        0.0078        0.0000        5.4956        5.4956       5.487779       0.04976
   1     891.5        0.0086        0.0000        4.8843        4.8843       4.875690       0.05209
   0    1013.0        0.0108        0.0000        4.1661        4.1662       4.155323       0.05002

  Modules and versions used in this calculation:

       rrtmg_sw.1col.f90:  $Revision$                    rrtmg_sw_init.f90:  $Revision$        
     rrtmgsw_cldprop.f90:  $Revision$                  rrtmgsw_cldprmc.f90:  NOT USED          
     rrtmg_sw_reftra.f90:  $Revision$                  rrtmg_sw_spcvrt.f90:  NOT USED          
     rrtmg_sw_spcvmc.f90:  NOT USED                    rrtmgsw_setcoef.f90:  NOT USED          
     rrtmg_sw_taumol.f90:  $Revision$                  rrtmg_sw_vrtqdr.f90:  NOT USED          
                rrtatm.f:  NOT USED                             util_xxx.f:  NOT USED          
                 extra.f:  NOT USED                       rrtmg_sw_k_g.f90:  $Revision$        

