

 Wavenumbers:   820. - 50000. cm-1, ATM      1
 LEVEL PRESSURE   UPWARD FLUX   DIFDOWN FLUX  DIRDOWN FLUX  DOWNWARD FLUX   NET FLUX    HEATING RATE
          mb          W/m2          W/m2          W/m2        W/m2          W/m2       degree/day
  51    .06700      143.6263        0.0000      236.3090      236.3090      92.682707       0.00000
  50    .07753      143.6255        0.0011      236.2946      236.2956      92.670092      10.11121
  49    .09103      143.6247        0.0024      236.2795      236.2819      92.657271       8.01369
  48    0.1069      143.6236        0.0040      236.2613      236.2653      92.641633       8.32388
  47    0.1255      143.6225        0.0058      236.2388      236.2446      92.622086       8.86171
  46    0.1487      143.6211        0.0080      236.2080      236.2160      92.594959       9.88794
  45    0.1794      143.6192        0.0111      236.1629      236.1739      92.554774      11.03179
  44    0.2165      143.6170        0.0147      236.1054      236.1200      92.503078      11.76000
  43    0.2613      143.6144        0.0189      236.0322      236.0511      92.436700      12.51206
  42    0.3336      143.6103        0.0258      235.9038      235.9297      92.319357      13.68102
  41    0.4307      143.6051        0.0349      235.7306      235.7655      92.160379      13.82279
  40    0.5894      143.5971        0.0494      235.4518      235.5013      91.904131      13.62691
  39     1.339      143.5674        0.1139      234.3665      234.4804      90.913036      11.15793
  38     1.782      143.5549        0.1502      233.9040      234.0542      90.499264       7.87757
  37     2.292      143.5447        0.1914      233.4404      233.6319      90.087121       6.82615
  36     2.964      143.5375        0.2449      232.8941      233.1390      89.601496       6.09607
  35     3.853      143.5366        0.3146      232.2436      232.5582      89.021606       5.50326
  34     5.035      143.5439        0.4060      231.4736      231.8796      88.335711       4.89975
  33     6.613      143.5589        0.5268      230.5713      231.0981      87.539173       4.25829
  32     8.786      143.5768        0.6878      229.5191      230.2069      86.630030       3.53078
  31     11.80      143.5901        0.9153      228.2260      229.1413      85.551163       3.02049
  30     15.07      143.5899        1.1566      227.0121      228.1687      84.578799       2.51045
  29     18.79      143.5769        1.4258      225.7774      227.2032      83.626313       2.15958
  28     23.16      143.5470        1.7362      224.4692      226.2055      82.658503       1.87143
  27     28.12      143.4956        2.0868      223.1089      225.1957      81.700010       1.62937
  26     33.73      143.4125        2.4743      221.7451      224.2195      80.807016       1.34264
  25     40.54      143.2825        2.9365      220.2664      223.2030      79.920429       1.09991
  24     48.69      143.0989        3.4854      218.6473      222.1328      79.033889       0.91743
  23     57.69      142.8720        4.0787      217.0232      221.1019      78.229874       0.75364
  22     68.43      142.5761        4.7727      215.2546      220.0274      77.451270       0.61209
  21     81.20      142.1877        5.5837      213.3607      218.9445      76.756790       0.45890
  20     96.49      141.6958        6.5285      211.3120      217.8406      76.144762       0.33780
  19     114.6      141.1153        7.6203      209.0128      216.6331      75.517850       0.29272
  18     136.5      140.4356        8.8735      206.4306      215.3041      74.868515       0.24968
  17     162.9      139.6444       10.3104      203.4916      213.8020      74.157615       0.22723
  16     196.4      138.6362       12.0924      199.8304      211.9227      73.286532       0.21926
  15     218.7      137.9912       13.2151      197.3122      210.5273      72.536156       0.28489
  14     243.0      137.3086       14.3954      194.2977      208.6931      71.384461       0.39945
  13     269.0      136.5900       15.6300      190.7201      206.3501      69.760122       0.52693
  12     297.5      135.8382       16.9148      186.6778      203.5926      67.754394       0.59488
  11     328.5      135.0557       18.2498      182.3646      200.6144      65.558686       0.59701
  10     361.9      134.2468       19.6287      177.7795      197.4082      63.161408       0.60654
   9     398.1      133.4136       21.0491      172.9469      193.9960      60.582442       0.60084
   8     437.6      132.5610       22.5061      167.8483      190.3543      57.793362       0.59632
   7     480.5      131.6935       23.9948      162.5529      186.5478      54.854282       0.57722
   6     533.0      130.6899       25.7320      156.2782      182.0102      51.320295       0.56851
   5     589.8      129.6904       27.4939      149.7190      177.2129      47.522452       0.56372
   4     651.6      128.7217       29.2711      142.6044      171.8755      43.153790       0.59743
   3     718.7      127.8141       31.0514      135.0695      166.1209      38.306856       0.60913
   2     792.3      127.0305       32.8190      127.0660      159.8850      32.854482       0.62533
   1     891.5      126.3603       34.9955      116.7666      151.7622      25.401810       0.63419
   0    1013.0      126.2832       37.3266      105.6404      142.9671      16.683849       0.60533



 Wavenumbers:  2600. -  3250. cm-1, ATM      1
 LEVEL PRESSURE   UPWARD FLUX   DIFDOWN FLUX  DIRDOWN FLUX  DOWNWARD FLUX   NET FLUX    HEATING RATE
          mb          W/m2          W/m2          W/m2        W/m2          W/m2       degree/day
  51    .06700        0.0114        0.0000        2.0827        2.0827       2.071256       0.00000
  50    .07753        0.0114        0.0000        2.0827        2.0827       2.071248       0.00640
  49    .09103        0.0114        0.0000        2.0827        2.0827       2.071238       0.00626
  48    0.1069        0.0114        0.0000        2.0827        2.0827       2.071227       0.00612
  47    0.1255        0.0114        0.0000        2.0826        2.0826       2.071213       0.00598
  46    0.1487        0.0114        0.0000        2.0826        2.0826       2.071197       0.00606
  45    0.1794        0.0114        0.0000        2.0826        2.0826       2.071174       0.00622
  44    0.2165        0.0114        0.0000        2.0826        2.0826       2.071147       0.00609
  43    0.2613        0.0114        0.0000        2.0825        2.0825       2.071116       0.00596
  42    0.3336        0.0114        0.0000        2.0825        2.0825       2.071063       0.00612
  41    0.4307        0.0114        0.0000        2.0824        2.0824       2.070993       0.00613
  40    0.5894        0.0114        0.0000        2.0823        2.0823       2.070875       0.00627
  39     1.339        0.0114        0.0000        2.0816        2.0816       2.070192       0.00769
  38     1.782        0.0114        0.0000        2.0811        2.0811       2.069683       0.00967
  37     2.292        0.0114        0.0000        2.0805        2.0805       2.069034       0.01076
  36     2.964        0.0114        0.0000        2.0796        2.0796       2.068128       0.01136
  35     3.853        0.0114        0.0000        2.0783        2.0783       2.066917       0.01149
  34     5.035        0.0114        0.0000        2.0768        2.0768       2.065371       0.01104
  33     6.613        0.0114        0.0000        2.0749        2.0749       2.063510       0.00995
  32     8.786        0.0114        0.0000        2.0728        2.0728       2.061403       0.00818
  31     11.80        0.0114        0.0000        2.0704        2.0704       2.059023       0.00666
  30     15.07        0.0114        0.0000        2.0684        2.0684       2.056940       0.00538
  29     18.79        0.0114        0.0000        2.0662        2.0662       2.054788       0.00488
  28     23.16        0.0114        0.0000        2.0636        2.0636       2.052222       0.00496
  27     28.12        0.0114        0.0000        2.0604        2.0605       2.049032       0.00542
  26     33.73        0.0114        0.0000        2.0563        2.0563       2.044897       0.00622
  25     40.54        0.0114        0.0000        2.0504        2.0504       2.038987       0.00733
  24     48.69        0.0114        0.0000        2.0422        2.0422       2.030816       0.00846
  23     57.69        0.0114        0.0000        2.0323        2.0324       2.020952       0.00925
  22     68.43        0.0114        0.0000        2.0201        2.0201       2.008692       0.00964
  21     81.20        0.0114        0.0000        2.0056        2.0057       1.994263       0.00953
  20     96.49        0.0114        0.0000        1.9896        1.9896       1.978203       0.00886
  19     114.6        0.0114        0.0000        1.9723        1.9724       1.960979       0.00804
  18     136.5        0.0114        0.0000        1.9552        1.9553       1.943888       0.00657
  17     162.9        0.0114        0.0001        1.9386        1.9387       1.927274       0.00531
  16     196.4        0.0114        0.0001        1.9204        1.9205       1.909150       0.00456
  15     218.7        0.0114        0.0001        1.9077        1.9078       1.896397       0.00484
  14     243.0        0.0114        0.0001        1.8900        1.8901       1.878709       0.00613
  13     269.0        0.0114        0.0001        1.8651        1.8652       1.853824       0.00807
  12     297.5        0.0114        0.0001        1.8296        1.8297       1.818309       0.01053
  11     328.5        0.0114        0.0001        1.7832        1.7833       1.771974       0.01260
  10     361.9        0.0114        0.0001        1.7252        1.7254       1.714008       0.01467
   9     398.1        0.0114        0.0001        1.6552        1.6553       1.643957       0.01632
   8     437.6        0.0114        0.0001        1.5741        1.5742       1.562830       0.01735
   7     480.5        0.0114        0.0001        1.4857        1.4858       1.474436       0.01736
   6     533.0        0.0114        0.0002        1.3801        1.3803       1.368835       0.01699
   5     589.8        0.0115        0.0002        1.2660        1.2661       1.254647       0.01695
   4     651.6        0.0116        0.0002        1.1335        1.1337       1.122118       0.01812
   3     718.7        0.0117        0.0002        0.9901        0.9902       0.978500       0.01805
   2     792.3        0.0120        0.0002        0.8422        0.8424       0.830432       0.01698
   1     891.5        0.0125        0.0001        0.6654        0.6656       0.653102       0.01509
   0    1013.0        0.0136        0.0001        0.4896        0.4897       0.476089       0.01229



 Wavenumbers:  3250. -  4000. cm-1, ATM      1
 LEVEL PRESSURE   UPWARD FLUX   DIFDOWN FLUX  DIRDOWN FLUX  DOWNWARD FLUX   NET FLUX    HEATING RATE
          mb          W/m2          W/m2          W/m2        W/m2          W/m2       degree/day
  51    .06700        0.0004        0.0000        3.5111        3.5111       3.510695       0.00000
  50    .07753        0.0004        0.0000        3.5077        3.5077       3.507310       2.71345
  49    .09103        0.0004        0.0000        3.5060        3.5060       3.505603       1.06682
  48    0.1069        0.0004        0.0000        3.5046        3.5046       3.504185       0.75514
  47    0.1255        0.0004        0.0000        3.5033        3.5033       3.502875       0.59376
  46    0.1487        0.0004        0.0000        3.5019        3.5019       3.501534       0.48872
  45    0.1794        0.0004        0.0000        3.5004        3.5004       3.500039       0.41048
  44    0.2165        0.0004        0.0000        3.4989        3.4989       3.498513       0.34720
  43    0.2613        0.0004        0.0000        3.4973        3.4973       3.496848       0.31372
  42    0.3336        0.0004        0.0000        3.4947        3.4947       3.494248       0.30312
  41    0.4307        0.0004        0.0000        3.4915        3.4915       3.491060       0.27720
  40    0.5894        0.0004        0.0000        3.4869        3.4869       3.486454       0.24493
  39     1.339        0.0004        0.0000        3.4724        3.4724       3.471955       0.16323
  38     1.782        0.0004        0.0000        3.4663        3.4663       3.465914       0.11502
  37     2.292        0.0004        0.0000        3.4600        3.4600       3.459600       0.10459
  36     2.964        0.0004        0.0000        3.4521        3.4521       3.451706       0.09909
  35     3.853        0.0004        0.0000        3.4419        3.4419       3.441467       0.09716
  34     5.035        0.0004        0.0000        3.4283        3.4283       3.427899       0.09693
  33     6.613        0.0004        0.0000        3.4102        3.4102       3.409776       0.09688
  32     8.786        0.0004        0.0000        3.3855        3.3855       3.385119       0.09576
  31     11.80        0.0004        0.0000        3.3508        3.3509       3.350465       0.09702
  30     15.07        0.0004        0.0000        3.3159        3.3159       3.315495       0.09029
  29     18.79        0.0004        0.0000        3.2801        3.2801       3.279736       0.08107
  28     23.16        0.0004        0.0000        3.2432        3.2433       3.242885       0.07126
  27     28.12        0.0004        0.0000        3.2059        3.2059       3.205530       0.06350
  26     33.73        0.0004        0.0000        3.1673        3.1674       3.167000       0.05793
  25     40.54        0.0004        0.0001        3.1223        3.1224       3.122022       0.05580
  24     48.69        0.0003        0.0001        3.0691        3.0691       3.068789       0.05509
  23     57.69        0.0003        0.0001        3.0120        3.0121       3.011775       0.05344
  22     68.43        0.0003        0.0001        2.9475        2.9476       2.947292       0.05069
  21     81.20        0.0003        0.0001        2.8764        2.8765       2.876170       0.04700
  20     96.49        0.0003        0.0001        2.7998        2.7999       2.799610       0.04226
  19     114.6        0.0003        0.0001        2.7139        2.7140       2.713750       0.04009
  18     136.5        0.0002        0.0002        2.6240        2.6242       2.623942       0.03453
  17     162.9        0.0002        0.0002        2.5258        2.5260       2.525789       0.03137
  16     196.4        0.0002        0.0002        2.3987        2.3989       2.398715       0.03199
  15     218.7        0.0002        0.0002        2.2843        2.2845       2.284371       0.04341
  14     243.0        0.0001        0.0002        2.1207        2.1209       2.120808       0.05673
  13     269.0        0.0001        0.0002        1.8883        1.8885       1.888390       0.07540
  12     297.5        0.0001        0.0002        1.6139        1.6142       1.614054       0.08137
  11     328.5        0.0001        0.0002        1.3693        1.3695       1.369433       0.06651
  10     361.9        0.0001        0.0002        1.1602        1.1604       1.160312       0.05291
   9     398.1        0.0001        0.0002        0.9753        0.9755       0.975494       0.04306
   8     437.6        0.0000        0.0002        0.8052        0.8054       0.805400       0.03637
   7     480.5        0.0000        0.0002        0.6509        0.6511       0.651108       0.03030
   6     533.0        0.0000        0.0002        0.4854        0.4856       0.485572       0.02663
   5     589.8        0.0000        0.0001        0.3301        0.3302       0.330219       0.02306
   4     651.6        0.0000        0.0001        0.1909        0.1910       0.190963       0.01904
   3     718.7        0.0000        0.0001        0.0840        0.0841       0.084094       0.01343
   2     792.3        0.0000        0.0000        0.0204        0.0205       0.020454       0.00730
   1     891.5        0.0000        0.0000        0.0008        0.0008       0.000821       0.00167
   0    1013.0        0.0000        0.0000        0.0000        0.0000       0.000003       0.00006



 Wavenumbers:  4000. -  4650. cm-1, ATM      1
 LEVEL PRESSURE   UPWARD FLUX   DIFDOWN FLUX  DIRDOWN FLUX  DOWNWARD FLUX   NET FLUX    HEATING RATE
          mb          W/m2          W/m2          W/m2        W/m2          W/m2       degree/day
  51    .06700        0.5718        0.0000        4.1231        4.1231       3.551295       0.00000
  50    .07753        0.5718        0.0000        4.1231        4.1231       3.551294       0.00080
  49    .09103        0.5718        0.0000        4.1231        4.1231       3.551292       0.00078
  48    0.1069        0.5718        0.0000        4.1231        4.1231       3.551291       0.00076
  47    0.1255        0.5718        0.0000        4.1231        4.1231       3.551289       0.00075
  46    0.1487        0.5718        0.0000        4.1231        4.1231       3.551287       0.00076
  45    0.1794        0.5718        0.0000        4.1231        4.1231       3.551284       0.00078
  44    0.2165        0.5718        0.0000        4.1231        4.1231       3.551281       0.00076
  43    0.2613        0.5718        0.0000        4.1231        4.1231       3.551277       0.00075
  42    0.3336        0.5718        0.0000        4.1231        4.1231       3.551271       0.00077
  41    0.4307        0.5718        0.0000        4.1231        4.1231       3.551262       0.00077
  40    0.5894        0.5718        0.0000        4.1230        4.1230       3.551247       0.00079
  39     1.339        0.5718        0.0000        4.1230        4.1230       3.551157       0.00100
  38     1.782        0.5718        0.0000        4.1229        4.1229       3.551088       0.00133
  37     2.292        0.5718        0.0000        4.1228        4.1228       3.550994       0.00155
  36     2.964        0.5718        0.0000        4.1226        4.1226       3.550854       0.00176
  35     3.853        0.5718        0.0000        4.1224        4.1224       3.550647       0.00197
  34     5.035        0.5718        0.0000        4.1221        4.1221       3.550342       0.00218
  33     6.613        0.5718        0.0000        4.1217        4.1217       3.549894       0.00239
  32     8.786        0.5718        0.0000        4.1210        4.1210       3.549236       0.00256
  31     11.80        0.5718        0.0000        4.1199        4.1200       3.548209       0.00288
  30     15.07        0.5718        0.0001        4.1187        4.1188       3.547014       0.00309
  29     18.79        0.5717        0.0001        4.1173        4.1173       3.545581       0.00325
  28     23.16        0.5717        0.0001        4.1155        4.1155       3.543820       0.00340
  27     28.12        0.5717        0.0001        4.1133        4.1134       3.541712       0.00358
  26     33.73        0.5717        0.0001        4.1107        4.1108       3.539148       0.00386
  25     40.54        0.5717        0.0001        4.1072        4.1074       3.535719       0.00425
  24     48.69        0.5716        0.0002        4.1027        4.1029       3.531228       0.00465
  23     57.69        0.5716        0.0002        4.0974        4.0976       3.525996       0.00490
  22     68.43        0.5716        0.0002        4.0909        4.0911       3.519554       0.00506
  21     81.20        0.5716        0.0003        4.0830        4.0833       3.511749       0.00516
  20     96.49        0.5715        0.0003        4.0736        4.0739       3.502398       0.00516
  19     114.6        0.5715        0.0004        4.0619        4.0624       3.490897       0.00537
  18     136.5        0.5714        0.0005        4.0481        4.0486       3.477219       0.00526
  17     162.9        0.5714        0.0006        4.0314        4.0320       3.460666       0.00529
  16     196.4        0.5713        0.0007        4.0088        4.0095       3.438179       0.00566
  15     218.7        0.5713        0.0008        3.9921        3.9929       3.421598       0.00629
  14     243.0        0.5713        0.0009        3.9712        3.9720       3.400705       0.00725
  13     269.0        0.5714        0.0010        3.9440        3.9449       3.373544       0.00881
  12     297.5        0.5715        0.0010        3.9078        3.9088       3.337350       0.01073
  11     328.5        0.5717        0.0012        3.8622        3.8634       3.291707       0.01241
  10     361.9        0.5719        0.0013        3.8071        3.8083       3.236399       0.01399
   9     398.1        0.5723        0.0014        3.7432        3.7446       3.172292       0.01494
   8     437.6        0.5727        0.0015        3.6713        3.6728       3.100031       0.01545
   7     480.5        0.5733        0.0016        3.5920        3.5936       3.020359       0.01565
   6     533.0        0.5741        0.0017        3.4875        3.4892       2.915102       0.01693
   5     589.8        0.5753        0.0019        3.3573        3.3592       2.783876       0.01948
   4     651.6        0.5770        0.0020        3.1884        3.1904       2.613384       0.02332
   3     718.7        0.5797        0.0021        2.9940        2.9961       2.416362       0.02476
   2     792.3        0.5841        0.0022        2.7856        2.7878       2.203754       0.02438
   1     891.5        0.5937        0.0023        2.5097        2.5120       1.918255       0.02429
   0    1013.0        0.6143        0.0024        2.1974        2.1998       1.585486       0.02311



 Wavenumbers:  4650. -  5150. cm-1, ATM      1
 LEVEL PRESSURE   UPWARD FLUX   DIFDOWN FLUX  DIRDOWN FLUX  DOWNWARD FLUX   NET FLUX    HEATING RATE
          mb          W/m2          W/m2          W/m2        W/m2          W/m2       degree/day
  51    .06700        0.1684        0.0000        3.9027        3.9027       3.734298       0.00000
  50    .07753        0.1684        0.0000        3.9025        3.9025       3.734063       0.18830
  49    .09103        0.1684        0.0000        3.9022        3.9022       3.733772       0.18207
  48    0.1069        0.1684        0.0000        3.9019        3.9019       3.733443       0.17541
  47    0.1255        0.1684        0.0000        3.9015        3.9015       3.733071       0.16858
  46    0.1487        0.1684        0.0000        3.9010        3.9010       3.732611       0.16740
  45    0.1794        0.1684        0.0000        3.9004        3.9004       3.732001       0.16746
  44    0.2165        0.1684        0.0000        3.8997        3.8997       3.731304       0.15864
  43    0.2613        0.1684        0.0000        3.8989        3.8989       3.730511       0.14946
  42    0.3336        0.1684        0.0000        3.8977        3.8977       3.729273       0.14439
  41    0.4307        0.1684        0.0000        3.8962        3.8962       3.727755       0.13195
  40    0.5894        0.1684        0.0000        3.8940        3.8940       3.725552       0.11717
  39     1.339        0.1684        0.0000        3.8868        3.8868       3.718361       0.08096
  38     1.782        0.1684        0.0000        3.8841        3.8841       3.715695       0.05075
  37     2.292        0.1684        0.0000        3.8818        3.8818       3.713402       0.03797
  36     2.964        0.1684        0.0000        3.8795        3.8795       3.711125       0.02858
  35     3.853        0.1684        0.0000        3.8771        3.8771       3.708725       0.02278
  34     5.035        0.1684        0.0000        3.8743        3.8743       3.705923       0.02002
  33     6.613        0.1684        0.0000        3.8706        3.8707       3.702303       0.01935
  32     8.786        0.1684        0.0000        3.8656        3.8656       3.697265       0.01957
  31     11.80        0.1683        0.0001        3.8579        3.8579       3.689588       0.02149
  30     15.07        0.1683        0.0001        3.8490        3.8490       3.680715       0.02291
  29     18.79        0.1683        0.0001        3.8382        3.8383       3.669968       0.02437
  28     23.16        0.1683        0.0001        3.8248        3.8249       3.656639       0.02577
  27     28.12        0.1683        0.0002        3.8087        3.8089       3.640612       0.02724
  26     33.73        0.1682        0.0002        3.7901        3.7903       3.622096       0.02784
  25     40.54        0.1682        0.0002        3.7675        3.7678       3.599565       0.02795
  24     48.69        0.1682        0.0003        3.7408        3.7411       3.572937       0.02756
  23     57.69        0.1681        0.0003        3.7130        3.7133       3.545176       0.02602
  22     68.43        0.1681        0.0004        3.6825        3.6828       3.514766       0.02391
  21     81.20        0.1680        0.0004        3.6501        3.6505       3.482503       0.02132
  20     96.49        0.1680        0.0005        3.6164        3.6169       3.448947       0.01852
  19     114.6        0.1679        0.0006        3.5812        3.5818       3.413898       0.01637
  18     136.5        0.1678        0.0007        3.5430        3.5437       3.375868       0.01462
  17     162.9        0.1677        0.0008        3.4986        3.4994       3.331695       0.01412
  16     196.4        0.1676        0.0010        3.4394        3.4403       3.272759       0.01483
  15     218.7        0.1675        0.0011        3.3981        3.3992       3.231713       0.01558
  14     243.0        0.1675        0.0012        3.3502        3.3514       3.183907       0.01658
  13     269.0        0.1674        0.0013        3.2937        3.2950       3.127641       0.01825
  12     297.5        0.1674        0.0014        3.2259        3.2273       3.059942       0.02008
  11     328.5        0.1674        0.0016        3.1484        3.1500       2.982595       0.02103
  10     361.9        0.1674        0.0017        3.0615        3.0632       2.895849       0.02195
   9     398.1        0.1674        0.0018        2.9651        2.9669       2.799514       0.02244
   8     437.6        0.1675        0.0020        2.8597        2.8617       2.694141       0.02253
   7     480.5        0.1677        0.0021        2.7466        2.7487       2.580963       0.02223
   6     533.0        0.1680        0.0022        2.6096        2.6118       2.443769       0.02207
   5     589.8        0.1685        0.0024        2.4647        2.4670       2.298507       0.02156
   4     651.6        0.1693        0.0025        2.3066        2.3090       2.139736       0.02171
   3     718.7        0.1705        0.0026        2.1374        2.1400       1.969518       0.02139
   2     792.3        0.1724        0.0027        1.9594        1.9621       1.789679       0.02063
   1     891.5        0.1762        0.0027        1.7338        1.7365       1.560334       0.01952
   0    1013.0        0.1833        0.0028        1.5022        1.5050       1.321747       0.01657



 Wavenumbers:  5150. -  6150. cm-1, ATM      1
 LEVEL PRESSURE   UPWARD FLUX   DIFDOWN FLUX  DIRDOWN FLUX  DOWNWARD FLUX   NET FLUX    HEATING RATE
          mb          W/m2          W/m2          W/m2        W/m2          W/m2       degree/day
  51    .06700        1.2510        0.0000        9.7841        9.7841       8.533093       0.00000
  50    .07753        1.2510        0.0000        9.7841        9.7841       8.533054       0.03155
  49    .09103        1.2510        0.0000        9.7840        9.7840       8.533002       0.03203
  48    0.1069        1.2510        0.0000        9.7839        9.7839       8.532941       0.03253
  47    0.1255        1.2510        0.0000        9.7839        9.7839       8.532868       0.03302
  46    0.1487        1.2510        0.0000        9.7838        9.7838       8.532773       0.03477
  45    0.1794        1.2510        0.0000        9.7836        9.7836       8.532638       0.03698
  44    0.2165        1.2510        0.0000        9.7835        9.7835       8.532473       0.03751
  43    0.2613        1.2510        0.0000        9.7833        9.7833       8.532272       0.03804
  42    0.3336        1.2510        0.0000        9.7829        9.7829       8.531927       0.04013
  41    0.4307        1.2510        0.0000        9.7825        9.7825       8.531461       0.04057
  40    0.5894        1.2510        0.0000        9.7817        9.7817       8.530682       0.04141
  39     1.339        1.2510        0.0000        9.7779        9.7780       8.526983       0.04164
  38     1.782        1.2510        0.0000        9.7758        9.7758       8.524869       0.04025
  37     2.292        1.2510        0.0001        9.7734        9.7735       8.522510       0.03907
  36     2.964        1.2509        0.0001        9.7704        9.7705       8.519565       0.03697
  35     3.853        1.2509        0.0001        9.7667        9.7668       8.515904       0.03474
  34     5.035        1.2509        0.0001        9.7621        9.7622       8.511322       0.03274
  33     6.613        1.2509        0.0002        9.7563        9.7565       8.505600       0.03059
  32     8.786        1.2508        0.0002        9.7491        9.7493       8.498508       0.02754
  31     11.80        1.2507        0.0003        9.7400        9.7403       8.489503       0.02521
  30     15.07        1.2507        0.0004        9.7314        9.7318       8.481115       0.02166
  29     18.79        1.2506        0.0005        9.7231        9.7235       8.472949       0.01851
  28     23.16        1.2505        0.0006        9.7147        9.7153       8.464801       0.01576
  27     28.12        1.2504        0.0007        9.7065        9.7072       8.456839       0.01354
  26     33.73        1.2503        0.0009        9.6987        9.6996       8.449289       0.01135
  25     40.54        1.2502        0.0010        9.6906        9.6917       8.441503       0.00966
  24     48.69        1.2500        0.0012        9.6823        9.6835       8.433504       0.00828
  23     57.69        1.2498        0.0015        9.6741        9.6756       8.425738       0.00728
  22     68.43        1.2496        0.0017        9.6652        9.6669       8.417316       0.00662
  21     81.20        1.2494        0.0021        9.6552        9.6573       8.407879       0.00624
  20     96.49        1.2491        0.0024        9.6435        9.6460       8.396862       0.00608
  19     114.6        1.2488        0.0029        9.6294        9.6323       8.383492       0.00624
  18     136.5        1.2484        0.0034        9.6117        9.6151       8.366716       0.00645
  17     162.9        1.2479        0.0041        9.5837        9.5878       8.339906       0.00857
  16     196.4        1.2473        0.0049        9.5177        9.5226       8.275306       0.01626
  15     218.7        1.2470        0.0054        9.4058        9.4112       8.164239       0.04217
  14     243.0        1.2466        0.0060        9.1870        9.1930       7.946421       0.07555
  13     269.0        1.2462        0.0065        8.8839        8.8904       7.644224       0.09803
  12     297.5        1.2458        0.0070        8.5201        8.5271       7.281261       0.10765
  11     328.5        1.2455        0.0074        8.1097        8.1171       6.871649       0.11137
  10     361.9        1.2452        0.0079        7.6773        7.6852       6.439959       0.10922
   9     398.1        1.2450        0.0083        7.2394        7.2478       6.002817       0.10184
   8     437.6        1.2448        0.0087        6.8032        6.8119       5.567137       0.09315
   7     480.5        1.2447        0.0090        6.4031        6.4122       5.167451       0.07850
   6     533.0        1.2448        0.0094        6.0075        6.0169       4.772088       0.06360
   5     589.8        1.2453        0.0098        5.6776        5.6874       4.442134       0.04898
   4     651.6        1.2464        0.0102        5.3861        5.3964       4.149918       0.03996
   3     718.7        1.2487        0.0107        5.1041        5.1148       3.866079       0.03567
   2     792.3        1.2531        0.0112        4.7866        4.7978       3.544749       0.03685
   1     891.5        1.2635        0.0118        4.4088        4.4205       3.157006       0.03300
   0    1013.0        1.2865        0.0124        4.0863        4.0987       2.812142       0.02395



 Wavenumbers:  6150. -  7700. cm-1, ATM      1
 LEVEL PRESSURE   UPWARD FLUX   DIFDOWN FLUX  DIRDOWN FLUX  DOWNWARD FLUX   NET FLUX    HEATING RATE
          mb          W/m2          W/m2          W/m2        W/m2          W/m2       degree/day
  51    .06700        1.6460        0.0000       18.0961       18.0961      16.450058       0.00000
  50    .07753        1.6460        0.0000       18.0960       18.0960      16.450001       0.04553
  49    .09103        1.6460        0.0000       18.0959       18.0959      16.449928       0.04581
  48    0.1069        1.6460        0.0000       18.0958       18.0959      16.449841       0.04611
  47    0.1255        1.6460        0.0000       18.0957       18.0957      16.449739       0.04641
  46    0.1487        1.6460        0.0000       18.0956       18.0956      16.449606       0.04846
  45    0.1794        1.6460        0.0000       18.0954       18.0954      16.449420       0.05119
  44    0.2165        1.6460        0.0000       18.0952       18.0952      16.449193       0.05156
  43    0.2613        1.6460        0.0000       18.0949       18.0949      16.448917       0.05195
  42    0.3336        1.6460        0.0000       18.0944       18.0944      16.448450       0.05450
  41    0.4307        1.6460        0.0000       18.0938       18.0938      16.447818       0.05491
  40    0.5894        1.6460        0.0001       18.0927       18.0927      16.446767       0.05590
  39     1.339        1.6459        0.0001       18.0875       18.0876      16.441756       0.05642
  38     1.782        1.6458        0.0002       18.0845       18.0847      16.438865       0.05504
  37     2.292        1.6458        0.0002       18.0812       18.0814      16.435607       0.05396
  36     2.964        1.6457        0.0003       18.0769       18.0772      16.431484       0.05176
  35     3.853        1.6456        0.0004       18.0715       18.0719      16.426271       0.04947
  34     5.035        1.6455        0.0005       18.0646       18.0651      16.419625       0.04747
  33     6.613        1.6453        0.0007       18.0558       18.0565      16.411133       0.04539
  32     8.786        1.6451        0.0009       18.0445       18.0455      16.400331       0.04195
  31     11.80        1.6448        0.0013       18.0296       18.0309      16.386088       0.03988
  30     15.07        1.6445        0.0016       18.0150       18.0166      16.372146       0.03600
  29     18.79        1.6441        0.0020       18.0000       18.0020      16.357938       0.03221
  28     23.16        1.6437        0.0025       17.9842       17.9867      16.343045       0.02880
  27     28.12        1.6432        0.0030       17.9679       17.9709      16.327781       0.02595
  26     33.73        1.6426        0.0036       17.9517       17.9553      16.312678       0.02271
  25     40.54        1.6419        0.0043       17.9342       17.9385      16.296619       0.01992
  24     48.69        1.6411        0.0052       17.9157       17.9209      16.279773       0.01743
  23     57.69        1.6402        0.0061       17.8974       17.9036      16.263380       0.01537
  22     68.43        1.6391        0.0073       17.8776       17.8849      16.245810       0.01381
  21     81.20        1.6378        0.0086       17.8558       17.8644      16.226558       0.01272
  20     96.49        1.6363        0.0102       17.8308       17.8411      16.204787       0.01202
  19     114.6        1.6345        0.0121       17.8016       17.8137      16.179248       0.01193
  18     136.5        1.6323        0.0144       17.7664       17.7808      16.148508       0.01182
  17     162.9        1.6297        0.0171       17.7148       17.7320      16.102239       0.01479
  16     196.4        1.6264        0.0206       17.6088       17.6294      16.003014       0.02498
  15     218.7        1.6242        0.0228       17.4579       17.4807      15.856455       0.05564
  14     243.0        1.6219        0.0251       17.1531       17.1782      15.556294       0.10411
  13     269.0        1.6195        0.0274       16.6553       16.6827      15.063223       0.15995
  12     297.5        1.6170        0.0295       16.0308       16.0604      14.443325       0.18386
  11     328.5        1.6145        0.0316       15.3564       15.3880      13.773501       0.18212
  10     361.9        1.6120        0.0337       14.6013       14.6350      13.023013       0.18988
   9     398.1        1.6095        0.0356       13.7934       13.8291      12.219511       0.18720
   8     437.6        1.6072        0.0373       12.9514       12.9887      11.381536       0.17916
   7     480.5        1.6050        0.0388       12.1138       12.1526      10.547603       0.16378
   6     533.0        1.6029        0.0403       11.1881       11.2284       9.625547       0.14833
   5     589.8        1.6015        0.0415       10.2865       10.3280       8.726501       0.13345
   4     651.6        1.6018        0.0423        9.3596        9.4019       7.800113       0.12669
   3     718.7        1.6046        0.0428        8.4713        8.5141       6.909497       0.11193
   2     792.3        1.6122        0.0429        7.6251        7.6681       6.055918       0.09790
   1     891.5        1.6337        0.0430        6.6699        6.7129       5.079208       0.08311
   0    1013.0        1.6861        0.0430        5.7972        5.8402       4.154094       0.06424



 Wavenumbers:  7700. -  8050. cm-1, ATM      1
 LEVEL PRESSURE   UPWARD FLUX   DIFDOWN FLUX  DIRDOWN FLUX  DOWNWARD FLUX   NET FLUX    HEATING RATE
          mb          W/m2          W/m2          W/m2        W/m2          W/m2       degree/day
  51    .06700        2.0379        0.0000        4.2766        4.2766       2.238701       0.00000
  50    .07753        2.0379        0.0000        4.2766        4.2766       2.238682       0.01522
  49    .09103        2.0379        0.0000        4.2766        4.2766       2.238659       0.01492
  48    0.1069        2.0379        0.0000        4.2766        4.2766       2.238631       0.01460
  47    0.1255        2.0379        0.0000        4.2765        4.2765       2.238600       0.01429
  46    0.1487        2.0379        0.0000        4.2765        4.2765       2.238560       0.01450
  45    0.1794        2.0379        0.0000        4.2764        4.2765       2.238505       0.01492
  44    0.2165        2.0380        0.0000        4.2764        4.2764       2.238441       0.01463
  43    0.2613        2.0380        0.0000        4.2763        4.2763       2.238365       0.01436
  42    0.3336        2.0380        0.0000        4.2762        4.2762       2.238239       0.01469
  41    0.4307        2.0380        0.0000        4.2760        4.2760       2.238072       0.01453
  40    0.5894        2.0380        0.0000        4.2758        4.2758       2.237799       0.01451
  39     1.339        2.0380        0.0001        4.2745        4.2745       2.236509       0.01452
  38     1.782        2.0381        0.0001        4.2737        4.2738       2.235752       0.01441
  37     2.292        2.0381        0.0001        4.2729        4.2730       2.234876       0.01450
  36     2.964        2.0382        0.0001        4.2718        4.2719       2.233727       0.01442
  35     3.853        2.0382        0.0002        4.2703        4.2705       2.232212       0.01438
  34     5.035        2.0383        0.0002        4.2683        4.2685       2.230202       0.01436
  33     6.613        2.0385        0.0003        4.2657        4.2660       2.227523       0.01432
  32     8.786        2.0386        0.0004        4.2622        4.2626       2.223923       0.01398
  31     11.80        2.0389        0.0005        4.2571        4.2577       2.218798       0.01435
  30     15.07        2.0391        0.0007        4.2518        4.2525       2.213326       0.01413
  29     18.79        2.0394        0.0009        4.2458        4.2466       2.207182       0.01393
  28     23.16        2.0398        0.0010        4.2388        4.2398       2.200057       0.01378
  27     28.12        2.0402        0.0013        4.2309        4.2322       2.191977       0.01374
  26     33.73        2.0406        0.0015        4.2221        4.2236       2.183020       0.01347
  25     40.54        2.0412        0.0018        4.2117        4.2135       2.172316       0.01328
  24     48.69        2.0418        0.0022        4.1992        4.2014       2.159582       0.01318
  23     57.69        2.0426        0.0026        4.1858        4.1884       2.145802       0.01292
  22     68.43        2.0435        0.0031        4.1701        4.1731       2.129667       0.01268
  21     81.20        2.0445        0.0036        4.1517        4.1553       2.110823       0.01245
  20     96.49        2.0458        0.0043        4.1304        4.1347       2.088880       0.01211
  19     114.6        2.0473        0.0051        4.1057        4.1108       2.063482       0.01186
  18     136.5        2.0492        0.0060        4.0775        4.0835       2.034300       0.01122
  17     162.9        2.0514        0.0071        4.0450        4.0521       2.000660       0.01075
  16     196.4        2.0544        0.0086        4.0046        4.0131       1.958746       0.01055
  15     218.7        2.0564        0.0095        3.9790        3.9885       1.932082       0.01012
  14     243.0        2.0586        0.0105        3.9519        3.9624       1.903799       0.00981
  13     269.0        2.0610        0.0116        3.9233        3.9348       1.873805       0.00973
  12     297.5        2.0638        0.0128        3.8930        3.9058       1.842026       0.00943
  11     328.5        2.0668        0.0140        3.8611        3.8751       1.808288       0.00917
  10     361.9        2.0702        0.0153        3.8273        3.8426       1.772454       0.00907
   9     398.1        2.0739        0.0168        3.7914        3.8082       1.734241       0.00890
   8     437.6        2.0782        0.0183        3.7531        3.7714       1.693220       0.00877
   7     480.5        2.0831        0.0199        3.7122        3.7321       1.649053       0.00867
   6     533.0        2.0895        0.0219        3.6615        3.6835       1.593993       0.00886
   5     589.8        2.0970        0.0241        3.6057        3.6298       1.532770       0.00909
   4     651.6        2.1062        0.0263        3.5427        3.5690       1.462797       0.00957
   3     718.7        2.1175        0.0287        3.4702        3.4989       1.381360       0.01023
   2     792.3        2.1321        0.0311        3.3848        3.4159       1.283825       0.01119
   1     891.5        2.1567        0.0343        3.2539        3.2882       1.131540       0.01296
   0    1013.0        2.1951        0.0379        3.0719        3.1098       0.914726       0.01505



 Wavenumbers:  8050. - 12850. cm-1, ATM      1
 LEVEL PRESSURE   UPWARD FLUX   DIFDOWN FLUX  DIRDOWN FLUX  DOWNWARD FLUX   NET FLUX    HEATING RATE
          mb          W/m2          W/m2          W/m2        W/m2          W/m2       degree/day
  51    .06700       33.6803        0.0000       59.8761       59.8761      26.195847       0.00000
  50    .07753       33.6803        0.0000       59.8761       59.8761      26.195847      -0.00000
  49    .09103       33.6802        0.0001       59.8760       59.8761      26.195847      -0.00000
  48    0.1069       33.6802        0.0001       59.8760       59.8761      26.195847       0.00000
  47    0.1255       33.6802        0.0001       59.8759       59.8760      26.195847      -0.00000
  46    0.1487       33.6801        0.0002       59.8758       59.8760      26.195847       0.00000
  45    0.1794       33.6801        0.0003       59.8757       59.8759      26.195847      -0.00000
  44    0.2165       33.6800        0.0003       59.8755       59.8759      26.195847       0.00000
  43    0.2613       33.6800        0.0004       59.8754       59.8758      26.195847       0.00000
  42    0.3336       33.6798        0.0006       59.8751       59.8757      26.195847      -0.00000
  41    0.4307       33.6797        0.0008       59.8747       59.8755      26.195847       0.00000
  40    0.5894       33.6794        0.0012       59.8741       59.8753      26.195847      -0.00000
  39     1.339       33.6782        0.0029       59.8711       59.8740      26.195847      -0.00000
  38     1.782       33.6774        0.0039       59.8694       59.8733      26.195847       0.00000
  37     2.292       33.6766        0.0051       59.8673       59.8724      26.195847       0.00000
  36     2.964       33.6755        0.0066       59.8647       59.8713      26.195847       0.00000
  35     3.853       33.6740        0.0086       59.8612       59.8699      26.195847       0.00000
  34     5.035       33.6721        0.0113       59.8566       59.8679      26.195847      -0.00000
  33     6.613       33.6695        0.0149       59.8504       59.8653      26.195847      -0.00000
  32     8.786       33.6659        0.0198       59.8420       59.8618      26.195847       0.00000
  31     11.80       33.6609        0.0267       59.8300       59.8567      26.195847       0.00000
  30     15.07       33.6555        0.0342       59.8172       59.8513      26.195847       0.00000
  29     18.79       33.6494        0.0426       59.8026       59.8452      26.195847      -0.00000
  28     23.16       33.6422        0.0525       59.7856       59.8381      26.195847      -0.00000
  27     28.12       33.6340        0.0637       59.7661       59.8299      26.195847       0.00000
  26     33.73       33.6249        0.0764       59.7443       59.8207      26.195847       0.00000
  25     40.54       33.6138        0.0917       59.7179       59.8096      26.195847       0.00000
  24     48.69       33.6004        0.1101       59.6861       59.7962      26.195847       0.00000
  23     57.69       33.5856        0.1304       59.6511       59.7815      26.195847       0.00000
  22     68.43       33.5681        0.1546       59.6093       59.7639      26.195847      -0.00000
  21     81.20       33.5471        0.1835       59.5595       59.7430      26.195847       0.00000
  20     96.49       33.5221        0.2179       59.5000       59.7180      26.195847      -0.00000
  19     114.6       33.4925        0.2589       59.4234       59.6823      26.189798       0.00282
  18     136.5       33.4573        0.3074       59.3322       59.6396      26.182344       0.00287
  17     162.9       33.4153        0.3653       59.2200       59.5853      26.170072       0.00392
  16     196.4       33.3608        0.4405       59.0594       59.4999      26.139134       0.00779
  15     218.7       33.3250        0.4898       58.9190       59.4089      26.083872       0.02098
  14     243.0       33.2862        0.5434       58.7074       59.2508      25.964550       0.04138
  13     269.0       33.2445        0.6011       58.4023       59.0034      25.758907       0.06671
  12     297.5       33.2001        0.6631       58.0009       58.6639      25.463814       0.08752
  11     328.5       33.1529        0.7296       57.5121       58.2417      25.088828       0.10196
  10     361.9       33.1033        0.8006       56.9077       57.7083      24.604996       0.12241
   9     398.1       33.0517        0.8761       56.1661       57.0422      23.990530       0.14316
   8     437.6       32.9990        0.9557       55.2583       56.2140      23.214966       0.16582
   7     480.5       32.9464        1.0392       54.1814       55.2205      22.274153       0.18477
   6     533.0       32.8887        1.1389       52.7401       53.8790      20.990306       0.20653
   5     589.8       32.8389        1.2418       51.0488       52.2906      19.451705       0.22838
   4     651.6       32.8101        1.3453       48.9639       50.3092      17.499097       0.26702
   3     718.7       32.8185        1.4480       46.5266       47.9746      15.156054       0.29446
   2     792.3       32.8984        1.5466       43.7387       45.2853      12.386879       0.31759
   1     891.5       33.1795        1.6609       40.0387       41.6997       8.520197       0.32904
   0    1013.0       33.8953        1.7775       36.0907       37.8682       3.972890       0.31574



 Wavenumbers: 12850. - 16000. cm-1, ATM      1
 LEVEL PRESSURE   UPWARD FLUX   DIFDOWN FLUX  DIRDOWN FLUX  DOWNWARD FLUX   NET FLUX    HEATING RATE
          mb          W/m2          W/m2          W/m2        W/m2          W/m2       degree/day
  51    .06700       28.5002        0.0000       37.5177       37.5177       9.017486       0.00000
  50    .07753       28.5002        0.0001       37.5168       37.5169       9.016713       0.62021
  49    .09103       28.5001        0.0001       37.5158       37.5159       9.015759       0.59592
  48    0.1069       28.5001        0.0002       37.5146       37.5148       9.014688       0.57030
  47    0.1255       28.5000        0.0003       37.5132       37.5135       9.013487       0.54443
  46    0.1487       28.5000        0.0004       37.5116       37.5120       9.012014       0.53681
  45    0.1794       28.4999        0.0006       37.5094       37.5100       9.010078       0.53156
  44    0.2165       28.4998        0.0007       37.5070       37.5077       9.007893       0.49712
  43    0.2613       28.4998        0.0010       37.5042       37.5052       9.005440       0.46227
  42    0.3336       28.4996        0.0013       37.5000       37.5013       9.001665       0.44014
  41    0.4307       28.4995        0.0018       37.4948       37.4966       8.997133       0.39407
  40    0.5894       28.4993        0.0026       37.4873       37.4899       8.990552       0.34997
  39     1.339       28.4995        0.0063       37.4561       37.4624       8.962918       0.31110
  38     1.782       28.5003        0.0085       37.4370       37.4455       8.945141       0.33845
  37     2.292       28.5020        0.0110       37.4123       37.4233       8.921345       0.39413
  36     2.964       28.5052        0.0144       37.3754       37.3897       8.884566       0.46168
  35     3.853       28.5108        0.0187       37.3201       37.3388       8.827988       0.53694
  34     5.035       28.5198        0.0245       37.2404       37.2650       8.745192       0.59146
  33     6.613       28.5324        0.0323       37.1317       37.1639       8.631480       0.60791
  32     8.786       28.5488        0.0427       36.9907       37.0333       8.484550       0.57062
  31     11.80       28.5694        0.0574       36.8057       36.8632       8.293775       0.53411
  30     15.07       28.5882        0.0733       36.6261       36.6994       8.111136       0.47154
  29     18.79       28.6066        0.0911       36.4406       36.5316       7.925065       0.42188
  28     23.16       28.6247        0.1117       36.2436       36.3554       7.730729       0.37578
  27     28.12       28.6414        0.1353       36.0409       36.1762       7.534766       0.33312
  26     33.73       28.6545        0.1616       35.8440       36.0056       7.351040       0.27624
  25     40.54       28.6638        0.1932       35.6400       35.8332       7.169350       0.22541
  24     48.69       28.6688        0.2311       35.4269       35.6580       6.989222       0.18640
  23     57.69       28.6681        0.2726       35.2234       35.4960       6.827952       0.15117
  22     68.43       28.6606        0.3219       35.0126       35.3346       6.673923       0.12109
  21     81.20       28.6428        0.3805       34.8024       35.1829       6.540139       0.08840
  20     96.49       28.6131        0.4501       34.5883       35.0384       6.425296       0.06339
  19     114.6       28.5800        0.5332       34.3469       34.8801       6.300073       0.05847
  18     136.5       28.5369        0.6311       34.0733       34.7044       6.167505       0.05098
  17     162.9       28.4820        0.7471       33.7591       34.5062       6.024187       0.04581
  16     196.4       28.4032        0.8966       33.3787       34.2753       5.872112       0.03828
  15     218.7       28.3489        0.9943       33.1395       34.1337       5.784857       0.03313
  14     243.0       28.2887        1.0999       32.8843       33.9842       5.695536       0.03098
  13     269.0       28.2225        1.2139       32.6124       33.8263       5.603800       0.02976
  12     297.5       28.1503        1.3364       32.3214       33.6578       5.507575       0.02854
  11     328.5       28.0722        1.4681       32.0076       33.4757       5.403469       0.02831
  10     361.9       27.9886        1.6091       31.6686       33.2777       5.289089       0.02894
   9     398.1       27.8993        1.7598       31.3014       33.0612       5.161887       0.02964
   8     437.6       27.8049        1.9205       30.9004       32.8209       5.016009       0.03119
   7     480.5       27.7058        2.0913       30.4634       32.5547       4.848965       0.03281
   6     533.0       27.5878        2.2994       29.9133       32.2127       4.624872       0.03605
   5     589.8       27.4678        2.5209       29.2997       31.8206       4.352737       0.04039
   4     651.6       27.3527        2.7550       28.5952       31.3502       3.997523       0.04858
   3     718.7       27.2473        2.9995       27.8079       30.8075       3.560192       0.05496
   2     792.3       27.1665        3.2511       26.9100       30.1611       2.994599       0.06487
   1     891.5       27.1302        3.5712       25.6017       29.1729       2.042684       0.08100
   0    1013.0       27.2170        3.9257       23.9517       27.8775       0.660413       0.09598



 Wavenumbers: 16000. - 22650. cm-1, ATM      1
 LEVEL PRESSURE   UPWARD FLUX   DIFDOWN FLUX  DIRDOWN FLUX  DOWNWARD FLUX   NET FLUX    HEATING RATE
          mb          W/m2          W/m2          W/m2        W/m2          W/m2       degree/day
  51    .06700       50.2811        0.0000       59.8178       59.8178       9.536703       0.00000
  50    .07753       50.2809        0.0003       59.8172       59.8175       9.536598       0.08430
  49    .09103       50.2807        0.0007       59.8165       59.8172       9.536445       0.09561
  48    0.1069       50.2805        0.0011       59.8156       59.8167       9.536240       0.10903
  47    0.1255       50.2802        0.0016       59.8146       59.8162       9.535966       0.12427
  46    0.1487       50.2799        0.0022       59.8133       59.8155       9.535562       0.14726
  45    0.1794       50.2795        0.0031       59.8114       59.8144       9.534930       0.17339
  44    0.2165       50.2791        0.0041       59.8090       59.8131       9.534074       0.19486
  43    0.2613       50.2785        0.0053       59.8062       59.8115       9.532912       0.21907
  42    0.3336       50.2778        0.0073       59.8012       59.8085       9.530702       0.25761
  41    0.4307       50.2768        0.0099       59.7943       59.8042       9.527372       0.28956
  40    0.5894       50.2754        0.0142       59.7822       59.7964       9.521021       0.33772
  39     1.339       50.2725        0.0346       59.7120       59.7466       9.474126       0.52795
  38     1.782       50.2733        0.0465       59.6610       59.7075       9.434208       0.75997
  37     2.292       50.2767        0.0603       59.5929       59.6532       9.376474       0.95623
  36     2.964       50.2850        0.0784       59.4896       59.5681       9.283056       1.17267
  35     3.853       50.3012        0.1023       59.3340       59.4363       9.135102       1.40412
  34     5.035       50.3279        0.1339       59.1089       59.2428       8.914981       1.57245
  33     6.613       50.3663        0.1760       58.8005       58.9765       8.610283       1.62891
  32     8.786       50.4154        0.2325       58.3988       58.6313       8.215892       1.53167
  31     11.80       50.4758        0.3128       57.8679       58.1807       7.704867       1.43071
  30     15.07       50.5291        0.3984       57.3477       57.7462       7.217081       1.25937
  29     18.79       50.5790        0.4946       56.8055       57.3000       6.721036       1.12469
  28     23.16       50.6254        0.6060       56.2235       56.8295       6.204088       0.99961
  27     28.12       50.6648        0.7326       55.6165       56.3491       5.684320       0.88357
  26     33.73       50.6888        0.8731       55.0160       55.8891       5.200306       0.72773
  25     40.54       50.6949        1.0417       54.3792       55.4210       4.726059       0.58836
  24     48.69       50.6803        1.2433       53.6977       54.9411       4.260766       0.48151
  23     57.69       50.6432        1.4629       53.0311       54.4940       3.850776       0.38430
  22     68.43       50.5766        1.7220       52.3239       54.0459       3.469307       0.29989
  21     81.20       50.4664        2.0278       51.5951       53.6229       3.156533       0.20668
  20     96.49       50.3073        2.3886       50.8320       53.2206       2.913215       0.13429
  19     114.6       50.1068        2.8113       49.9869       52.7981       2.691333       0.10360
  18     136.5       49.8631        3.3044       49.0339       52.3383       2.475170       0.08312
  17     162.9       49.5696        3.8808       47.9498       51.8307       2.261003       0.06846
  16     196.4       49.1782        4.6121       46.6370       51.2490       2.070841       0.04787
  15     218.7       48.9193        5.0826       45.8149       50.8975       1.978214       0.03517
  14     243.0       48.6394        5.5856       44.9467       50.5323       1.892954       0.02957
  13     269.0       48.3381        6.1209       44.0336       50.1545       1.816403       0.02483
  12     297.5       48.0155        6.6883       43.0759       49.7641       1.748661       0.02009
  11     328.5       47.6725        7.2886       42.0673       49.3560       1.683432       0.01774
  10     361.9       47.3100        7.9206       41.0102       48.9308       1.620797       0.01585
   9     398.1       46.9278        8.5845       39.9036       48.4880       1.560250       0.01411
   8     437.6       46.5269        9.2791       38.7478       48.0270       1.500055       0.01287
   7     480.5       46.1081       10.0034       37.5448       47.5482       1.440134       0.01177
   6     533.0       45.6077       10.8674       36.1103       46.9777       1.369982       0.01129
   5     589.8       45.0882       11.7644       34.6179       46.3823       1.294063       0.01127
   4     651.6       44.5527       12.6919       33.0657       45.7576       1.204899       0.01219
   3     718.7       44.0052       13.6451       31.4571       45.1022       1.097047       0.01355
   2     792.3       43.4529       14.6175       29.7924       44.4099       0.956921       0.01607
   1     891.5       42.7673       15.8538       27.6272       43.4810       0.713723       0.02070
   0    1013.0       42.0350       17.2243       25.1722       42.3965       0.361433       0.02446



 Wavenumbers: 22650. - 29000. cm-1, ATM      1
 LEVEL PRESSURE   UPWARD FLUX   DIFDOWN FLUX  DIRDOWN FLUX  DOWNWARD FLUX   NET FLUX    HEATING RATE
          mb          W/m2          W/m2          W/m2        W/m2          W/m2       degree/day
  51    .06700       22.4765        0.0000       22.5731       22.5731       0.096591       0.00000
  50    .07753       22.4763        0.0003       22.5725       22.5729       0.096591       0.00000
  49    .09103       22.4760        0.0008       22.5718       22.5726       0.096591      -0.00000
  48    0.1069       22.4757        0.0013       22.5710       22.5723       0.096591       0.00000
  47    0.1255       22.4754        0.0019       22.5701       22.5720       0.096591       0.00000
  46    0.1487       22.4749        0.0026       22.5689       22.5715       0.096591      -0.00000
  45    0.1794       22.4744        0.0036       22.5674       22.5709       0.096591       0.00000
  44    0.2165       22.4737        0.0048       22.5655       22.5703       0.096591       0.00000
  43    0.2613       22.4728        0.0062       22.5633       22.5694       0.096591      -0.00000
  42    0.3336       22.4715        0.0085       22.5596       22.5681       0.096591       0.00000
  41    0.4307       22.4697        0.0115       22.5548       22.5663       0.096591       0.00000
  40    0.5894       22.4667        0.0165       22.5468       22.5633       0.096591       0.00000
  39     1.339       22.4528        0.0402       22.5093       22.5494       0.096591      -0.00000
  38     1.782       22.4447        0.0540       22.4873       22.5413       0.096591       0.00000
  37     2.292       22.4353        0.0701       22.4618       22.5319       0.096591      -0.00000
  36     2.964       22.4229        0.0911       22.4284       22.5195       0.096591       0.00000
  35     3.853       22.4066        0.1188       22.3844       22.5032       0.096591      -0.00000
  34     5.035       22.3850        0.1556       22.3259       22.4815       0.096591       0.00000
  33     6.613       22.3561        0.2046       22.2481       22.4527       0.096591       0.00000
  32     8.786       22.3174        0.2704       22.1436       22.4140       0.096591      -0.00000
  31     11.80       22.2624        0.3640       21.9949       22.3590       0.096591       0.00000
  30     15.07       22.2036        0.4639       21.8363       22.3002       0.096591       0.00000
  29     18.79       22.1377        0.5759       21.6584       22.2343       0.096591      -0.00000
  28     23.16       22.0614        0.7057       21.4524       22.1580       0.096591       0.00000
  27     28.12       21.9750        0.8526       21.2190       22.0716       0.096591      -0.00000
  26     33.73       21.8794        1.0152       20.9608       21.9760       0.096591       0.00000
  25     40.54       21.7653        1.2090       20.6529       21.8619       0.096591      -0.00000
  24     48.69       21.6301        1.4390       20.2877       21.7267       0.096591       0.00000
  23     57.69       21.4842        1.6869       19.8939       21.5808       0.096591       0.00000
  22     68.43       21.3142        1.9759       19.4349       21.4108       0.096591      -0.00000
  21     81.20       21.1168        2.3114       18.9020       21.2134       0.096591       0.00000
  20     96.49       20.8887        2.6990       18.2863       20.9853       0.096591       0.00000
  19     114.6       20.6278        3.1424       17.5820       20.7244       0.096591       0.00000
  18     136.5       20.3316        3.6456       16.7826       20.4282       0.096591      -0.00000
  17     162.9       19.9967        4.2143       15.8790       20.0933       0.096591       0.00000
  16     196.4       19.5897        4.9056       14.7806       19.6863       0.096591      -0.00000
  15     218.7       19.3383        5.3324       14.1024       19.4349       0.096591       0.00000
  14     243.0       19.0785        5.7734       13.4017       19.1751       0.096591       0.00000
  13     269.0       18.8117        6.2262       12.6821       18.9083       0.096591      -0.00000
  12     297.5       18.5399        6.6874       11.9491       18.6365       0.096591      -0.00000
  11     328.5       18.2638        7.1556       11.2047       18.3604       0.096591       0.00000
  10     361.9       17.9859        7.6268       10.4557       18.0825       0.096591       0.00000
   9     398.1       17.7078        8.0981        9.7064       17.8044       0.096591      -0.00000
   8     437.6       17.4314        8.5662        8.9618       17.5280       0.096591       0.00000
   7     480.5       17.1586        9.0281        8.2270       17.2552       0.096591       0.00000
   6     533.0       16.8531        9.5448        7.4048       16.9497       0.096591       0.00000
   5     589.8       16.5579       10.0437        6.6108       16.6545       0.096591      -0.00000
   4     651.6       16.2750       10.5213        5.8503       16.3716       0.096591       0.00000
   3     718.7       16.0070       10.9730        5.1306       16.1036       0.096591      -0.00000
   2     792.3       15.7559       11.3957        4.4568       15.8525       0.096591       0.00000
   1     891.5       15.4670       11.8805        3.6831       15.5636       0.096591       0.00000
   0    1013.0       15.1839       12.3540        2.9265       15.2805       0.096591       0.00000



 Wavenumbers: 29000. - 38000. cm-1, ATM      1
 LEVEL PRESSURE   UPWARD FLUX   DIFDOWN FLUX  DIRDOWN FLUX  DOWNWARD FLUX   NET FLUX    HEATING RATE
          mb          W/m2          W/m2          W/m2        W/m2          W/m2       degree/day
  51    .06700        2.9922        0.0000        7.9602        7.9602       4.968018       0.00000
  50    .07753        2.9919        0.0003        7.9559        7.9562       4.964227       3.03874
  49    .09103        2.9917        0.0006        7.9497        7.9504       4.958727       3.43750
  48    0.1069        2.9913        0.0010        7.9417        7.9427       4.951393       3.90391
  47    0.1255        2.9909        0.0015        7.9311        7.9326       4.941635       4.42363
  46    0.1487        2.9905        0.0021        7.9158        7.9179       4.927382       5.19534
  45    0.1794        2.9898        0.0029        7.8924        7.8953       4.905420       6.02921
  44    0.2165        2.9891        0.0038        7.8615        7.8653       4.876258       6.63382
  43    0.2613        2.9882        0.0049        7.8211        7.8261       4.837825       7.24455
  42    0.3336        2.9868        0.0067        7.7483        7.7550       4.768178       8.12008
  41    0.4307        2.9851        0.0090        7.6473        7.6563       4.671221       8.43024
  40    0.5894        2.9823        0.0126        7.4789        7.4915       4.509220       8.61499
  39     1.339        2.9717        0.0274        6.7697        6.7971       3.825422       7.69833
  38     1.782        2.9667        0.0348        6.4617        6.4965       3.529834       5.62751
  37     2.292        2.9619        0.0428        6.1653        6.2082       3.246278       4.69644
  36     2.964        2.9569        0.0526        5.8405        5.8931       2.936188       3.89256
  35     3.853        2.9521        0.0644        5.4960        5.5604       2.608361       3.11114
  34     5.035        2.9475        0.0790        5.1482        5.2273       2.279803       2.34709
  33     6.613        2.9429        0.0973        4.8119        4.9092       1.966275       1.67612
  32     8.786        2.9377        0.1206        4.4930        4.6136       1.675910       1.12767
  31     11.80        2.9303        0.1520        4.1736        4.3256       1.395327       0.78554
  30     15.07        2.9222        0.1839        3.9229        4.1068       1.184587       0.54409
  29     18.79        2.9131        0.2180        3.7028        3.9208       1.007678       0.40111
  28     23.16        2.9024        0.2560        3.4983        3.7543       0.851854       0.30131
  27     28.12        2.8899        0.2973        3.3094        3.6067       0.716799       0.22958
  26     33.73        2.8746        0.3417        3.1386        3.4804       0.605730       0.16700
  25     40.54        2.8547        0.3933        2.9693        3.3626       0.507882       0.12139
  24     48.69        2.8298        0.4527        2.7977        3.2505       0.420649       0.09027
  23     57.69        2.8018        0.5150        2.6366        3.1517       0.349842       0.06637
  22     68.43        2.7680        0.5855        2.4712        3.0567       0.288688       0.04808
  21     81.20        2.7266        0.6653        2.3031        2.9684       0.241796       0.03099
  20     96.49        2.6771        0.7549        2.1297        2.8846       0.207509       0.01892
  19     114.6        2.6216        0.8533        1.9466        2.7999       0.178265       0.01366
  18     136.5        2.5610        0.9596        1.7529        2.7125       0.151475       0.01030
  17     162.9        2.4960        1.0728        1.5498        2.6226       0.126590       0.00795
  16     196.4        2.4208        1.2015        1.3252        2.5267       0.105907       0.00521
  15     218.7        2.3768        1.2759        1.1972        2.4731       0.096290       0.00365
  14     243.0        2.3334        1.3491        1.0721        2.4211       0.087703       0.00298
  13     269.0        2.2912        1.4198        0.9516        2.3715       0.080257       0.00242
  12     297.5        2.2506        1.4876        0.8369        2.3245       0.073906       0.00188
  11     328.5        2.2120        1.5516        0.7284        2.2800       0.068021       0.00160
  10     361.9        2.1759        1.6113        0.6271        2.2384       0.062589       0.00137
   9     398.1        2.1424        1.6664        0.5336        2.2000       0.057583       0.00117
   8     437.6        2.1119        1.7163        0.4484        2.1648       0.052878       0.00101
   7     480.5        2.0844        1.7610        0.3719        2.1329       0.048509       0.00086
   6     533.0        2.0568        1.8056        0.2951        2.1007       0.043842       0.00075
   5     589.8        2.0333        1.8431        0.2296        2.0727       0.039401       0.00066
   4     651.6        2.0138        1.8740        0.1749        2.0489       0.035110       0.00059
   3     718.7        1.9981        1.8986        0.1304        2.0290       0.030943       0.00052
   2     792.3        1.9857        1.9177        0.0948        2.0125       0.026883       0.00047
   1     891.5        1.9743        1.9348        0.0614        1.9962       0.021877       0.00043
   0    1013.0        1.9664        1.9466        0.0361        1.9827       0.016344       0.00038



 Wavenumbers: 38000. - 50000. cm-1, ATM      1
 LEVEL PRESSURE   UPWARD FLUX   DIFDOWN FLUX  DIRDOWN FLUX  DOWNWARD FLUX   NET FLUX    HEATING RATE
          mb          W/m2          W/m2          W/m2        W/m2          W/m2       degree/day
  51    .06700        0.0040        0.0000        0.4910        0.4910       0.486966       0.00000
  50    .07753        0.0040        0.0001        0.4885        0.4886       0.484638       1.86603
  49    .09103        0.0039        0.0002        0.4851        0.4852       0.481330       2.06753
  48    0.1069        0.0038        0.0002        0.4805        0.4808       0.477009       2.30025
  47    0.1255        0.0037        0.0004        0.4747        0.4751       0.471373       2.55491
  46    0.1487        0.0036        0.0005        0.4664        0.4669       0.463310       2.93916
  45    0.1794        0.0034        0.0007        0.4539        0.4546       0.451152       3.33778
  44    0.2165        0.0032        0.0009        0.4378        0.4387       0.435417       3.57928
  43    0.2613        0.0030        0.0011        0.4173        0.4184       0.415321       3.78810
  42    0.3336        0.0027        0.0014        0.3817        0.3831       0.380400       4.07140
  41    0.4307        0.0024        0.0018        0.3355        0.3373       0.334891       3.95694
  40    0.5894        0.0019        0.0022        0.2665        0.2687       0.266807       3.62059
  39     1.339        0.0008        0.0024        0.0834        0.0858       0.084977       2.04707
  38     1.782        0.0005        0.0021        0.0479        0.0500       0.049494       0.67554
  37     2.292        0.0003        0.0017        0.0275        0.0292       0.028865       0.34167
  36     2.964        0.0002        0.0013        0.0145        0.0158       0.015605       0.16645
  35     3.853        0.0001        0.0010        0.0070        0.0080       0.007861       0.07350
  34     5.035        0.0000        0.0007        0.0029        0.0035       0.003505       0.03111
  33     6.613        0.0000        0.0004        0.0009        0.0014       0.001359       0.01147
  32     8.786        0.0000        0.0003        0.0002        0.0005       0.000494       0.00336
  31     11.80        0.0000        0.0001        0.0000        0.0002       0.000174       0.00089
  30     15.07        0.0000        0.0001        0.0000        0.0001       0.000077       0.00025
  29     18.79        0.0000        0.0000        0.0000        0.0000       0.000037       0.00009
  28     23.16        0.0000        0.0000        0.0000        0.0000       0.000018       0.00004
  27     28.12        0.0000        0.0000        0.0000        0.0000       0.000008       0.00002
  26     33.73        0.0000        0.0000        0.0000        0.0000       0.000004       0.00001
  25     40.54        0.0000        0.0000        0.0000        0.0000       0.000002       0.00000
  24     48.69        0.0000        0.0000        0.0000        0.0000       0.000001       0.00000
  23     57.69        0.0000        0.0000        0.0000        0.0000       0.000000       0.00000
  22     68.43        0.0000        0.0000        0.0000        0.0000       0.000000       0.00000
  21     81.20        0.0000        0.0000        0.0000        0.0000       0.000000       0.00000
  20     96.49        0.0000        0.0000        0.0000        0.0000       0.000000       0.00000
  19     114.6        0.0000        0.0000        0.0000        0.0000       0.000000       0.00000
  18     136.5        0.0000        0.0000        0.0000        0.0000       0.000000       0.00000
  17     162.9        0.0000        0.0000        0.0000        0.0000       0.000000       0.00000
  16     196.4        0.0000        0.0000        0.0000        0.0000       0.000000       0.00000
  15     218.7        0.0000        0.0000        0.0000        0.0000       0.000000       0.00000
  14     243.0        0.0000        0.0000        0.0000        0.0000       0.000000       0.00000
  13     269.0        0.0000        0.0000        0.0000        0.0000       0.000000       0.00000
  12     297.5        0.0000        0.0000        0.0000        0.0000       0.000000       0.00000
  11     328.5        0.0000        0.0000        0.0000        0.0000       0.000000       0.00000
  10     361.9        0.0000        0.0000        0.0000        0.0000       0.000000       0.00000
   9     398.1        0.0000        0.0000        0.0000        0.0000       0.000000       0.00000
   8     437.6        0.0000        0.0000        0.0000        0.0000       0.000000       0.00000
   7     480.5        0.0000        0.0000        0.0000        0.0000       0.000000       0.00000
   6     533.0        0.0000        0.0000        0.0000        0.0000       0.000000       0.00000
   5     589.8        0.0000        0.0000        0.0000        0.0000       0.000000       0.00000
   4     651.6        0.0000        0.0000        0.0000        0.0000       0.000000       0.00000
   3     718.7        0.0000        0.0000        0.0000        0.0000       0.000000       0.00000
   2     792.3        0.0000        0.0000        0.0000        0.0000       0.000000       0.00000
   1     891.5        0.0000        0.0000        0.0000        0.0000       0.000000       0.00000
   0    1013.0        0.0000        0.0000        0.0000        0.0000       0.000000       0.00000



 Wavenumbers:   820. -  2600. cm-1, ATM      1
 LEVEL PRESSURE   UPWARD FLUX   DIFDOWN FLUX  DIRDOWN FLUX  DOWNWARD FLUX   NET FLUX    HEATING RATE
          mb          W/m2          W/m2          W/m2        W/m2          W/m2       degree/day
  51    .06700        0.0050        0.0000        2.2967        2.2967       2.291699       0.00000
  50    .07753        0.0050        0.0000        2.2949        2.2949       2.289826       1.50069
  49    .09103        0.0050        0.0000        2.2941        2.2941       2.289077       0.46844
  48    0.1069        0.0050        0.0000        2.2933        2.2933       2.288307       0.40970
  47    0.1255        0.0050        0.0000        2.2926        2.2926       2.287532       0.35168
  46    0.1487        0.0050        0.0000        2.2917        2.2917       2.286685       0.30870
  45    0.1794        0.0050        0.0000        2.2907        2.2907       2.285694       0.27182
  44    0.2165        0.0050        0.0000        2.2897        2.2897       2.284646       0.23852
  43    0.2613        0.0050        0.0000        2.2885        2.2885       2.283458       0.22384
  42    0.3336        0.0050        0.0000        2.2865        2.2865       2.281502       0.22809
  41    0.4307        0.0050        0.0000        2.2839        2.2839       2.278904       0.22592
  40    0.5894        0.0050        0.0000        2.2798        2.2798       2.274717       0.22264
  39     1.339        0.0050        0.0000        2.2613        2.2613       2.256242       0.20800
  38     1.782        0.0050        0.0000        2.2513        2.2513       2.246283       0.18961
  37     2.292        0.0050        0.0000        2.2407        2.2407       2.235699       0.17529
  36     2.964        0.0050        0.0000        2.2281        2.2281       2.223052       0.15877
  35     3.853        0.0050        0.0000        2.2127        2.2127       2.207713       0.14557
  34     5.035        0.0050        0.0000        2.1941        2.1941       2.189109       0.13290
  33     6.613        0.0050        0.0000        2.1726        2.1726       2.167599       0.11499
  32     8.786        0.0050        0.0000        2.1500        2.1500       2.144960       0.08792
  31     11.80        0.0050        0.0000        2.1279        2.1279       2.122908       0.06174
  30     15.07        0.0050        0.0000        2.1118        2.1118       2.106731       0.04176
  29     18.79        0.0050        0.0000        2.0970        2.0970       2.091918       0.03359
  28     23.16        0.0050        0.0000        2.0809        2.0809       2.075908       0.03096
  27     28.12        0.0050        0.0000        2.0632        2.0632       2.058196       0.03011
  26     33.73        0.0050        0.0000        2.0444        2.0444       2.039371       0.02830
  25     40.54        0.0050        0.0000        2.0230        2.0230       2.017967       0.02655
  24     48.69        0.0050        0.0000        1.9992        1.9992       1.994184       0.02461
  23     57.69        0.0050        0.0000        1.9751        1.9751       1.970046       0.02263
  22     68.43        0.0050        0.0000        1.9488        1.9488       1.943817       0.02062
  21     81.20        0.0050        0.0000        1.9210        1.9210       1.915939       0.01842
  20     96.49        0.0050        0.0000        1.8916        1.8916       1.886617       0.01618
  19     114.6        0.0050        0.0000        1.8611        1.8611       1.856045       0.01428
  18     136.5        0.0050        0.0000        1.8300        1.8300       1.824989       0.01194
  17     162.9        0.0050        0.0000        1.7959        1.7960       1.790944       0.01088
  16     196.4        0.0050        0.0000        1.7511        1.7511       1.746078       0.01129
  15     218.7        0.0050        0.0000        1.7145        1.7145       1.709476       0.01390
  14     243.0        0.0050        0.0000        1.6615        1.6615       1.656483       0.01838
  13     269.0        0.0050        0.0000        1.5845        1.5845       1.579514       0.02497
  12     297.5        0.0050        0.0000        1.4726        1.4726       1.467580       0.03320
  11     328.5        0.0050        0.0000        1.3542        1.3542       1.349199       0.03219
  10     361.9        0.0050        0.0000        1.2503        1.2504       1.245352       0.02627
   9     398.1        0.0050        0.0000        1.1728        1.1728       1.167775       0.01807
   8     437.6        0.0050        0.0000        1.1136        1.1136       1.108568       0.01266
   7     480.5        0.0050        0.0000        1.0600        1.0600       1.054956       0.01053
   6     533.0        0.0050        0.0000        0.9948        0.9948       0.989795       0.01048
   5     589.8        0.0051        0.0000        0.9243        0.9244       0.919301       0.01046
   4     651.6        0.0051        0.0000        0.8466        0.8467       0.841541       0.01063
   3     718.7        0.0052        0.0000        0.7658        0.7658       0.760618       0.01017
   2     792.3        0.0054        0.0000        0.6691        0.6692       0.663798       0.01110
   1     891.5        0.0058        0.0000        0.5122        0.5122       0.506471       0.01339
   0    1013.0        0.0067        0.0000        0.3185        0.3186       0.311891       0.01351

  Modules and versions used in this calculation:

       rrtmg_sw.1col.f90:  $Revision$                    rrtmg_sw_init.f90:  $Revision$        
     rrtmgsw_cldprop.f90:  $Revision$                  rrtmgsw_cldprmc.f90:  NOT USED          
     rrtmg_sw_reftra.f90:  $Revision$                  rrtmg_sw_spcvrt.f90:  NOT USED          
     rrtmg_sw_spcvmc.f90:  NOT USED                    rrtmgsw_setcoef.f90:  NOT USED          
     rrtmg_sw_taumol.f90:  $Revision$                  rrtmg_sw_vrtqdr.f90:  NOT USED          
                rrtatm.f:  NOT USED                             util_xxx.f:  NOT USED          
                 extra.f:  NOT USED                       rrtmg_sw_k_g.f90:  $Revision$        

