

 Wavenumbers:   820. - 50000. cm-1, ATM      1
 LEVEL PRESSURE   UPWARD FLUX   DIFDOWN FLUX  DIRDOWN FLUX  DOWNWARD FLUX   NET FLUX    HEATING RATE
          mb          W/m2          W/m2          W/m2        W/m2          W/m2       degree/day
  51    .06700      664.6517        0.0000     1042.4709     1042.4709     377.819262       0.00000
  50    .07753      664.6517        0.0017     1042.4505     1042.4522     377.800499      15.03885
  49    .09103      664.6517        0.0037     1042.4320     1042.4358     377.784036      10.28986
  48    0.1069      664.6518        0.0061     1042.4110     1042.4172     377.765330       9.95737
  47    0.1255      664.6520        0.0089     1042.3858     1042.3946     377.742637      10.28759
  46    0.1487      664.6524        0.0123     1042.3515     1042.3638     377.711427      11.37653
  45    0.1794      664.6530        0.0170     1042.3009     1042.3180     377.665017      12.74058
  44    0.2165      664.6539        0.0226     1042.2360     1042.2586     377.604726      13.71526
  43    0.2613      664.6552        0.0292     1042.1521     1042.1813     377.526056      14.82888
  42    0.3336      664.6580        0.0401     1042.0005     1042.0406     377.382626      16.72255
  41    0.4307      664.6624        0.0544     1041.7840     1041.8384     377.176056      17.96082
  40    0.5894      664.6712        0.0777     1041.3977     1041.4754     376.804271      19.77106
  39     1.339      664.7429        0.1841     1039.1756     1039.3598     374.616874      24.62611
  38     1.782      664.8065        0.2444     1037.8231     1038.0675     373.261016      25.81336
  37     2.292      664.8997        0.3132     1036.3812     1036.6944     371.794674      24.28645
  36     2.964      665.0520        0.4026     1034.7656     1035.1682     370.116140      21.07067
  35     3.853      665.2951        0.5201     1033.0468     1033.5669     368.271818      17.50296
  34     5.035      665.6592        0.6754     1031.2499     1031.9253     366.266128      14.32781
  33     6.613      666.1673        0.8822     1029.3665     1030.2487     364.081371      11.67971
  32     8.786      666.8324        1.1601     1027.3830     1028.5432     361.710824       9.20635
  31     11.80      667.7071        1.5565     1025.1486     1026.7051     358.998045       7.59492
  30     15.07      668.5573        1.9809     1023.1785     1025.1595     356.602168       6.18569
  29     18.79      669.4385        2.4592     1021.2576     1023.7168     354.278261       5.26901
  28     23.16      670.3764        3.0166     1019.2885     1022.3051     351.928634       4.54342
  27     28.12      671.3418        3.6527     1017.2956     1020.9483     349.606478       3.94751
  26     33.73      672.2641        4.3642     1015.3444     1019.7086     347.444548       3.25052
  25     40.54      673.1929        5.2233     1013.2678     1018.4911     345.298128       2.66288
  24     48.69      674.1322        6.2578     1011.0235     1017.2813     343.149104       2.22390
  23     57.69      674.9875        7.3928     1008.7896     1016.1824     341.194940       1.83173
  22     68.43      675.8126        8.7428     1006.3599     1015.1027     339.290145       1.49742
  21     81.20      676.5238       10.3507     1003.7502     1014.1009     337.577134       1.13193
  20     96.49      677.1155       12.2644     1000.8952     1013.1595     336.044061       0.84615
  19     114.6      677.7088       14.5281      997.6356     1012.1637     334.454883       0.74203
  18     136.5      678.3193       17.1945      993.8942     1011.0887     332.769392       0.64811
  17     162.9      678.9625       20.3539      989.5120     1009.8658     330.903361       0.59646
  16     196.4      679.6066       24.4071      983.8102     1008.2173     328.610634       0.57711
  15     218.7      679.9604       27.0482      979.6563     1006.7044     326.744000       0.70869
  14     243.0      680.3139       29.8990      974.5156     1004.4146     324.100680       0.91679
  13     269.0      680.6658       32.9655      968.0356     1001.0010     320.335238       1.22149
  12     297.5      681.0196       36.2527      960.0381      996.2908     315.271241       1.50193
  11     328.5      681.3941       39.7737      951.2558      991.0295     309.635414       1.53237
  10     361.9      681.7944       43.5291      941.7786      985.3077     303.513326       1.54895
   9     398.1      682.2306       47.5308      931.3462      978.8770     296.646378       1.59984
   8     437.6      682.7214       51.7815      919.6553      971.4369     288.715488       1.69567
   7     480.5      683.2837       56.2868      906.8347      963.1215     279.837795       1.74355
   6     533.0      684.0555       61.7610      890.8800      952.6410     268.585467       1.81014
   5     589.8      685.0496       67.5756      873.3127      940.8883     255.838751       1.89203
   4     651.6      686.4714       73.7278      853.1997      926.9274     240.456034       2.10363
   3     718.7      688.5521       80.2154      831.2008      911.4162     222.864158       2.21081
   2     792.3      691.8468       87.0239      807.2067      894.2306     202.383781       2.34887
   1     891.5      699.1770       95.9836      774.8393      870.8229     171.645883       2.61565
   0    1013.0      716.0922      106.4117      737.3868      843.7985     127.706327       3.05095



 Wavenumbers:  2600. -  3250. cm-1, ATM      1
 LEVEL PRESSURE   UPWARD FLUX   DIFDOWN FLUX  DIRDOWN FLUX  DOWNWARD FLUX   NET FLUX    HEATING RATE
          mb          W/m2          W/m2          W/m2        W/m2          W/m2       degree/day
  51    .06700        0.0211        0.0000        9.1877        9.1877       9.166625       0.00000
  50    .07753        0.0211        0.0000        9.1877        9.1877       9.166617       0.00640
  49    .09103        0.0211        0.0000        9.1877        9.1877       9.166607       0.00627
  48    0.1069        0.0211        0.0000        9.1877        9.1877       9.166595       0.00613
  47    0.1255        0.0211        0.0000        9.1877        9.1877       9.166582       0.00600
  46    0.1487        0.0211        0.0000        9.1877        9.1877       9.166565       0.00608
  45    0.1794        0.0211        0.0000        9.1876        9.1876       9.166542       0.00625
  44    0.2165        0.0211        0.0000        9.1876        9.1876       9.166516       0.00613
  43    0.2613        0.0211        0.0000        9.1876        9.1876       9.166484       0.00601
  42    0.3336        0.0211        0.0000        9.1875        9.1875       9.166431       0.00618
  41    0.4307        0.0211        0.0000        9.1875        9.1875       9.166359       0.00622
  40    0.5894        0.0211        0.0000        9.1873        9.1873       9.166239       0.00639
  39     1.339        0.0211        0.0000        9.1866        9.1866       9.165525       0.00804
  38     1.782        0.0211        0.0000        9.1861        9.1861       9.164973       0.01051
  37     2.292        0.0211        0.0000        9.1853        9.1853       9.164239       0.01215
  36     2.964        0.0211        0.0000        9.1843        9.1843       9.163162       0.01351
  35     3.853        0.0211        0.0000        9.1827        9.1827       9.161606       0.01477
  34     5.035        0.0211        0.0000        9.1805        9.1805       9.159391       0.01582
  33     6.613        0.0211        0.0000        9.1774        9.1774       9.156291       0.01657
  32     8.786        0.0211        0.0000        9.1731        9.1731       9.152044       0.01649
  31     11.80        0.0211        0.0000        9.1672        9.1672       9.146074       0.01672
  30     15.07        0.0211        0.0000        9.1611        9.1611       9.139981       0.01573
  29     18.79        0.0211        0.0000        9.1547        9.1547       9.133640       0.01438
  28     23.16        0.0211        0.0000        9.1480        9.1480       9.126942       0.01295
  27     28.12        0.0211        0.0000        9.1411        9.1411       9.120036       0.01174
  26     33.73        0.0211        0.0000        9.1337        9.1337       9.112650       0.01110
  25     40.54        0.0211        0.0000        9.1248        9.1248       9.103702       0.01110
  24     48.69        0.0211        0.0000        9.1136        9.1136       9.092565       0.01152
  23     57.69        0.0211        0.0000        9.1006        9.1006       9.079517       0.01223
  22     68.43        0.0211        0.0000        9.0838        9.0838       9.062718       0.01321
  21     81.20        0.0211        0.0000        9.0621        9.0622       9.041084       0.01430
  20     96.49        0.0211        0.0000        9.0346        9.0347       9.013611       0.01516
  19     114.6        0.0211        0.0000        8.9995        8.9995       8.978466       0.01641
  18     136.5        0.0211        0.0000        8.9568        8.9569       8.935815       0.01640
  17     162.9        0.0210        0.0001        8.9057        8.9058       8.884757       0.01632
  16     196.4        0.0210        0.0001        8.8401        8.8402       8.819151       0.01651
  15     218.7        0.0210        0.0001        8.7947        8.7948       8.773718       0.01725
  14     243.0        0.0210        0.0001        8.7394        8.7395       8.718429       0.01918
  13     269.0        0.0210        0.0001        8.6703        8.6704       8.649391       0.02240
  12     297.5        0.0210        0.0001        8.5859        8.5860       8.564995       0.02503
  11     328.5        0.0211        0.0001        8.4910        8.4911       8.470060       0.02581
  10     361.9        0.0211        0.0001        8.3843        8.3844       8.363305       0.02701
   9     398.1        0.0211        0.0001        8.2588        8.2590       8.237853       0.02923
   8     437.6        0.0212        0.0001        8.1038        8.1039       8.082768       0.03316
   7     480.5        0.0212        0.0001        7.9095        7.9097       7.888415       0.03817
   6     533.0        0.0214        0.0002        7.6309        7.6311       7.609700       0.04484
   5     589.8        0.0216        0.0002        7.2805        7.2806       7.259058       0.05205
   4     651.6        0.0219        0.0002        6.8468        6.8469       6.825062       0.05935
   3     718.7        0.0224        0.0002        6.3689        6.3690       6.346665       0.06012
   2     792.3        0.0232        0.0002        5.8473        5.8475       5.824300       0.05991
   1     891.5        0.0252        0.0002        5.1244        5.1245       5.099356       0.06169
   0    1013.0        0.0304        0.0002        4.2873        4.2874       4.257007       0.05849



 Wavenumbers:  3250. -  4000. cm-1, ATM      1
 LEVEL PRESSURE   UPWARD FLUX   DIFDOWN FLUX  DIRDOWN FLUX  DOWNWARD FLUX   NET FLUX    HEATING RATE
          mb          W/m2          W/m2          W/m2        W/m2          W/m2       degree/day
  51    .06700        0.0005        0.0000       15.4892       15.4892      15.488649       0.00000
  50    .07753        0.0005        0.0000       15.4837       15.4837      15.483212       4.35817
  49    .09103        0.0005        0.0000       15.4791       15.4791      15.478584       2.89263
  48    0.1069        0.0005        0.0000       15.4754       15.4754      15.474883       1.97004
  47    0.1255        0.0005        0.0000       15.4722       15.4722      15.471684       1.45012
  46    0.1487        0.0005        0.0000       15.4689       15.4689      15.468405       1.19534
  45    0.1794        0.0005        0.0000       15.4651       15.4651      15.464587       1.04800
  44    0.2165        0.0005        0.0000       15.4611       15.4611      15.460619       0.90271
  43    0.2613        0.0005        0.0000       15.4569       15.4569      15.456445       0.78685
  42    0.3336        0.0005        0.0000       15.4510       15.4510      15.450491       0.69420
  41    0.4307        0.0005        0.0000       15.4444       15.4444      15.443885       0.57437
  40    0.5894        0.0005        0.0000       15.4353       15.4353      15.434824       0.48183
  39     1.339        0.0005        0.0000       15.4018       15.4018      15.401326       0.37713
  38     1.782        0.0005        0.0000       15.3860       15.3860      15.385547       0.30041
  37     2.292        0.0005        0.0000       15.3704       15.3704      15.369936       0.25856
  36     2.964        0.0005        0.0000       15.3528       15.3528      15.352286       0.22156
  35     3.853        0.0005        0.0000       15.3324       15.3324      15.331896       0.19351
  34     5.035        0.0005        0.0000       15.3079       15.3079      15.307433       0.17475
  33     6.613        0.0005        0.0000       15.2771       15.2771      15.276575       0.16497
  32     8.786        0.0005        0.0000       15.2356       15.2356      15.235092       0.16111
  31     11.80        0.0005        0.0000       15.1742       15.1743      15.173774       0.17167
  30     15.07        0.0005        0.0000       15.1057       15.1057      15.105259       0.17689
  29     18.79        0.0005        0.0000       15.0256       15.0257      15.025195       0.18153
  28     23.16        0.0005        0.0000       14.9302       14.9302      14.929776       0.18451
  27     28.12        0.0005        0.0000       14.8209       14.8210      14.820490       0.18578
  26     33.73        0.0005        0.0000       14.7017       14.7017      14.701286       0.17923
  25     40.54        0.0004        0.0001       14.5654       14.5654      14.564959       0.16913
  24     48.69        0.0004        0.0001       14.4154       14.4154      14.414991       0.15519
  23     57.69        0.0004        0.0001       14.2673       14.2674      14.266968       0.13875
  22     68.43        0.0004        0.0001       14.1078       14.1079      14.107483       0.12538
  21     81.20        0.0004        0.0001       13.9319       13.9320      13.931606       0.11622
  20     96.49        0.0004        0.0001       13.7310       13.7311      13.730760       0.11085
  19     114.6        0.0004        0.0001       13.4881       13.4883      13.487929       0.11338
  18     136.5        0.0003        0.0002       13.2079       13.2081      13.207728       0.10774
  17     162.9        0.0003        0.0002       12.8729       12.8731      12.872783       0.10706
  16     196.4        0.0003        0.0002       12.3889       12.3891      12.388845       0.12181
  15     218.7        0.0002        0.0002       11.9392       11.9395      11.939215       0.17071
  14     243.0        0.0002        0.0003       11.3153       11.3156      11.315371       0.21637
  13     269.0        0.0002        0.0003       10.4992       10.4995      10.499274       0.26474
  12     297.5        0.0002        0.0003        9.5500        9.5502       9.550064       0.28153
  11     328.5        0.0002        0.0003        8.6130        8.6133       8.613132       0.25475
  10     361.9        0.0001        0.0002        7.6889        7.6891       7.688983       0.23382
   9     398.1        0.0001        0.0002        6.7745        6.7747       6.774584       0.21303
   8     437.6        0.0001        0.0002        5.8978        5.8980       5.897933       0.18743
   7     480.5        0.0001        0.0002        5.1057        5.1060       5.105870       0.15556
   6     533.0        0.0001        0.0002        4.2702        4.2704       4.270330       0.13441
   5     589.8        0.0001        0.0002        3.4736        3.4738       3.473749       0.11824
   4     651.6        0.0000        0.0001        2.6654        2.6656       2.665509       0.11053
   3     718.7        0.0000        0.0001        1.8917        1.8918       1.891720       0.09724
   2     792.3        0.0001        0.0001        1.1914        1.1915       1.191444       0.08031
   1     891.5        0.0002        0.0000        0.5303        0.5303       0.530142       0.05627
   0    1013.0        0.0016        0.0000        0.1198        0.1198       0.118258       0.02860



 Wavenumbers:  4000. -  4650. cm-1, ATM      1
 LEVEL PRESSURE   UPWARD FLUX   DIFDOWN FLUX  DIRDOWN FLUX  DOWNWARD FLUX   NET FLUX    HEATING RATE
          mb          W/m2          W/m2          W/m2        W/m2          W/m2       degree/day
  51    .06700        1.2858        0.0000       18.1889       18.1889      16.903130       0.00000
  50    .07753        1.2858        0.0000       18.1889       18.1889      16.903129       0.00080
  49    .09103        1.2858        0.0000       18.1889       18.1889      16.903128       0.00078
  48    0.1069        1.2858        0.0000       18.1889       18.1889      16.903126       0.00076
  47    0.1255        1.2858        0.0000       18.1889       18.1889      16.903125       0.00075
  46    0.1487        1.2858        0.0000       18.1889       18.1889      16.903123       0.00076
  45    0.1794        1.2858        0.0000       18.1889       18.1889      16.903120       0.00078
  44    0.2165        1.2858        0.0000       18.1889       18.1889      16.903116       0.00076
  43    0.2613        1.2858        0.0000       18.1889       18.1889      16.903112       0.00075
  42    0.3336        1.2858        0.0000       18.1889       18.1889      16.903106       0.00077
  41    0.4307        1.2858        0.0000       18.1889       18.1889      16.903097       0.00077
  40    0.5894        1.2858        0.0000       18.1889       18.1889      16.903082       0.00080
  39     1.339        1.2858        0.0000       18.1888       18.1888      16.902993       0.00101
  38     1.782        1.2858        0.0000       18.1887       18.1887      16.902923       0.00133
  37     2.292        1.2858        0.0000       18.1886       18.1886      16.902829       0.00156
  36     2.964        1.2858        0.0000       18.1885       18.1885      16.902689       0.00176
  35     3.853        1.2858        0.0000       18.1883       18.1883      16.902480       0.00197
  34     5.035        1.2858        0.0000       18.1880       18.1880      16.902173       0.00219
  33     6.613        1.2858        0.0000       18.1875       18.1875      16.901721       0.00242
  32     8.786        1.2858        0.0000       18.1868       18.1868      16.901053       0.00259
  31     11.80        1.2858        0.0000       18.1857       18.1858      16.900002       0.00294
  30     15.07        1.2858        0.0001       18.1845       18.1845      16.898767       0.00319
  29     18.79        1.2858        0.0001       18.1830       18.1830      16.897271       0.00339
  28     23.16        1.2857        0.0001       18.1811       18.1812      16.895409       0.00360
  27     28.12        1.2857        0.0001       18.1788       18.1789      16.893150       0.00384
  26     33.73        1.2857        0.0001       18.1759       18.1761      16.890357       0.00420
  25     40.54        1.2857        0.0002       18.1721       18.1723      16.886555       0.00472
  24     48.69        1.2857        0.0002       18.1670       18.1672      16.881469       0.00526
  23     57.69        1.2857        0.0002       18.1609       18.1611      16.875412       0.00568
  22     68.43        1.2857        0.0003       18.1532       18.1535      16.867792       0.00599
  21     81.20        1.2856        0.0003       18.1437       18.1440      16.858360       0.00623
  20     96.49        1.2856        0.0004       18.1321       18.1325      16.846836       0.00636
  19     114.6        1.2856        0.0004       18.1176       18.1180      16.832372       0.00675
  18     136.5        1.2857        0.0005       18.1000       18.1005      16.814874       0.00673
  17     162.9        1.2857        0.0006       18.0785       18.0791      16.793382       0.00687
  16     196.4        1.2858        0.0007       18.0488       18.0495      16.763694       0.00747
  15     218.7        1.2860        0.0008       18.0260       18.0269      16.740881       0.00866
  14     243.0        1.2862        0.0009       17.9954       17.9963      16.710060       0.01069
  13     269.0        1.2866        0.0010       17.9523       17.9533      16.666655       0.01408
  12     297.5        1.2872        0.0011       17.8934       17.8945      16.607295       0.01761
  11     328.5        1.2881        0.0012       17.8208       17.8220      16.533948       0.01994
  10     361.9        1.2892        0.0013       17.7294       17.7308      16.441510       0.02339
   9     398.1        1.2907        0.0015       17.6100       17.6115      16.320783       0.02813
   8     437.6        1.2925        0.0016       17.4516       17.4532      16.160675       0.03423
   7     480.5        1.2948        0.0017       17.2523       17.2540      15.959174       0.03957
   6     533.0        1.2983        0.0019       16.9774       16.9792      15.680907       0.04476
   5     589.8        1.3032        0.0020       16.6573       16.6593      15.356079       0.04822
   4     651.6        1.3108        0.0022       16.2727       16.2749      14.964063       0.05361
   3     718.7        1.3228        0.0023       15.7999       15.8022      14.479423       0.06091
   2     792.3        1.3428        0.0025       15.1649       15.1673      13.824517       0.07511
   1     891.5        1.3900        0.0026       14.1612       14.1638      12.773764       0.08941
   0    1013.0        1.5109        0.0027       12.9994       13.0021      11.491171       0.08906



 Wavenumbers:  4650. -  5150. cm-1, ATM      1
 LEVEL PRESSURE   UPWARD FLUX   DIFDOWN FLUX  DIRDOWN FLUX  DOWNWARD FLUX   NET FLUX    HEATING RATE
          mb          W/m2          W/m2          W/m2        W/m2          W/m2       degree/day
  51    .06700        0.2750        0.0000       17.2167       17.2167      16.941675       0.00000
  50    .07753        0.2750        0.0000       17.2165       17.2165      16.941439       0.18919
  49    .09103        0.2750        0.0000       17.2162       17.2162      16.941143       0.18484
  48    0.1069        0.2750        0.0000       17.2158       17.2158      16.940804       0.18030
  47    0.1255        0.2750        0.0000       17.2154       17.2154      16.940417       0.17572
  46    0.1487        0.2750        0.0000       17.2149       17.2149      16.939930       0.17743
  45    0.1794        0.2750        0.0000       17.2143       17.2143      16.939269       0.18141
  44    0.2165        0.2750        0.0000       17.2135       17.2135      16.938493       0.17655
  43    0.2613        0.2750        0.0000       17.2126       17.2126      16.937582       0.17164
  42    0.3336        0.2750        0.0000       17.2111       17.2111      16.936096       0.17332
  41    0.4307        0.2750        0.0000       17.2092       17.2092      16.934161       0.16822
  40    0.5894        0.2750        0.0000       17.2061       17.2061      16.931088       0.16341
  39     1.339        0.2750        0.0000       17.1929       17.1929      16.917872       0.14880
  38     1.782        0.2750        0.0000       17.1860       17.1860      16.911028       0.13029
  37     2.292        0.2750        0.0000       17.1789       17.1789      16.903868       0.11859
  36     2.964        0.2750        0.0000       17.1705       17.1705      16.895539       0.10456
  35     3.853        0.2750        0.0000       17.1611       17.1611      16.886107       0.08951
  34     5.035        0.2750        0.0000       17.1507       17.1507      16.875750       0.07399
  33     6.613        0.2750        0.0000       17.1397       17.1397      16.864747       0.05882
  32     8.786        0.2750        0.0000       17.1281       17.1282      16.853200       0.04485
  31     11.80        0.2750        0.0001       17.1150       17.1151      16.840159       0.03651
  30     15.07        0.2749        0.0001       17.1028       17.1029      16.827976       0.03145
  29     18.79        0.2749        0.0001       17.0894       17.0895      16.814564       0.03041
  28     23.16        0.2749        0.0001       17.0730       17.0731      16.798227       0.03159
  27     28.12        0.2749        0.0002       17.0528       17.0530      16.778085       0.03424
  26     33.73        0.2749        0.0002       17.0283       17.0285      16.753602       0.03681
  25     40.54        0.2748        0.0002       16.9961       16.9963      16.721462       0.03987
  24     48.69        0.2748        0.0003       16.9542       16.9545      16.679658       0.04326
  23     57.69        0.2748        0.0003       16.9052       16.9055      16.630713       0.04588
  22     68.43        0.2747        0.0004       16.8439       16.8442      16.569485       0.04813
  21     81.20        0.2747        0.0004       16.7684       16.7689      16.494143       0.04978
  20     96.49        0.2747        0.0005       16.6773       16.6779      16.403178       0.05021
  19     114.6        0.2746        0.0006       16.5705       16.5711      16.296481       0.04982
  18     136.5        0.2746        0.0007       16.4485       16.4492      16.174637       0.04685
  17     162.9        0.2746        0.0009       16.3121       16.3130      16.038396       0.04355
  16     196.4        0.2746        0.0010       16.1505       16.1515      15.876906       0.04065
  15     218.7        0.2746        0.0011       16.0516       16.0527      15.778121       0.03750
  14     243.0        0.2747        0.0012       15.9476       15.9489      15.674209       0.03604
  13     269.0        0.2748        0.0014       15.8352       15.8366      15.561790       0.03647
  12     297.5        0.2749        0.0015       15.7086       15.7101      15.435153       0.03756
  11     328.5        0.2752        0.0016       15.5670       15.5686      15.293383       0.03855
  10     361.9        0.2756        0.0018       15.4062       15.4080      15.132410       0.04073
   9     398.1        0.2761        0.0019       15.2201       15.2220      14.945935       0.04344
   8     437.6        0.2768        0.0021       15.0017       15.0038      14.726951       0.04682
   7     480.5        0.2778        0.0022       14.7447       14.7470      14.469169       0.05063
   6     533.0        0.2793        0.0024       14.3963       14.3987      14.119417       0.05626
   5     589.8        0.2814        0.0026       13.9772       13.9798      13.698374       0.06250
   4     651.6        0.2847        0.0027       13.4621       13.4649      13.180184       0.07086
   3     718.7        0.2896        0.0029       12.8570       12.8599      12.570342       0.07664
   2     792.3        0.2972        0.0030       12.1737       12.1766      11.879436       0.07924
   1     891.5        0.3136        0.0031       11.2525       11.2555      10.941892       0.07978
   0    1013.0        0.3493        0.0031       10.2382       10.2414       9.892076       0.07289



 Wavenumbers:  5150. -  6150. cm-1, ATM      1
 LEVEL PRESSURE   UPWARD FLUX   DIFDOWN FLUX  DIRDOWN FLUX  DOWNWARD FLUX   NET FLUX    HEATING RATE
          mb          W/m2          W/m2          W/m2        W/m2          W/m2       degree/day
  51    .06700        2.9113        0.0000       43.1623       43.1623      40.250992       0.00000
  50    .07753        2.9113        0.0000       43.1623       43.1623      40.250953       0.03157
  49    .09103        2.9113        0.0000       43.1622       43.1622      40.250901       0.03206
  48    0.1069        2.9113        0.0000       43.1622       43.1622      40.250840       0.03257
  47    0.1255        2.9113        0.0000       43.1621       43.1621      40.250767       0.03307
  46    0.1487        2.9113        0.0000       43.1620       43.1620      40.250672       0.03485
  45    0.1794        2.9113        0.0000       43.1619       43.1619      40.250536       0.03710
  44    0.2165        2.9113        0.0000       43.1617       43.1617      40.250371       0.03767
  43    0.2613        2.9113        0.0000       43.1615       43.1615      40.250168       0.03826
  42    0.3336        2.9113        0.0000       43.1611       43.1611      40.249821       0.04044
  41    0.4307        2.9113        0.0000       43.1607       43.1607      40.249349       0.04101
  40    0.5894        2.9113        0.0000       43.1599       43.1599      40.248558       0.04206
  39     1.339        2.9113        0.0000       43.1560       43.1560      40.244735       0.04304
  38     1.782        2.9113        0.0000       43.1537       43.1538      40.242500       0.04256
  37     2.292        2.9113        0.0001       43.1512       43.1512      40.239961       0.04204
  36     2.964        2.9113        0.0001       43.1479       43.1480      40.236723       0.04065
  35     3.853        2.9112        0.0001       43.1437       43.1438      40.232586       0.03926
  34     5.035        2.9112        0.0001       43.1383       43.1384      40.227221       0.03832
  33     6.613        2.9112        0.0002       43.1312       43.1314      40.220198       0.03754
  32     8.786        2.9112        0.0002       43.1219       43.1221      40.210989       0.03576
  31     11.80        2.9111        0.0003       43.1091       43.1094      40.198335       0.03543
  30     15.07        2.9111        0.0004       43.0961       43.0965      40.185408       0.03337
  29     18.79        2.9110        0.0005       43.0821       43.0826      40.171634       0.03123
  28     23.16        2.9109        0.0006       43.0668       43.0674      40.156483       0.02930
  27     28.12        2.9109        0.0008       43.0503       43.0511      40.140189       0.02770
  26     33.73        2.9108        0.0009       43.0332       43.0341      40.123286       0.02541
  25     40.54        2.9107        0.0011       43.0141       43.0152      40.104457       0.02336
  24     48.69        2.9106        0.0013       42.9932       42.9945      40.083896       0.02128
  23     57.69        2.9105        0.0015       42.9721       42.9736      40.063090       0.01950
  22     68.43        2.9104        0.0018       42.9488       42.9506      40.040142       0.01804
  21     81.20        2.9103        0.0022       42.9226       42.9247      40.014418       0.01700
  20     96.49        2.9102        0.0026       42.8927       42.8952      39.985035       0.01622
  19     114.6        2.9101        0.0030       42.8579       42.8609      39.950884       0.01595
  18     136.5        2.9099        0.0036       42.8170       42.8206      39.910699       0.01545
  17     162.9        2.9097        0.0043       42.7556       42.7599      39.850190       0.01934
  16     196.4        2.9095        0.0052       42.6255       42.6306      39.721126       0.03249
  15     218.7        2.9094        0.0057       42.4373       42.4430      39.533588       0.07120
  14     243.0        2.9093        0.0063       42.0772       42.0835      39.174130       0.12467
  13     269.0        2.9093        0.0068       41.4080       41.4149      38.505561       0.21688
  12     297.5        2.9094        0.0074       40.4153       40.4227      37.513273       0.29430
  11     328.5        2.9096        0.0079       39.3711       39.3791      36.469424       0.28382
  10     361.9        2.9100        0.0085       38.2712       38.2797      35.369638       0.27826
   9     398.1        2.9106        0.0090       36.9936       37.0026      34.091927       0.29768
   8     437.6        2.9116        0.0094       35.5013       35.5107      32.599111       0.31917
   7     480.5        2.9130        0.0099       33.8979       33.9078      30.994776       0.31509
   6     533.0        2.9155        0.0104       31.9949       32.0052      29.089768       0.30646
   5     589.8        2.9196        0.0108       30.0510       30.0618      27.142248       0.28908
   4     651.6        2.9272        0.0113       28.0832       28.0944      25.167278       0.27008
   3     718.7        2.9408        0.0118       26.3547       26.3665      23.425760       0.21886
   2     792.3        2.9664        0.0124       24.9127       24.9251      21.958680       0.16826
   1     891.5        3.0358        0.0132       23.3962       23.4093      20.373516       0.13489
   0    1013.0        3.2525        0.0139       21.7246       21.7385      18.486048       0.13106



 Wavenumbers:  6150. -  7700. cm-1, ATM      1
 LEVEL PRESSURE   UPWARD FLUX   DIFDOWN FLUX  DIRDOWN FLUX  DOWNWARD FLUX   NET FLUX    HEATING RATE
          mb          W/m2          W/m2          W/m2        W/m2          W/m2       degree/day
  51    .06700        5.4489        0.0000       79.8304       79.8304      74.381452       0.00000
  50    .07753        5.4489        0.0000       79.8303       79.8303      74.381395       0.04553
  49    .09103        5.4489        0.0000       79.8302       79.8302      74.381322       0.04583
  48    0.1069        5.4489        0.0000       79.8301       79.8301      74.381235       0.04615
  47    0.1255        5.4489        0.0000       79.8300       79.8300      74.381133       0.04646
  46    0.1487        5.4489        0.0000       79.8299       79.8299      74.381000       0.04853
  45    0.1794        5.4489        0.0000       79.8297       79.8297      74.380813       0.05129
  44    0.2165        5.4489        0.0000       79.8295       79.8295      74.380586       0.05170
  43    0.2613        5.4489        0.0000       79.8292       79.8292      74.380309       0.05214
  42    0.3336        5.4489        0.0000       79.8287       79.8287      74.379839       0.05476
  41    0.4307        5.4489        0.0000       79.8280       79.8281      74.379204       0.05528
  40    0.5894        5.4488        0.0001       79.8269       79.8270      74.378142       0.05644
  39     1.339        5.4488        0.0001       79.8217       79.8218      74.373029       0.05756
  38     1.782        5.4487        0.0002       79.8186       79.8188      74.370039       0.05693
  37     2.292        5.4487        0.0003       79.8151       79.8153      74.366632       0.05642
  36     2.964        5.4486        0.0003       79.8106       79.8109      74.362264       0.05484
  35     3.853        5.4485        0.0004       79.8047       79.8052      74.356645       0.05332
  34     5.035        5.4484        0.0006       79.7972       79.7977      74.349322       0.05231
  33     6.613        5.4483        0.0007       79.7872       79.7880      74.339693       0.05148
  32     8.786        5.4481        0.0010       79.7741       79.7750      74.326981       0.04937
  31     11.80        5.4478        0.0013       79.7558       79.7571      74.309328       0.04942
  30     15.07        5.4475        0.0017       79.7368       79.7385      74.291056       0.04717
  29     18.79        5.4471        0.0021       79.7163       79.7184      74.271278       0.04484
  28     23.16        5.4467        0.0026       79.6932       79.6958      74.249158       0.04277
  27     28.12        5.4462        0.0032       79.6680       79.6712      74.224949       0.04115
  26     33.73        5.4457        0.0038       79.6412       79.6450      74.199336       0.03851
  25     40.54        5.4450        0.0046       79.6107       79.6153      74.170232       0.03611
  24     48.69        5.4443        0.0055       79.5765       79.5819      74.137681       0.03369
  23     57.69        5.4434        0.0065       79.5410       79.5475      74.104085       0.03149
  22     68.43        5.4424        0.0077       79.5010       79.5087      74.066282       0.02972
  21     81.20        5.4412        0.0091       79.4553       79.4645      74.023308       0.02840
  20     96.49        5.4397        0.0108       79.4024       79.4133      73.973547       0.02746
  19     114.6        5.4380        0.0129       79.3405       79.3534      73.915363       0.02717
  18     136.5        5.4359        0.0153       79.2670       79.2823      73.846338       0.02654
  17     162.9        5.4335        0.0181       79.1609       79.1791      73.745594       0.03220
  16     196.4        5.4304        0.0218       78.9444       78.9663      73.535902       0.05278
  15     218.7        5.4284        0.0242       78.6410       78.6652      73.236819       0.11355
  14     243.0        5.4263        0.0267       78.0979       78.1246      72.698288       0.18678
  13     269.0        5.4242        0.0292       77.1949       77.2241      71.799901       0.29143
  12     297.5        5.4222        0.0316       75.7395       75.7711      70.348848       0.43037
  11     328.5        5.4205        0.0339       73.9445       73.9785      68.558011       0.48692
  10     361.9        5.4191        0.0364       71.9728       72.0092      66.590126       0.49789
   9     398.1        5.4183        0.0387       69.8133       69.8520      64.433742       0.50239
   8     437.6        5.4185        0.0409       67.3063       67.3472      61.928636       0.53561
   7     480.5        5.4202        0.0429       64.4603       64.5031      59.082864       0.55890
   6     533.0        5.4252        0.0449       60.9165       60.9614      55.536165       0.57055
   5     589.8        5.4358        0.0467       57.1055       57.1522      51.716332       0.56699
   4     651.6        5.4584        0.0479       52.8761       52.9240      47.465592       0.58130
   3     718.7        5.5016        0.0489       48.6308       48.6797      43.178033       0.53883
   2     792.3        5.5853        0.0495       44.4516       44.5011      38.915774       0.48883
   1     891.5        5.8090        0.0501       39.5699       39.6200      33.811039       0.43439
   0    1013.0        6.4840        0.0508       34.9086       34.9594      28.475360       0.37048



 Wavenumbers:  7700. -  8050. cm-1, ATM      1
 LEVEL PRESSURE   UPWARD FLUX   DIFDOWN FLUX  DIRDOWN FLUX  DOWNWARD FLUX   NET FLUX    HEATING RATE
          mb          W/m2          W/m2          W/m2        W/m2          W/m2       degree/day
  51    .06700        8.5751        0.0000       18.8663       18.8663      10.291156       0.00000
  50    .07753        8.5751        0.0000       18.8663       18.8663      10.291132       0.01900
  49    .09103        8.5751        0.0000       18.8662       18.8662      10.291102       0.01862
  48    0.1069        8.5752        0.0000       18.8662       18.8662      10.291068       0.01823
  47    0.1255        8.5752        0.0000       18.8662       18.8662      10.291029       0.01784
  46    0.1487        8.5752        0.0000       18.8661       18.8662      10.290979       0.01810
  45    0.1794        8.5752        0.0000       18.8661       18.8661      10.290911       0.01863
  44    0.2165        8.5752        0.0000       18.8660       18.8660      10.290831       0.01827
  43    0.2613        8.5752        0.0000       18.8660       18.8660      10.290736       0.01793
  42    0.3336        8.5753        0.0000       18.8658       18.8658      10.290578       0.01835
  41    0.4307        8.5753        0.0000       18.8657       18.8657      10.290370       0.01815
  40    0.5894        8.5754        0.0000       18.8654       18.8654      10.290029       0.01813
  39     1.339        8.5758        0.0001       18.8641       18.8642      10.288416       0.01816
  38     1.782        8.5760        0.0001       18.8634       18.8635      10.287468       0.01804
  37     2.292        8.5763        0.0001       18.8625       18.8627      10.286371       0.01817
  36     2.964        8.5766        0.0002       18.8614       18.8616      10.284930       0.01809
  35     3.853        8.5771        0.0002       18.8599       18.8601      10.283026       0.01807
  34     5.035        8.5777        0.0003       18.8579       18.8582      10.280496       0.01807
  33     6.613        8.5786        0.0004       18.8553       18.8557      10.277114       0.01808
  32     8.786        8.5797        0.0005       18.8517       18.8522      10.272557       0.01770
  31     11.80        8.5813        0.0007       18.8466       18.8473      10.266034       0.01826
  30     15.07        8.5830        0.0009       18.8411       18.8420      10.259029       0.01809
  29     18.79        8.5849        0.0012       18.8349       18.8361      10.251114       0.01795
  28     23.16        8.5872        0.0014       18.8277       18.8291      10.241867       0.01788
  27     28.12        8.5899        0.0017       18.8194       18.8211      10.231292       0.01798
  26     33.73        8.5928        0.0021       18.8102       18.8123      10.219458       0.01779
  25     40.54        8.5964        0.0025       18.7991       18.8015      10.205162       0.01774
  24     48.69        8.6007        0.0030       18.7857       18.7887      10.187933       0.01783
  23     57.69        8.6055        0.0035       18.7710       18.7745      10.169017       0.01773
  22     68.43        8.6113        0.0042       18.7536       18.7578      10.146503       0.01770
  21     81.20        8.6181        0.0050       18.7329       18.7379      10.119704       0.01771
  20     96.49        8.6264        0.0059       18.7083       18.7142      10.087809       0.01760
  19     114.6        8.6364        0.0070       18.6794       18.6864      10.049993       0.01766
  18     136.5        8.6483        0.0083       18.6452       18.6536      10.005250       0.01721
  17     162.9        8.6627        0.0099       18.6049       18.6148       9.952069       0.01700
  16     196.4        8.6817        0.0119       18.5531       18.5650       9.883251       0.01732
  15     218.7        8.6945        0.0132       18.5193       18.5326       9.838107       0.01714
  14     243.0        8.7085        0.0147       18.4828       18.4975       9.789021       0.01702
  13     269.0        8.7240        0.0163       18.4434       18.4597       9.735726       0.01729
  12     297.5        8.7411        0.0179       18.4010       18.4190       9.677874       0.01716
  11     328.5        8.7600        0.0198       18.3553       18.3751       9.615007       0.01709
  10     361.9        8.7811        0.0217       18.3061       18.3278       9.546758       0.01727
   9     398.1        8.8044        0.0239       18.2530       18.2769       9.472425       0.01732
   8     437.6        8.8307        0.0261       18.1957       18.2218       9.391149       0.01738
   7     480.5        8.8601        0.0286       18.1336       18.1622       9.302092       0.01749
   6     533.0        8.8985        0.0316       18.0559       18.0875       9.189066       0.01818
   5     589.8        8.9432        0.0348       17.9696       18.0045       9.061291       0.01897
   4     651.6        8.9968        0.0383       17.8712       17.9096       8.912734       0.02032
   3     718.7        9.0626        0.0420       17.7571       17.7992       8.736606       0.02213
   2     792.3        9.1461        0.0460       17.6210       17.6670       8.520892       0.02474
   1     891.5        9.2877        0.0512       17.4089       17.4601       8.172360       0.02966
   0    1013.0        9.5154        0.0573       17.1096       17.1668       7.651445       0.03617



 Wavenumbers:  8050. - 12850. cm-1, ATM      1
 LEVEL PRESSURE   UPWARD FLUX   DIFDOWN FLUX  DIRDOWN FLUX  DOWNWARD FLUX   NET FLUX    HEATING RATE
          mb          W/m2          W/m2          W/m2        W/m2          W/m2       degree/day
  51    .06700      154.8429        0.0000      264.1420      264.1420     109.299089       0.00000
  50    .07753      154.8429        0.0000      264.1419      264.1419     109.299089       0.00000
  49    .09103      154.8429        0.0001      264.1419      264.1419     109.299089      -0.00000
  48    0.1069      154.8428        0.0001      264.1418      264.1419     109.299089       0.00000
  47    0.1255      154.8428        0.0002      264.1417      264.1419     109.299089       0.00000
  46    0.1487      154.8428        0.0003      264.1416      264.1419     109.299089       0.00000
  45    0.1794      154.8428        0.0004      264.1415      264.1419     109.299089      -0.00000
  44    0.2165      154.8428        0.0005      264.1414      264.1419     109.299089       0.00000
  43    0.2613      154.8428        0.0007      264.1412      264.1418     109.299089       0.00000
  42    0.3336      154.8427        0.0009      264.1409      264.1418     109.299089      -0.00000
  41    0.4307      154.8427        0.0012      264.1405      264.1418     109.299089       0.00000
  40    0.5894      154.8426        0.0018      264.1399      264.1417     109.299089      -0.00000
  39     1.339      154.8422        0.0043      264.1369      264.1413     109.299089       0.00000
  38     1.782      154.8419        0.0058      264.1352      264.1410     109.299089       0.00000
  37     2.292      154.8417        0.0076      264.1332      264.1407     109.299089       0.00000
  36     2.964      154.8413        0.0098      264.1305      264.1404     109.299089      -0.00000
  35     3.853      154.8408        0.0128      264.1271      264.1399     109.299089      -0.00000
  34     5.035      154.8402        0.0168      264.1224      264.1393     109.299089       0.00000
  33     6.613      154.8393        0.0222      264.1162      264.1384     109.299089      -0.00000
  32     8.786      154.8382        0.0294      264.1078      264.1372     109.299089       0.00000
  31     11.80      154.8365        0.0397      264.0959      264.1356     109.299089       0.00000
  30     15.07      154.8347        0.0508      264.0830      264.1338     109.299089       0.00000
  29     18.79      154.8327        0.0634      264.0684      264.1318     109.299089       0.00000
  28     23.16      154.8303        0.0780      264.0514      264.1294     109.299089      -0.00000
  27     28.12      154.8277        0.0949      264.0319      264.1267     109.299089      -0.00000
  26     33.73      154.8246        0.1137      264.0100      264.1237     109.299089       0.00000
  25     40.54      154.8210        0.1365      263.9836      264.1201     109.299089       0.00000
  24     48.69      154.8166        0.1640      263.9517      264.1156     109.299089      -0.00000
  23     57.69      154.8117        0.1942      263.9166      264.1108     109.299089       0.00000
  22     68.43      154.8059        0.2303      263.8747      264.1050     109.299089       0.00000
  21     81.20      154.7990        0.2734      263.8247      264.0981     109.299089      -0.00000
  20     96.49      154.7907        0.3248      263.7649      264.0898     109.299089       0.00000
  19     114.6      154.7812        0.3860      263.6879      264.0739     109.292736       0.00297
  18     136.5      154.7698        0.4587      263.5960      264.0547     109.284852       0.00303
  17     162.9      154.7564        0.5455      263.4826      264.0281     109.271772       0.00418
  16     196.4      154.7390        0.6584      263.3188      263.9773     109.238224       0.00844
  15     218.7      154.7280        0.7327      263.1704      263.9031     109.175161       0.02394
  14     243.0      154.7169        0.8135      262.9261      263.7397     109.022773       0.05285
  13     269.0      154.7071        0.9010      262.5105      263.4116     108.704479       0.10325
  12     297.5      154.7009        0.9954      261.8632      262.8586     108.157692       0.16217
  11     328.5      154.6999        1.0973      261.0460      262.1433     107.443429       0.19421
  10     361.9      154.7071        1.2068      260.0673      261.2741     106.566976       0.22175
   9     398.1      154.7277        1.3242      258.8719      260.1962     105.468496       0.25592
   8     437.6      154.7703        1.4495      257.3477      258.7972     104.026878       0.30823
   7     480.5      154.8455        1.5826      255.4214      257.0041     102.158572       0.36693
   6     533.0      154.9937        1.7445      252.6365      254.3809      99.387272       0.44581
   5     589.8      155.2555        1.9154      249.0286      250.9440      95.688478       0.54902
   4     651.6      155.7517        2.0923      244.0899      246.1822      90.430532       0.71904
   3     718.7      156.6421        2.2742      237.8338      240.1080      83.465855       0.87527
   2     792.3      158.2854        2.4572      230.1592      232.6164      74.330987       1.04767
   1     891.5      162.4299        2.6836      218.8196      221.5033      59.073311       1.29835
   0    1013.0      173.2650        2.9313      205.0199      207.9512      34.686204       1.69332



 Wavenumbers: 12850. - 16000. cm-1, ATM      1
 LEVEL PRESSURE   UPWARD FLUX   DIFDOWN FLUX  DIRDOWN FLUX  DOWNWARD FLUX   NET FLUX    HEATING RATE
          mb          W/m2          W/m2          W/m2        W/m2          W/m2       degree/day
  51    .06700      136.0748        0.0000      165.5083      165.5083      29.433449       0.00000
  50    .07753      136.0749        0.0001      165.5074      165.5075      29.432643       0.64652
  49    .09103      136.0749        0.0002      165.5063      165.5065      29.431623       0.63746
  48    0.1069      136.0750        0.0003      165.5051      165.5054      29.430442       0.62872
  47    0.1255      136.0750        0.0005      165.5036      165.5041      29.429073       0.62070
  46    0.1487      136.0751        0.0007      165.5018      165.5025      29.427327       0.63636
  45    0.1794      136.0753        0.0009      165.4993      165.5002      29.424923       0.65987
  44    0.2165      136.0756        0.0012      165.4964      165.4976      29.422055       0.65242
  43    0.2613      136.0759        0.0016      165.4930      165.4945      29.418628       0.64594
  42    0.3336      136.0765        0.0022      165.4873      165.4895      29.412921       0.66545
  41    0.4307      136.0775        0.0029      165.4799      165.4829      29.405354       0.65792
  40    0.5894      136.0794        0.0042      165.4681      165.4723      29.392994       0.65727
  39     1.339      136.0932        0.0102      165.4152      165.4254      29.332225       0.68415
  38     1.782      136.1050        0.0137      165.3851      165.3989      29.293852       0.73056
  37     2.292      136.1222        0.0178      165.3502      165.3680      29.245815       0.79563
  36     2.964      136.1501        0.0232      165.3031      165.3263      29.176194       0.87395
  35     3.853      136.1945        0.0303      165.2385      165.2688      29.074263       0.96734
  34     5.035      136.2609        0.0397      165.1507      165.1904      28.929557       1.03372
  33     6.613      136.3533        0.0523      165.0348      165.0871      28.733769       1.04668
  32     8.786      136.4739        0.0692      164.8862      164.9555      28.481597       0.97935
  31     11.80      136.6317        0.0935      164.6904      164.7839      28.152236       0.92211
  30     15.07      136.7840        0.1195      164.4977      164.6172      27.833120       0.82390
  29     18.79      136.9408        0.1489      164.2951      164.4440      27.503232       0.74796
  28     23.16      137.1062        0.1833      164.0759      164.2591      27.152923       0.67739
  27     28.12      137.2747        0.2226      163.8451      164.0676      26.792987       0.61187
  26     33.73      137.4336        0.2666      163.6149      163.8815      26.447943       0.51878
  25     40.54      137.5913        0.3198      163.3695      163.6894      26.098075       0.43405
  24     48.69      137.7481        0.3841      163.1058      163.4899      25.741825       0.36866
  23     57.69      137.8880        0.4548      162.8478      163.3026      25.414634       0.30669
  22     68.43      138.0196        0.5392      162.5754      163.1146      25.094956       0.25131
  21     81.20      138.1285        0.6399      162.2987      162.9385      24.810023       0.18828
  20     96.49      138.2138        0.7602      162.0150      162.7752      24.561312       0.13727
  19     114.6      138.3151        0.9050      161.7046      162.6095      24.294412       0.12462
  18     136.5      138.4155        1.0769      161.3598      162.4366      24.021158       0.10507
  17     162.9      138.5168        1.2818      160.9693      162.2512      23.734357       0.09167
  16     196.4      138.6098        1.5482      160.4940      162.0421      23.432358       0.07602
  15     218.7      138.6571        1.7234      160.1900      161.9134      23.256317       0.06684
  14     243.0      138.7027        1.9140      159.8598      161.7738      23.071073       0.06425
  13     269.0      138.7469        2.1210      159.5003      161.6213      22.874409       0.06380
  12     297.5      138.7908        2.3449      159.1063      161.4512      22.660446       0.06346
  11     328.5      138.8385        2.5873      158.6728      161.2601      22.421681       0.06492
  10     361.9      138.8918        2.8488      158.1964      161.0452      22.153412       0.06787
   9     398.1      138.9538        3.1307      157.6716      160.8023      21.848526       0.07103
   8     437.6      139.0301        3.4340      157.0903      160.5243      21.494228       0.07575
   7     480.5      139.1261        3.7596      156.4456      160.2052      21.079182       0.08151
   6     533.0      139.2722        4.1611      155.6153      159.7764      20.504253       0.09249
   5     589.8      139.4819        4.5945      154.6574      159.2519      19.769991       0.10899
   4     651.6      139.8144        5.0597      153.5017      158.5614      18.747011       0.13990
   3     718.7      140.3111        5.5552      152.1246      157.6799      17.368756       0.17321
   2     792.3      141.1011        6.0772      150.4363      156.5135      15.412393       0.22437
   1     891.5      142.7947        6.7628      147.7896      154.5524      11.757621       0.31100
   0    1013.0      146.1844        7.5582      144.2043      151.7625       5.578117       0.42907



 Wavenumbers: 16000. - 22650. cm-1, ATM      1
 LEVEL PRESSURE   UPWARD FLUX   DIFDOWN FLUX  DIRDOWN FLUX  DOWNWARD FLUX   NET FLUX    HEATING RATE
          mb          W/m2          W/m2          W/m2        W/m2          W/m2       degree/day
  51    .06700      240.9150        0.0000      263.8846      263.8846      22.969580       0.00000
  50    .07753      240.9152        0.0005      263.8841      263.8846      22.969385       0.15568
  49    .09103      240.9154        0.0011      263.8833      263.8845      22.969103       0.17658
  48    0.1069      240.9156        0.0019      263.8825      263.8843      22.968725       0.20136
  47    0.1255      240.9159        0.0027      263.8814      263.8841      22.968218       0.22952
  46    0.1487      240.9164        0.0038      263.8801      263.8839      22.967472       0.27198
  45    0.1794      240.9171        0.0052      263.8782      263.8834      22.966306       0.32023
  44    0.2165      240.9181        0.0069      263.8759      263.8828      22.964723       0.35991
  43    0.2613      240.9194        0.0089      263.8730      263.8819      22.962577       0.40463
  42    0.3336      240.9218        0.0123      263.8680      263.8803      22.958496       0.47584
  41    0.4307      240.9255        0.0167      263.8611      263.8778      22.952344       0.53490
  40    0.5894      240.9324        0.0240      263.8491      263.8730      22.940610       0.62396
  39     1.339      240.9831        0.0583      263.7788      263.8371      22.853913       0.97606
  38     1.782      241.0261        0.0784      263.7277      263.8061      22.780042       1.40637
  37     2.292      241.0880        0.1017      263.6594      263.7611      22.673092       1.77137
  36     2.964      241.1883        0.1323      263.5557      263.6881      22.499780       2.17559
  35     3.853      241.3472        0.1728      263.3991      263.5719      22.224647       2.61106
  34     5.035      241.5845        0.2264      263.1720      263.3984      21.813882       2.93433
  33     6.613      241.9150        0.2981      262.8594      263.1575      21.242473       3.05475
  32     8.786      242.3465        0.3947      262.4498      262.8445      20.497955       2.89144
  31     11.80      242.9124        0.5327      261.9045      262.4372      19.524862       2.72435
  30     15.07      243.4598        0.6809      261.3658      262.0468      18.586953       2.42150
  29     18.79      244.0242        0.8483      260.7996      261.6480      17.623798       2.18377
  28     23.16      244.6209        1.0439      260.1867      261.2306      16.609683       1.96097
  27     28.12      245.2303        1.2675      259.5418      260.8092      15.578976       1.75213
  26     33.73      245.8074        1.5179      258.8983      260.4161      14.608735       1.45878
  25     40.54      246.3833        1.8206      258.2104      260.0310      13.647706       1.19227
  24     48.69      246.9595        2.1859      257.4677      259.6536      12.694127       0.98680
  23     57.69      247.4782        2.5875      256.7352      259.3226      11.844398       0.79649
  22     68.43      247.9727        3.0662      255.9515      259.0177      11.044966       0.62846
  21     81.20      248.3928        3.6374      255.1376      258.7749      10.382194       0.43795
  20     96.49      248.7361        4.3189      254.2781      258.5971       9.860968       0.28768
  19     114.6      249.0620        5.1280      253.3171      258.4451       9.383118       0.22312
  18     136.5      249.3927        6.0862      252.2185      258.3046       8.911921       0.18119
  17     162.9      249.7355        7.2259      250.9482      258.1741       8.438654       0.15128
  16     196.4      250.0704        8.7027      249.3794      258.0820       8.011667       0.10748
  15     218.7      250.2495        9.6715      248.3788      258.0502       7.800736       0.08008
  14     243.0      250.4249       10.7234      247.3059      258.0293       7.604411       0.06809
  13     269.0      250.5947       11.8621      246.1586      258.0208       7.426090       0.05785
  12     297.5      250.7586       13.0913      244.9337      258.0250       7.266383       0.04737
  11     328.5      250.9258       14.4176      243.6187      258.0364       7.110626       0.04235
  10     361.9      251.0961       15.8437      242.2114      258.0551       6.959021       0.03836
   9     398.1      251.2706       17.3762      240.7048      258.0810       6.810354       0.03464
   8     437.6      251.4521       19.0195      239.0929      258.1123       6.660256       0.03209
   7     480.5      251.6409       20.7781      237.3711      258.1492       6.508301       0.02984
   6     533.0      251.8694       22.9394      235.2567      258.1961       6.326699       0.02921
   5     589.8      252.1180       25.2651      232.9779      258.2430       6.124957       0.02995
   4     651.6      252.3999       27.7614      230.5185      258.2799       5.879963       0.03350
   3     718.7      252.7280       30.4351      227.8628      258.2980       5.569947       0.03896
   2     792.3      253.1337       33.2883      224.9872      258.2755       5.141740       0.04911
   1     891.5      253.8189       37.1200      221.0308      258.1509       4.331989       0.06891
   0    1013.0      254.8706       41.6912      216.1848      257.8760       3.005414       0.09211



 Wavenumbers: 22650. - 29000. cm-1, ATM      1
 LEVEL PRESSURE   UPWARD FLUX   DIFDOWN FLUX  DIRDOWN FLUX  DOWNWARD FLUX   NET FLUX    HEATING RATE
          mb          W/m2          W/m2          W/m2        W/m2          W/m2       degree/day
  51    .06700       98.8547        0.0000       99.5805       99.5805       0.725772       0.00000
  50    .07753       98.8547        0.0006       99.5799       99.5805       0.725772       0.00000
  49    .09103       98.8548        0.0013       99.5792       99.5805       0.725772      -0.00000
  48    0.1069       98.8548        0.0022       99.5784       99.5806       0.725772       0.00000
  47    0.1255       98.8549        0.0032       99.5775       99.5807       0.725772      -0.00000
  46    0.1487       98.8550        0.0044       99.5763       99.5807       0.725772       0.00000
  45    0.1794       98.8551        0.0061       99.5748       99.5809       0.725772       0.00000
  44    0.2165       98.8552        0.0081       99.5729       99.5810       0.725772       0.00000
  43    0.2613       98.8554        0.0105       99.5707       99.5811       0.725772       0.00000
  42    0.3336       98.8556        0.0144       99.5670       99.5814       0.725772       0.00000
  41    0.4307       98.8560        0.0196       99.5621       99.5817       0.725772       0.00000
  40    0.5894       98.8565        0.0281       99.5542       99.5823       0.725772      -0.00000
  39     1.339       98.8592        0.0683       99.5166       99.5849       0.725772       0.00000
  38     1.782       98.8607        0.0920       99.4945       99.5865       0.725772       0.00000
  37     2.292       98.8625        0.1193       99.4690       99.5883       0.725772      -0.00000
  36     2.964       98.8649        0.1552       99.4354       99.5907       0.725772       0.00000
  35     3.853       98.8680        0.2027       99.3911       99.5938       0.725772      -0.00000
  34     5.035       98.8721        0.2657       99.3322       99.5979       0.725772      -0.00000
  33     6.613       98.8777        0.3499       99.2535       99.6034       0.725772       0.00000
  32     8.786       98.8851        0.4633       99.1476       99.6109       0.725772       0.00000
  31     11.80       98.8958        0.6255       98.9960       99.6216       0.725772      -0.00000
  30     15.07       98.9072        0.7996       98.8334       99.6330       0.725772       0.00000
  29     18.79       98.9201        0.9961       98.6498       99.6459       0.725772       0.00000
  28     23.16       98.9352        1.2253       98.4356       99.6610       0.725772       0.00000
  27     28.12       98.9524        1.4872       98.1909       99.6782       0.725772      -0.00000
  26     33.73       98.9716        1.7799       97.9175       99.6974       0.725772       0.00000
  25     40.54       98.9948        2.1327       97.5878       99.7205       0.725772      -0.00000
  24     48.69       99.0226        2.5571       97.1913       99.7484       0.725772       0.00000
  23     57.69       99.0531        3.0219       96.7570       99.7789       0.725772       0.00000
  22     68.43       99.0893        3.5736       96.2415       99.8151       0.725772       0.00000
  21     81.20       99.1322        4.2279       95.6301       99.8580       0.725772      -0.00000
  20     96.49       99.1830        5.0034       94.9054       99.9088       0.725772       0.00000
  19     114.6       99.2429        5.9179       94.0508       99.9687       0.725772       0.00000
  18     136.5       99.3133        6.9933       93.0459      100.0391       0.725772       0.00000
  17     162.9       99.3963        8.2614       91.8607      100.1221       0.725772       0.00000
  16     196.4       99.5024        9.8856       90.3426      100.2282       0.725772      -0.00000
  15     218.7       99.5713       10.9400       89.3570      100.2971       0.725772       0.00000
  14     243.0       99.6454       12.0753       88.2958      100.3711       0.725772      -0.00000
  13     269.0       99.7247       13.2930       87.1575      100.4505       0.725772       0.00000
  12     297.5       99.8095       14.5944       85.9409      100.5352       0.725772       0.00000
  11     328.5       99.8999       15.9840       84.6416      100.6256       0.725772      -0.00000
  10     361.9       99.9959       17.4613       83.2604      100.7216       0.725772       0.00000
   9     398.1      100.0976       19.0295       81.7939      100.8234       0.725772      -0.00000
   8     437.6      100.2052       20.6891       80.2418      100.9309       0.725772       0.00000
   7     480.5      100.3185       22.4405       78.6038      101.0443       0.725772       0.00000
   6     533.0      100.4552       24.5580       76.6230      101.1810       0.725772       0.00000
   5     589.8      100.5994       26.7948       74.5303      101.3252       0.725772       0.00000
   4     651.6      100.7507       29.1488       72.3277      101.4765       0.725772      -0.00000
   3     718.7      100.9090       31.6175       70.0173      101.6348       0.725772      -0.00000
   2     792.3      101.0737       34.1949       67.6046      101.7995       0.725772       0.00000
   1     891.5      101.2886       37.5702       64.4441      102.0144       0.725772       0.00000
   0    1013.0      101.5354       41.4679       60.7932      102.2612       0.725772       0.00000



 Wavenumbers: 29000. - 38000. cm-1, ATM      1
 LEVEL PRESSURE   UPWARD FLUX   DIFDOWN FLUX  DIRDOWN FLUX  DOWNWARD FLUX   NET FLUX    HEATING RATE
          mb          W/m2          W/m2          W/m2        W/m2          W/m2       degree/day
  51    .06700       15.4286        0.0000       35.1162       35.1162      19.687583       0.00000
  50    .07753       15.4285        0.0004       35.1119       35.1123      19.683760       3.06366
  49    .09103       15.4283        0.0008       35.1057       35.1065      19.678197       3.47692
  48    0.1069       15.4282        0.0013       35.0976       35.0989      19.670746       3.96625
  47    0.1255       15.4280        0.0019       35.0868       35.0888      19.660774       4.52082
  46    0.1487       15.4278        0.0027       35.0712       35.0739      19.646087       5.35357
  45    0.1794       15.4276        0.0037       35.0470       35.0507      19.623171       6.29103
  44    0.2165       15.4273        0.0050       35.0146       35.0195      19.592197       7.04603
  43    0.2613       15.4271        0.0064       34.9711       34.9775      19.550392       7.88005
  42    0.3336       15.4268        0.0088       34.8897       34.8985      19.471682       9.17683
  41    0.4307       15.4266        0.0119       34.7698       34.7817      19.355062      10.13990
  40    0.5894       15.4266        0.0169       34.5489       34.5658      19.139188      11.47990
  39     1.339       15.4331        0.0388       33.1853       33.2241      17.790990      15.17825
  38     1.782       15.4411        0.0503       32.3007       32.3510      16.909904      16.77446
  37     2.292       15.4540        0.0629       31.3187       31.3817      15.927657      16.26858
  36     2.964       15.4764        0.0786       30.1831       30.2617      14.785373      14.33912
  35     3.853       15.5135        0.0985       28.9695       29.0679      13.554490      11.68130
  34     5.035       15.5702        0.1239       27.7467       27.8706      12.300386       8.95880
  33     6.613       15.6504        0.1570       26.5565       26.7135      11.063051       6.61480
  32     8.786       15.7564        0.2006       25.4315       25.6320       9.875692       4.61127
  31     11.80       15.8973        0.2617       24.3279       24.5896       8.692229       3.31332
  30     15.07       16.0369        0.3263       23.4834       23.8097       7.772817       2.37374
  29     18.79       16.1846        0.3981       22.7549       23.1530       6.968322       1.82404
  28     23.16       16.3460        0.4809       22.0882       22.5690       6.222990       1.44123
  27     28.12       16.5171        0.5745       21.4824       22.0569       5.539783       1.16141
  26     33.73       16.6848        0.6790       20.9522       21.6311       4.946284       0.89234
  25     40.54       16.8578        0.8050       20.4458       21.2508       4.392957       0.68646
  24     48.69       17.0372        0.9563       19.9504       20.9067       3.869459       0.54174
  23     57.69       17.2044        1.1221       19.5016       20.6238       3.419338       0.42192
  22     68.43       17.3684        1.3191       19.0552       20.3744       3.005922       0.32500
  21     81.20       17.5092        1.5550       18.6237       20.1787       2.669457       0.22233
  20     96.49       17.6231        1.8366       18.1945       20.0312       2.408101       0.14425
  19     114.6       17.7309        2.1669       17.7341       19.9011       2.170226       0.11107
  18     136.5       17.8415        2.5507       17.2273       19.7780       1.936525       0.08986
  17     162.9       17.9593        3.0052       16.6629       19.6681       1.708778       0.07280
  16     196.4       18.0710        3.5712       15.9953       19.5666       1.495545       0.05367
  15     218.7       18.1299        3.9351       15.5842       19.5194       1.389490       0.04026
  14     243.0       18.1872        4.3225       15.1546       19.4772       1.289980       0.03451
  13     269.0       18.2418        4.7333       14.7076       19.4409       1.199183       0.02945
  12     297.5       18.2931        5.1669       14.2440       19.4109       1.117854       0.02412
  11     328.5       18.3448        5.6225       13.7610       19.3835       1.038722       0.02152
  10     361.9       18.3968        6.0985       13.2605       19.3590       0.962214       0.01936
   9     398.1       18.4488        6.5948       12.7426       19.3374       0.888572       0.01716
   8     437.6       18.5016        7.1089       12.2091       19.3180       0.816358       0.01544
   7     480.5       18.5548        7.6403       11.6612       19.3015       0.746725       0.01368
   6     533.0       18.6161        8.2664       11.0192       19.2856       0.669450       0.01243
   5     589.8       18.6790        8.9085       10.3638       19.2722       0.593221       0.01131
   4     651.6       18.7439        9.5628        9.6984       19.2612       0.517291       0.01038
   3     718.7       18.8109       10.2252        9.0272       19.2525       0.441589       0.00951
   2     792.3       18.8801       10.8928        8.3535       19.2463       0.366191       0.00865
   1     891.5       18.9705       11.7267        7.5152       19.2419       0.271329       0.00807
   0    1013.0       19.0769       12.6350        6.6061       19.2412       0.164326       0.00743



 Wavenumbers: 38000. - 50000. cm-1, ATM      1
 LEVEL PRESSURE   UPWARD FLUX   DIFDOWN FLUX  DIRDOWN FLUX  DOWNWARD FLUX   NET FLUX    HEATING RATE
          mb          W/m2          W/m2          W/m2        W/m2          W/m2       degree/day
  51    .06700        0.0072        0.0000        2.1659        2.1659       2.158735       0.00000
  50    .07753        0.0072        0.0001        2.1635        2.1635       2.156398       1.87347
  49    .09103        0.0071        0.0002        2.1600        2.1601       2.153059       2.08688
  48    0.1069        0.0070        0.0002        2.1554        2.1557       2.148665       2.33901
  47    0.1255        0.0069        0.0004        2.1494        2.1498       2.142878       2.62370
  46    0.1487        0.0068        0.0005        2.1408        2.1413       2.134481       3.06055
  45    0.1794        0.0067        0.0007        2.1275        2.1282       2.121551       3.54978
  44    0.2165        0.0065        0.0009        2.1099        2.1108       2.104305       3.92317
  43    0.2613        0.0063        0.0011        2.0865        2.0876       2.081345       4.32773
  42    0.3336        0.0060        0.0015        2.0433        2.0448       2.038825       4.95740
  41    0.4307        0.0056        0.0020        1.9807        1.9827       1.977108       5.36616
  40    0.5894        0.0051        0.0027        1.8688        1.8715       1.866443       5.88502
  39     1.339        0.0033        0.0040        1.2620        1.2660       1.262726       6.79676
  38     1.782        0.0026        0.0038        0.9454        0.9492       0.946622       6.01811
  37     2.292        0.0020        0.0033        0.6659        0.6692       0.667180       4.62829
  36     2.964        0.0015        0.0027        0.4331        0.4359       0.434336       2.92289
  35     3.853        0.0011        0.0022        0.2712        0.2734       0.272217       1.53854
  34     5.035        0.0009        0.0017        0.1671        0.1689       0.168005       0.74445
  33     6.613        0.0006        0.0013        0.1018        0.1032       0.102517       0.35010
  32     8.786        0.0005        0.0011        0.0621        0.0631       0.062658       0.15480
  31     11.80        0.0003        0.0008        0.0361        0.0369       0.036601       0.07295
  30     15.07        0.0002        0.0006        0.0222        0.0227       0.022535       0.03632
  29     18.79        0.0001        0.0004        0.0135        0.0139       0.013785       0.01984
  28     23.16        0.0001        0.0003        0.0080        0.0083       0.008179       0.01084
  27     28.12        0.0001        0.0002        0.0046        0.0048       0.004749       0.00583
  26     33.73        0.0000        0.0001        0.0027        0.0028       0.002762       0.00299
  25     40.54        0.0000        0.0001        0.0015        0.0016       0.001538       0.00152
  24     48.69        0.0000        0.0000        0.0008        0.0008       0.000809       0.00075
  23     57.69        0.0000        0.0000        0.0004        0.0004       0.000422       0.00036
  22     68.43        0.0000        0.0000        0.0002        0.0002       0.000206       0.00017
  21     81.20        0.0000        0.0000        0.0001        0.0001       0.000094       0.00007
  20     96.49        0.0000        0.0000        0.0000        0.0000       0.000039       0.00003
  19     114.6        0.0000        0.0000        0.0000        0.0000       0.000014       0.00001
  18     136.5        0.0000        0.0000        0.0000        0.0000       0.000004       0.00000
  17     162.9        0.0000        0.0000        0.0000        0.0000       0.000001       0.00000
  16     196.4        0.0000        0.0000        0.0000        0.0000       0.000000       0.00000
  15     218.7        0.0000        0.0000        0.0000        0.0000       0.000000       0.00000
  14     243.0        0.0000        0.0000        0.0000        0.0000       0.000000       0.00000
  13     269.0        0.0000        0.0000        0.0000        0.0000       0.000000       0.00000
  12     297.5        0.0000        0.0000        0.0000        0.0000       0.000000       0.00000
  11     328.5        0.0000        0.0000        0.0000        0.0000       0.000000       0.00000
  10     361.9        0.0000        0.0000        0.0000        0.0000       0.000000       0.00000
   9     398.1        0.0000        0.0000        0.0000        0.0000       0.000000       0.00000
   8     437.6        0.0000        0.0000        0.0000        0.0000       0.000000       0.00000
   7     480.5        0.0000        0.0000        0.0000        0.0000       0.000000       0.00000
   6     533.0        0.0000        0.0000        0.0000        0.0000       0.000000       0.00000
   5     589.8        0.0000        0.0000        0.0000        0.0000       0.000000       0.00000
   4     651.6        0.0000        0.0000        0.0000        0.0000       0.000000       0.00000
   3     718.7        0.0000        0.0000        0.0000        0.0000       0.000000       0.00000
   2     792.3        0.0000        0.0000        0.0000        0.0000       0.000000       0.00000
   1     891.5        0.0000        0.0000        0.0000        0.0000       0.000000       0.00000
   0    1013.0        0.0000        0.0000        0.0000        0.0000       0.000000       0.00000



 Wavenumbers:   820. -  2600. cm-1, ATM      1
 LEVEL PRESSURE   UPWARD FLUX   DIFDOWN FLUX  DIRDOWN FLUX  DOWNWARD FLUX   NET FLUX    HEATING RATE
          mb          W/m2          W/m2          W/m2        W/m2          W/m2       degree/day
  51    .06700        0.0106        0.0000       10.1320       10.1320      10.121375       0.00000
  50    .07753        0.0106        0.0000       10.1262       10.1262      10.115574       4.64887
  49    .09103        0.0106        0.0000       10.1250       10.1250      10.114405       0.73099
  48    0.1069        0.0106        0.0000       10.1240       10.1240      10.113338       0.56786
  47    0.1255        0.0106        0.0000       10.1227       10.1227      10.112097       0.56290
  46    0.1487        0.0106        0.0000       10.1211       10.1211      10.110525       0.57299
  45    0.1794        0.0106        0.0000       10.1190       10.1190      10.108426       0.57620
  44    0.2165        0.0106        0.0000       10.1167       10.1167      10.106052       0.53994
  43    0.2613        0.0106        0.0000       10.1140       10.1140      10.103416       0.49696
  42    0.3336        0.0106        0.0000       10.1101       10.1101      10.099479       0.45901
  41    0.4307        0.0106        0.0000       10.1055       10.1055      10.094902       0.39790
  40    0.5894        0.0106        0.0000       10.0988       10.0988      10.088211       0.35585
  39     1.339        0.0106        0.0000       10.0689       10.0689      10.058263       0.33716
  38     1.782        0.0106        0.0000       10.0519       10.0519      10.041256       0.32378
  37     2.292        0.0106        0.0000       10.0329       10.0329      10.022233       0.31507
  36     2.964        0.0106        0.0000       10.0086       10.0086       9.998004       0.30415
  35     3.853        0.0106        0.0000        9.9776        9.9776       9.966994       0.29430
  34     5.035        0.0106        0.0000        9.9383        9.9383       9.927650       0.28106
  33     6.613        0.0106        0.0000        9.8890        9.8890       9.878359       0.26351
  32     8.786        0.0106        0.0000        9.8268        9.8268       9.816145       0.24162
  31     11.80        0.0106        0.0000        9.7442        9.7442       9.733550       0.23124
  30     15.07        0.0106        0.0000        9.6650        9.6650       9.654406       0.20433
  29     18.79        0.0106        0.0000        9.5902        9.5902       9.579567       0.16968
  28     23.16        0.0106        0.0000        9.5227        9.5228       9.512135       0.13039
  27     28.12        0.0106        0.0000        9.4675        9.4675       9.456930       0.09385
  26     33.73        0.0106        0.0000        9.4246        9.4246       9.413987       0.06457
  25     40.54        0.0106        0.0000        9.3871        9.3871       9.376461       0.04655
  24     48.69        0.0106        0.0000        9.3504        9.3504       9.339831       0.03791
  23     57.69        0.0106        0.0000        9.3131        9.3131       9.302485       0.03501
  22     68.43        0.0106        0.0000        9.2694        9.2694       9.258830       0.03432
  21     81.20        0.0106        0.0000        9.2185        9.2185       9.207880       0.03367
  20     96.49        0.0106        0.0000        9.1586        9.1586       9.148004       0.03305
  19     114.6        0.0106        0.0000        9.0877        9.0877       9.077115       0.03310
  18     136.5        0.0106        0.0000        9.0044        9.0044       8.993819       0.03203
  17     162.9        0.0106        0.0000        8.8974        8.8975       8.886855       0.03419
  16     196.4        0.0106        0.0000        8.7288        8.7288       8.718192       0.04245
  15     218.7        0.0106        0.0000        8.5667        8.5667       8.556074       0.06155
  14     243.0        0.0106        0.0000        8.3177        8.3178       8.307163       0.08633
  13     269.0        0.0106        0.0000        7.9976        7.9976       7.987006       0.10386
  12     297.5        0.0106        0.0000        7.6562        7.6562       7.645588       0.10126
  11     328.5        0.0106        0.0000        7.3528        7.3528       7.342218       0.08249
  10     361.9        0.0106        0.0000        7.0238        7.0238       7.013201       0.08324
   9     398.1        0.0107        0.0000        6.6380        6.6381       6.627407       0.08988
   8     437.6        0.0107        0.0000        6.2154        6.2155       6.204774       0.09036
   7     480.5        0.0107        0.0000        5.8276        5.8276       5.816883       0.07618
   6     533.0        0.0108        0.0000        5.4874        5.4874       5.476666       0.05473
   5     589.8        0.0109        0.0000        5.2400        5.2401       5.229200       0.03673
   4     651.6        0.0110        0.0000        4.9860        4.9860       4.975042       0.03476
   3     718.7        0.0112        0.0000        4.6749        4.6749       4.663687       0.03913
   2     792.3        0.0117        0.0000        4.3033        4.3034       4.291653       0.04267
   1     891.5        0.0129        0.0000        3.7966        3.7967       3.783790       0.04322
   0    1013.0        0.0160        0.0000        3.1910        3.1911       3.175129       0.04226

  Modules and versions used in this calculation:

       rrtmg_sw.1col.f90:  $Revision$                    rrtmg_sw_init.f90:  $Revision$        
     rrtmgsw_cldprop.f90:  $Revision$                  rrtmgsw_cldprmc.f90:  NOT USED          
     rrtmg_sw_reftra.f90:  $Revision$                  rrtmg_sw_spcvrt.f90:  NOT USED          
     rrtmg_sw_spcvmc.f90:  NOT USED                    rrtmgsw_setcoef.f90:  NOT USED          
     rrtmg_sw_taumol.f90:  $Revision$                  rrtmg_sw_vrtqdr.f90:  NOT USED          
                rrtatm.f:  NOT USED                             util_xxx.f:  NOT USED          
                 extra.f:  NOT USED                       rrtmg_sw_k_g.f90:  $Revision$        

