

 Wavenumbers:   820. - 50000. cm-1, ATM      1
 LEVEL PRESSURE   UPWARD FLUX   DIFDOWN FLUX  DIRDOWN FLUX  DOWNWARD FLUX   NET FLUX    HEATING RATE
          mb          W/m2          W/m2          W/m2        W/m2          W/m2       degree/day
  51    .06700      292.6519        0.0000      465.4378      465.4378     172.785891       0.00000
  50    .07753      292.6514        0.0012      465.4211      465.4224     172.770953      11.97315
  49    .09103      292.6508        0.0028      465.4049      465.4076     172.756866       8.80478
  48    0.1069      292.6501        0.0046      465.3857      465.3903     172.740191       8.87616
  47    0.1255      292.6493        0.0066      465.3621      465.3687     172.719403       9.42417
  46    0.1487      292.6484        0.0092      465.3296      465.3388     172.690459      10.55042
  45    0.1794      292.6471        0.0127      465.2818      465.2946     172.647408      11.81862
  44    0.2165      292.6458        0.0169      465.2206      465.2375     172.591732      12.66536
  43    0.2613      292.6443        0.0218      465.1420      465.1638     172.519509      13.61362
  42    0.3336      292.6421        0.0299      465.0013      465.0312     172.389129      15.20103
  41    0.4307      292.6395        0.0405      464.8038      464.8443     172.204807      16.02640
  40    0.5894      292.6359        0.0575      464.4643      464.5219     171.885931      16.95741
  39     1.339      292.6330        0.1343      462.8338      462.9681     170.335046      17.46015
  38     1.782      292.6407        0.1773      462.0438      462.2211     169.580403      14.36719
  37     2.292      292.6579        0.2263      461.2818      461.5082     168.850245      12.09331
  36     2.964      292.6930        0.2900      460.4365      460.7265     168.033494      10.25269
  35     3.853      292.7567        0.3734      459.4791      459.8524     167.095693       8.89991
  34     5.035      292.8585        0.4832      458.4036      458.8867     166.028241       7.62543
  33     6.613      293.0037        0.6287      457.2028      457.8315     164.827795       6.41759
  32     8.786      293.1920        0.8237      455.8571      456.6808     163.488768       5.20030
  31     11.80      293.4311        1.1007      454.2619      455.3626     161.931443       4.36002
  30     15.07      293.6526        1.3960      452.8021      454.1981     160.545448       3.57837
  29     18.79      293.8714        1.7275      451.3390      453.0665     159.195088       3.06168
  28     23.16      294.0906        2.1121      449.8027      451.9148     157.824177       2.65090
  27     28.12      294.2989        2.5489      448.2143      450.7632     156.464315       2.31167
  26     33.73      294.4700        3.0350      446.6303      449.6653     155.195296       1.90800
  25     40.54      294.6047        3.6188      444.9202      448.5390     153.934276       1.56444
  24     48.69      294.6978        4.3177      443.0520      447.3697     152.671946       1.30631
  23     57.69      294.7331        5.0797      441.1757      446.2554     151.522299       1.07762
  22     68.43      294.7032        5.9800      439.1220      445.1020     150.398850       0.88318
  21     81.20      294.5677        7.0439      436.9057      443.9496     149.381881       0.67200
  20     96.49      294.3151        8.2989      434.4850      442.7839     148.468767       0.50397
  19     114.6      293.9837        9.7694      431.7422      441.5116     147.527921       0.43931
  18     136.5      293.5653       11.4838      428.6266      440.1104     146.545072       0.37793
  17     162.9      293.0485       13.4853      425.0248      438.5101     145.461591       0.34632
  16     196.4      292.3296       16.0213      420.4378      436.4591     144.129521       0.33530
  15     218.7      291.8444       17.6515      417.2160      434.8675     143.023071       0.42008
  14     243.0      291.3167       19.3916      413.3114      432.7029     141.386213       0.56772
  13     269.0      290.7461       21.2416      408.5068      429.7484     139.002352       0.77331
  12     297.5      290.1343       23.2004      402.8649      426.0653     135.930952       0.91094
  11     328.5      289.4865       25.2711      396.8076      422.0787     132.592212       0.90779
  10     361.9      288.8060       27.4490      390.2603      417.7093     128.903328       0.93332
   9     398.1      288.0950       29.7363      383.1221      412.8584     124.763403       0.96451
   8     437.6      287.3614       32.1283      375.3791      407.5074     120.145905       0.98725
   7     480.5      286.6114       34.6229      367.1710      401.7939     115.182508       0.97479
   6     533.0      285.7484       37.5984      357.2143      394.8127     109.064324       0.98422
   5     589.8      284.9130       40.6937      346.5206      387.2143     102.301362       1.00385
   4     651.6      284.1797       43.8966      334.6634      378.5600      94.380304       1.08323
   3     718.7      283.6302       47.1959      322.0113      369.2071      85.576960       1.10634
   2     792.3      283.4536       50.5705      308.3300      358.9005      75.446839       1.16181
   1     891.5      284.2191       54.8777      290.0427      344.9204      60.701369       1.25477
   0    1013.0      287.4723       59.7054      269.6990      329.4044      41.932073       1.30325



 Wavenumbers:  2600. -  3250. cm-1, ATM      1
 LEVEL PRESSURE   UPWARD FLUX   DIFDOWN FLUX  DIRDOWN FLUX  DOWNWARD FLUX   NET FLUX    HEATING RATE
          mb          W/m2          W/m2          W/m2        W/m2          W/m2       degree/day
  51    .06700        0.7763        0.0000        4.1021        4.1021       3.325835       0.00000
  50    .07753        0.7763        0.0000        4.1021        4.1021       3.325827       0.00640
  49    .09103        0.7763        0.0000        4.1021        4.1021       3.325817       0.00627
  48    0.1069        0.7763        0.0000        4.1021        4.1021       3.325806       0.00613
  47    0.1255        0.7763        0.0000        4.1021        4.1021       3.325793       0.00599
  46    0.1487        0.7763        0.0000        4.1020        4.1020       3.325776       0.00607
  45    0.1794        0.7763        0.0000        4.1020        4.1020       3.325753       0.00624
  44    0.2165        0.7763        0.0000        4.1020        4.1020       3.325726       0.00611
  43    0.2613        0.7763        0.0000        4.1020        4.1020       3.325695       0.00599
  42    0.3336        0.7763        0.0000        4.1019        4.1019       3.325642       0.00616
  41    0.4307        0.7763        0.0000        4.1018        4.1018       3.325571       0.00619
  40    0.5894        0.7763        0.0000        4.1017        4.1017       3.325451       0.00635
  39     1.339        0.7763        0.0000        4.1010        4.1010       3.324749       0.00791
  38     1.782        0.7763        0.0000        4.1005        4.1005       3.324213       0.01020
  37     2.292        0.7763        0.0000        4.0998        4.0998       3.323511       0.01163
  36     2.964        0.7763        0.0000        4.0988        4.0988       3.322502       0.01267
  35     3.853        0.7763        0.0000        4.0973        4.0973       3.321082       0.01348
  34     5.035        0.7763        0.0000        4.0954        4.0954       3.319144       0.01385
  33     6.613        0.7763        0.0000        4.0928        4.0928       3.316594       0.01363
  32     8.786        0.7763        0.0000        4.0896        4.0896       3.313375       0.01250
  31     11.80        0.7763        0.0000        4.0856        4.0856       3.309327       0.01133
  30     15.07        0.7763        0.0000        4.0819        4.0819       3.305661       0.00947
  29     18.79        0.7763        0.0000        4.0784        4.0784       3.302167       0.00792
  28     23.16        0.7763        0.0000        4.0748        4.0748       3.298576       0.00694
  27     28.12        0.7763        0.0000        4.0709        4.0709       3.294683       0.00662
  26     33.73        0.7763        0.0000        4.0663        4.0663       3.290023       0.00701
  25     40.54        0.7763        0.0000        4.0598        4.0598       3.283538       0.00805
  24     48.69        0.7763        0.0000        4.0507        4.0507       3.274455       0.00940
  23     57.69        0.7763        0.0000        4.0394        4.0394       3.263125       0.01062
  22     68.43        0.7763        0.0000        4.0246        4.0246       3.248339       0.01162
  21     81.20        0.7763        0.0000        4.0060        4.0061       3.229772       0.01227
  20     96.49        0.7763        0.0000        3.9836        3.9836       3.207274       0.01242
  19     114.6        0.7763        0.0000        3.9568        3.9568       3.180495       0.01250
  18     136.5        0.7764        0.0001        3.9269        3.9270       3.150603       0.01149
  17     162.9        0.7765        0.0001        3.8947        3.8947       3.118277       0.01033
  16     196.4        0.7766        0.0001        3.8578        3.8579       3.081309       0.00931
  15     218.7        0.7767        0.0001        3.8340        3.8341       3.057394       0.00908
  14     243.0        0.7770        0.0001        3.8054        3.8055       3.028486       0.01003
  13     269.0        0.7773        0.0001        3.7697        3.7698       2.992407       0.01170
  12     297.5        0.7779        0.0001        3.7239        3.7240       2.946049       0.01375
  11     328.5        0.7787        0.0001        3.6671        3.6672       2.888528       0.01564
  10     361.9        0.7798        0.0001        3.5953        3.5954       2.815629       0.01844
   9     398.1        0.7812        0.0001        3.5033        3.5034       2.722242       0.02176
   8     437.6        0.7831        0.0002        3.3873        3.3875       2.604317       0.02521
   7     480.5        0.7858        0.0002        3.2482        3.2484       2.462622       0.02783
   6     533.0        0.7899        0.0002        3.0676        3.0678       2.277885       0.02972
   5     589.8        0.7960        0.0002        2.8669        2.8671       2.071083       0.03070
   4     651.6        0.8056        0.0002        2.6417        2.6419       1.836325       0.03210
   3     718.7        0.8203        0.0002        2.3961        2.3963       1.575974       0.03272
   2     792.3        0.8442        0.0002        2.1186        2.1188       1.274596       0.03456
   1     891.5        0.8975        0.0002        1.7556        1.7558       0.858310       0.03542
   0    1013.0        1.0167        0.0002        1.3878        1.3880       0.371267       0.03382



 Wavenumbers:  3250. -  4000. cm-1, ATM      1
 LEVEL PRESSURE   UPWARD FLUX   DIFDOWN FLUX  DIRDOWN FLUX  DOWNWARD FLUX   NET FLUX    HEATING RATE
          mb          W/m2          W/m2          W/m2        W/m2          W/m2       degree/day
  51    .06700        0.0005        0.0000        6.9155        6.9155       6.915068       0.00000
  50    .07753        0.0005        0.0000        6.9111        6.9111       6.910619       3.56575
  49    .09103        0.0005        0.0000        6.9083        6.9083       6.907852       1.72992
  48    0.1069        0.0005        0.0000        6.9062        6.9062       6.905771       1.10751
  47    0.1255        0.0005        0.0000        6.9043        6.9043       6.903838       0.87619
  46    0.1487        0.0005        0.0000        6.9022        6.9022       6.901743       0.76375
  45    0.1794        0.0005        0.0000        6.8998        6.8998       6.899323       0.66426
  44    0.2165        0.0005        0.0000        6.8974        6.8974       6.896921       0.54660
  43    0.2613        0.0005        0.0000        6.8949        6.8949       6.894482       0.45964
  42    0.3336        0.0005        0.0000        6.8914        6.8914       6.890980       0.40829
  41    0.4307        0.0005        0.0000        6.8873        6.8873       6.886818       0.36189
  40    0.5894        0.0005        0.0000        6.8810        6.8810       6.880537       0.33402
  39     1.339        0.0005        0.0000        6.8581        6.8581       6.857665       0.25750
  38     1.782        0.0005        0.0000        6.8486        6.8486       6.848172       0.18073
  37     2.292        0.0005        0.0000        6.8395        6.8395       6.839083       0.15054
  36     2.964        0.0005        0.0000        6.8291        6.8291       6.828614       0.13141
  35     3.853        0.0005        0.0000        6.8161        6.8162       6.815697       0.12258
  34     5.035        0.0005        0.0000        6.7993        6.7993       6.798824       0.12053
  33     6.613        0.0005        0.0000        6.7765        6.7765       6.776009       0.12197
  32     8.786        0.0004        0.0000        6.7447        6.7447       6.744246       0.12336
  31     11.80        0.0004        0.0000        6.6981        6.6981       6.697649       0.13046
  30     15.07        0.0004        0.0000        6.6475        6.6475       6.647095       0.13052
  29     18.79        0.0004        0.0000        6.5911        6.5911       6.590713       0.12783
  28     23.16        0.0004        0.0000        6.5284        6.5284       6.527978       0.12131
  27     28.12        0.0004        0.0000        6.4623        6.4624       6.461958       0.11223
  26     33.73        0.0004        0.0000        6.3962        6.3963       6.395842       0.09941
  25     40.54        0.0004        0.0001        6.3247        6.3248       6.324375       0.08866
  24     48.69        0.0004        0.0001        6.2464        6.2465       6.246117       0.08098
  23     57.69        0.0004        0.0001        6.1647        6.1648       6.164417       0.07658
  22     68.43        0.0004        0.0001        6.0695        6.0696       6.069243       0.07482
  21     81.20        0.0004        0.0001        5.9584        5.9585       5.958143       0.07341
  20     96.49        0.0003        0.0001        5.8316        5.8318       5.831434       0.06993
  19     114.6        0.0003        0.0001        5.6847        5.6848       5.684520       0.06860
  18     136.5        0.0003        0.0002        5.5264        5.5266       5.526283       0.06085
  17     162.9        0.0003        0.0002        5.3446        5.3448       5.344520       0.05810
  16     196.4        0.0002        0.0002        5.0872        5.0875       5.087235       0.06476
  15     218.7        0.0002        0.0002        4.8533        4.8535       4.853284       0.08882
  14     243.0        0.0002        0.0002        4.5466        4.5469       4.546670       0.10634
  13     269.0        0.0002        0.0003        4.1593        4.1596       4.159409       0.12563
  12     297.5        0.0001        0.0002        3.6940        3.6943       3.694137       0.13799
  11     328.5        0.0001        0.0002        3.2241        3.2244       3.224234       0.12777
  10     361.9        0.0001        0.0002        2.7897        2.7899       2.789789       0.10992
   9     398.1        0.0001        0.0002        2.3982        2.3984       2.398327       0.09120
   8     437.6        0.0001        0.0002        2.0396        2.0398       2.039768       0.07666
   7     480.5        0.0001        0.0002        1.7149        1.7151       1.715004       0.06378
   6     533.0        0.0000        0.0002        1.3713        1.3715       1.371436       0.05527
   5     589.8        0.0000        0.0002        1.0426        1.0428       1.042751       0.04879
   4     651.6        0.0000        0.0001        0.7086        0.7087       0.708712       0.04568
   3     718.7        0.0000        0.0001        0.4224        0.4225       0.422428       0.03598
   2     792.3        0.0000        0.0001        0.1980        0.1981       0.198027       0.02574
   1     891.5        0.0001        0.0000        0.0382        0.0382       0.038141       0.01361
   0    1013.0        0.0010        0.0000        0.0014        0.0014       0.000372       0.00262



 Wavenumbers:  4000. -  4650. cm-1, ATM      1
 LEVEL PRESSURE   UPWARD FLUX   DIFDOWN FLUX  DIRDOWN FLUX  DOWNWARD FLUX   NET FLUX    HEATING RATE
          mb          W/m2          W/m2          W/m2        W/m2          W/m2       degree/day
  51    .06700        3.3012        0.0000        8.1209        8.1209       4.819710       0.00000
  50    .07753        3.3012        0.0000        8.1209        8.1209       4.819709       0.00080
  49    .09103        3.3012        0.0000        8.1209        8.1209       4.819708       0.00078
  48    0.1069        3.3012        0.0000        8.1209        8.1209       4.819707       0.00076
  47    0.1255        3.3012        0.0000        8.1209        8.1209       4.819705       0.00075
  46    0.1487        3.3012        0.0000        8.1209        8.1209       4.819703       0.00076
  45    0.1794        3.3012        0.0000        8.1209        8.1209       4.819700       0.00078
  44    0.2165        3.3012        0.0000        8.1209        8.1209       4.819697       0.00076
  43    0.2613        3.3012        0.0000        8.1209        8.1209       4.819693       0.00075
  42    0.3336        3.3012        0.0000        8.1209        8.1209       4.819686       0.00077
  41    0.4307        3.3012        0.0000        8.1209        8.1209       4.819677       0.00077
  40    0.5894        3.3012        0.0000        8.1209        8.1209       4.819662       0.00080
  39     1.339        3.3012        0.0000        8.1208        8.1208       4.819573       0.00101
  38     1.782        3.3012        0.0000        8.1207        8.1207       4.819503       0.00133
  37     2.292        3.3012        0.0000        8.1206        8.1206       4.819409       0.00156
  36     2.964        3.3012        0.0000        8.1205        8.1205       4.819269       0.00176
  35     3.853        3.3012        0.0000        8.1202        8.1203       4.819061       0.00197
  34     5.035        3.3012        0.0000        8.1199        8.1200       4.818755       0.00219
  33     6.613        3.3012        0.0000        8.1195        8.1195       4.818304       0.00241
  32     8.786        3.3012        0.0000        8.1188        8.1188       4.817639       0.00258
  31     11.80        3.3012        0.0001        8.1177        8.1178       4.816596       0.00292
  30     15.07        3.3012        0.0001        8.1165        8.1165       4.815375       0.00315
  29     18.79        3.3012        0.0001        8.1150        8.1151       4.813901       0.00334
  28     23.16        3.3012        0.0001        8.1131        8.1132       4.812075       0.00353
  27     28.12        3.3011        0.0001        8.1109        8.1110       4.809871       0.00375
  26     33.73        3.3011        0.0001        8.1082        8.1083       4.807161       0.00408
  25     40.54        3.3011        0.0002        8.1045        8.1046       4.803497       0.00454
  24     48.69        3.3011        0.0002        8.0996        8.0998       4.798637       0.00503
  23     57.69        3.3011        0.0002        8.0938        8.0940       4.792902       0.00538
  22     68.43        3.3011        0.0003        8.0866        8.0869       4.785751       0.00562
  21     81.20        3.3012        0.0003        8.0778        8.0781       4.776978       0.00580
  20     96.49        3.3012        0.0004        8.0671        8.0676       4.766348       0.00587
  19     114.6        3.3013        0.0005        8.0539        8.0544       4.753134       0.00617
  18     136.5        3.3014        0.0006        8.0381        8.0387       4.737277       0.00610
  17     162.9        3.3016        0.0007        8.0188        8.0195       4.717920       0.00619
  16     196.4        3.3020        0.0008        7.9925        7.9933       4.691351       0.00669
  15     218.7        3.3024        0.0009        7.9728        7.9737       4.671328       0.00760
  14     243.0        3.3030        0.0010        7.9473        7.9483       4.645338       0.00901
  13     269.0        3.3039        0.0011        7.9135        7.9146       4.610729       0.01123
  12     297.5        3.3053        0.0012        7.8686        7.8698       4.564497       0.01371
  11     328.5        3.3073        0.0014        7.8113        7.8126       4.505320       0.01609
  10     361.9        3.3099        0.0015        7.7380        7.7395       4.429595       0.01916
   9     398.1        3.3132        0.0016        7.6465        7.6481       4.334947       0.02205
   8     437.6        3.3172        0.0018        7.5354        7.5371       4.219929       0.02459
   7     480.5        3.3222        0.0019        7.4096        7.4115       4.089308       0.02565
   6     533.0        3.3296        0.0021        7.2517        7.2538       3.924158       0.02657
   5     589.8        3.3398        0.0023        7.0689        7.0712       3.731374       0.02862
   4     651.6        3.3552        0.0024        6.8250        6.8274       3.472187       0.03544
   3     718.7        3.3789        0.0026        6.5070        6.5096       3.130750       0.04291
   2     792.3        3.4175        0.0028        6.1233        6.1261       2.708577       0.04842
   1     891.5        3.5051        0.0029        5.6154        5.6183       2.113189       0.05066
   0    1013.0        3.7029        0.0031        5.0519        5.0549       1.352000       0.05285



 Wavenumbers:  4650. -  5150. cm-1, ATM      1
 LEVEL PRESSURE   UPWARD FLUX   DIFDOWN FLUX  DIRDOWN FLUX  DOWNWARD FLUX   NET FLUX    HEATING RATE
          mb          W/m2          W/m2          W/m2        W/m2          W/m2       degree/day
  51    .06700        2.2926        0.0000        7.6868        7.6868       5.394234       0.00000
  50    .07753        2.2926        0.0000        7.6866        7.6866       5.393998       0.18887
  49    .09103        2.2926        0.0000        7.6863        7.6863       5.393704       0.18383
  48    0.1069        2.2926        0.0000        7.6860        7.6860       5.393369       0.17851
  47    0.1255        2.2926        0.0000        7.6856        7.6856       5.392987       0.17309
  46    0.1487        2.2926        0.0000        7.6851        7.6851       5.392510       0.17371
  45    0.1794        2.2926        0.0000        7.6845        7.6845       5.391869       0.17620
  44    0.2165        2.2926        0.0000        7.6837        7.6837       5.391122       0.16980
  43    0.2613        2.2926        0.0000        7.6829        7.6829       5.390256       0.16319
  42    0.3336        2.2926        0.0000        7.6815        7.6815       5.388866       0.16213
  41    0.4307        2.2926        0.0000        7.6797        7.6797       5.387098       0.15374
  40    0.5894        2.2926        0.0000        7.6770        7.6770       5.384378       0.14462
  39     1.339        2.2926        0.0000        7.6665        7.6665       5.373915       0.11779
  38     1.782        2.2926        0.0000        7.6618        7.6618       5.369217       0.08946
  37     2.292        2.2926        0.0000        7.6574        7.6574       5.364777       0.07353
  36     2.964        2.2926        0.0000        7.6527        7.6527       5.360159       0.05797
  35     3.853        2.2926        0.0000        7.6481        7.6481       5.355494       0.04427
  34     5.035        2.2926        0.0000        7.6434        7.6434       5.350807       0.03348
  33     6.613        2.2926        0.0000        7.6384        7.6384       5.345871       0.02639
  32     8.786        2.2926        0.0001        7.6325        7.6326       5.340028       0.02269
  31     11.80        2.2926        0.0001        7.6242        7.6243       5.331747       0.02318
  30     15.07        2.2926        0.0001        7.6147        7.6148       5.322247       0.02453
  29     18.79        2.2925        0.0001        7.6030        7.6031       5.310561       0.02649
  28     23.16        2.2925        0.0001        7.5881        7.5882       5.295696       0.02875
  27     28.12        2.2926        0.0002        7.5697        7.5698       5.277281       0.03130
  26     33.73        2.2926        0.0002        7.5476        7.5478       5.255228       0.03316
  25     40.54        2.2926        0.0003        7.5194        7.5196       5.227053       0.03495
  24     48.69        2.2926        0.0003        7.4840        7.4843       5.191656       0.03663
  23     57.69        2.2926        0.0004        7.4443        7.4447       5.152046       0.03713
  22     68.43        2.2927        0.0004        7.3976        7.3980       5.105265       0.03678
  21     81.20        2.2928        0.0005        7.3437        7.3442       5.051362       0.03562
  20     96.49        2.2930        0.0006        7.2837        7.2843       4.991347       0.03312
  19     114.6        2.2932        0.0007        7.2191        7.2198       4.926611       0.03023
  18     136.5        2.2935        0.0008        7.1512        7.1520       4.858477       0.02620
  17     162.9        2.2940        0.0010        7.0795        7.0805       4.786446       0.02302
  16     196.4        2.2948        0.0012        6.9952        6.9963       4.701586       0.02136
  15     218.7        2.2954        0.0013        6.9411        6.9424       4.647015       0.02072
  14     243.0        2.2962        0.0014        6.8804        6.8818       4.585602       0.02130
  13     269.0        2.2974        0.0015        6.8096        6.8111       4.513744       0.02331
  12     297.5        2.2991        0.0017        6.7236        6.7253       4.426142       0.02598
  11     328.5        2.3014        0.0019        6.6227        6.6245       4.323127       0.02801
  10     361.9        2.3044        0.0020        6.5049        6.5069       4.202549       0.03051
   9     398.1        2.3082        0.0022        6.3674        6.3696       4.061383       0.03289
   8     437.6        2.3133        0.0024        6.2086        6.2110       3.897703       0.03500
   7     480.5        2.3198        0.0025        6.0283        6.0308       3.711066       0.03665
   6     533.0        2.3296        0.0027        5.7965        5.7992       3.469626       0.03884
   5     589.8        2.3431        0.0029        5.5388        5.5417       3.198561       0.04023
   4     651.6        2.3628        0.0031        5.2490        5.2521       2.889282       0.04229
   3     718.7        2.3916        0.0033        4.9365        4.9398       2.548141       0.04287
   2     792.3        2.4349        0.0034        4.6033        4.6067       2.171796       0.04316
   1     891.5        2.5236        0.0036        4.1613        4.1648       1.641253       0.04515
   0    1013.0        2.6972        0.0037        3.6781        3.6818       0.984659       0.04559



 Wavenumbers:  5150. -  6150. cm-1, ATM      1
 LEVEL PRESSURE   UPWARD FLUX   DIFDOWN FLUX  DIRDOWN FLUX  DOWNWARD FLUX   NET FLUX    HEATING RATE
          mb          W/m2          W/m2          W/m2        W/m2          W/m2       degree/day
  51    .06700        6.0504        0.0000       19.2709       19.2709      13.220496       0.00000
  50    .07753        6.0504        0.0000       19.2709       19.2709      13.220457       0.03158
  49    .09103        6.0504        0.0000       19.2708       19.2708      13.220406       0.03206
  48    0.1069        6.0504        0.0000       19.2708       19.2708      13.220344       0.03257
  47    0.1255        6.0504        0.0000       19.2707       19.2707      13.220271       0.03307
  46    0.1487        6.0504        0.0000       19.2706       19.2706      13.220176       0.03483
  45    0.1794        6.0504        0.0000       19.2705       19.2705      13.220041       0.03707
  44    0.2165        6.0504        0.0000       19.2703       19.2703      13.219875       0.03763
  43    0.2613        6.0504        0.0000       19.2701       19.2701      13.219673       0.03820
  42    0.3336        6.0504        0.0000       19.2697       19.2697      13.219327       0.04034
  41    0.4307        6.0504        0.0000       19.2693       19.2693      13.218857       0.04087
  40    0.5894        6.0504        0.0000       19.2685       19.2685      13.218070       0.04184
  39     1.339        6.0504        0.0000       19.2647       19.2647      13.214291       0.04255
  38     1.782        6.0504        0.0000       19.2624       19.2625      13.212099       0.04173
  37     2.292        6.0504        0.0001       19.2599       19.2600      13.209625       0.04097
  36     2.964        6.0504        0.0001       19.2568       19.2569      13.206494       0.03931
  35     3.853        6.0504        0.0001       19.2528       19.2529      13.202532       0.03760
  34     5.035        6.0504        0.0001       19.2477       19.2478      13.197460       0.03623
  33     6.613        6.0503        0.0002       19.2411       19.2413      13.190930       0.03491
  32     8.786        6.0503        0.0003       19.2326       19.2329      13.182550       0.03254
  31     11.80        6.0503        0.0003       19.2213       19.2217      13.171379       0.03127
  30     15.07        6.0503        0.0004       19.2101       19.2106      13.160323       0.02855
  29     18.79        6.0502        0.0005       19.1987       19.1992      13.148965       0.02575
  28     23.16        6.0502        0.0007       19.1864       19.1871      13.136892       0.02335
  27     28.12        6.0502        0.0008       19.1738       19.1746      13.124406       0.02122
  26     33.73        6.0502        0.0010       19.1611       19.1621      13.111940       0.01874
  25     40.54        6.0502        0.0012       19.1475       19.1487      13.098551       0.01661
  24     48.69        6.0502        0.0014       19.1332       19.1346      13.084422       0.01462
  23     57.69        6.0502        0.0017       19.1191       19.1208      13.070582       0.01297
  22     68.43        6.0502        0.0020       19.1040       19.1059      13.055700       0.01170
  21     81.20        6.0503        0.0023       19.0874       19.0898      13.039432       0.01075
  20     96.49        6.0504        0.0028       19.0689       19.0716      13.021209       0.01006
  19     114.6        6.0506        0.0033       19.0476       19.0509      13.000338       0.00975
  18     136.5        6.0507        0.0039       19.0228       19.0266      12.975896       0.00940
  17     162.9        6.0510        0.0046       18.9859       18.9905      12.939540       0.01162
  16     196.4        6.0513        0.0056       18.9061       18.9116      12.860282       0.01995
  15     218.7        6.0516        0.0062       18.7752       18.7813      12.729704       0.04958
  14     243.0        6.0520        0.0068       18.4914       18.4982      12.446222       0.09832
  13     269.0        6.0524        0.0074       18.0178       18.0252      11.972721       0.15360
  12     297.5        6.0531        0.0079       17.4431       17.4511      11.397941       0.17047
  11     328.5        6.0541        0.0085       16.8392       16.8478      10.793708       0.16429
  10     361.9        6.0553        0.0091       16.1483       16.1574      10.102169       0.17497
   9     398.1        6.0569        0.0097       15.3905       15.4002       9.343302       0.17680
   8     437.6        6.0590        0.0102       14.5888       14.5990       8.540050       0.17174
   7     480.5        6.0617        0.0107       13.7872       13.7979       7.736186       0.15788
   6     533.0        6.0661        0.0113       12.9158       12.9271       6.860974       0.14079
   5     589.8        6.0728        0.0119       12.1243       12.1361       6.063323       0.11840
   4     651.6        6.0841        0.0125       11.4080       11.4205       5.336447       0.09940
   3     718.7        6.1029        0.0131       10.8168       10.8299       4.726986       0.07659
   2     792.3        6.1361        0.0139       10.2610       10.2748       4.138749       0.06746
   1     891.5        6.2165        0.0148        9.5065        9.5213       3.304836       0.07096
   0    1013.0        6.4213        0.0157        8.7492        8.7649       2.343646       0.06674



 Wavenumbers:  6150. -  7700. cm-1, ATM      1
 LEVEL PRESSURE   UPWARD FLUX   DIFDOWN FLUX  DIRDOWN FLUX  DOWNWARD FLUX   NET FLUX    HEATING RATE
          mb          W/m2          W/m2          W/m2        W/m2          W/m2       degree/day
  51    .06700        8.7952        0.0000       35.6423       35.6423      26.847098       0.00000
  50    .07753        8.7952        0.0000       35.6422       35.6422      26.847041       0.04553
  49    .09103        8.7952        0.0000       35.6422       35.6422      26.846968       0.04582
  48    0.1069        8.7952        0.0000       35.6421       35.6421      26.846881       0.04613
  47    0.1255        8.7952        0.0000       35.6420       35.6420      26.846779       0.04644
  46    0.1487        8.7952        0.0000       35.6418       35.6418      26.846646       0.04851
  45    0.1794        8.7952        0.0000       35.6416       35.6417      26.846459       0.05125
  44    0.2165        8.7952        0.0000       35.6414       35.6414      26.846232       0.05165
  43    0.2613        8.7952        0.0000       35.6411       35.6411      26.845956       0.05207
  42    0.3336        8.7952        0.0000       35.6406       35.6407      26.845487       0.05467
  41    0.4307        8.7952        0.0000       35.6400       35.6400      26.844852       0.05515
  40    0.5894        8.7952        0.0001       35.6389       35.6390      26.843795       0.05625
  39     1.339        8.7951        0.0002       35.6337       35.6338      26.838719       0.05714
  38     1.782        8.7950        0.0002       35.6306       35.6308      26.835765       0.05624
  37     2.292        8.7950        0.0003       35.6272       35.6274      26.832414       0.05551
  36     2.964        8.7949        0.0003       35.6227       35.6231      26.828136       0.05370
  35     3.853        8.7949        0.0004       35.6171       35.6175      26.822668       0.05189
  34     5.035        8.7948        0.0006       35.6098       35.6104      26.815600       0.05049
  33     6.613        8.7946        0.0008       35.6002       35.6010      26.806402       0.04917
  32     8.786        8.7944        0.0010       35.5878       35.5888      26.794424       0.04652
  31     11.80        8.7941        0.0014       35.5708       35.5722      26.778099       0.04571
  30     15.07        8.7938        0.0018       35.5536       35.5554      26.761562       0.04270
  29     18.79        8.7935        0.0022       35.5353       35.5376      26.744060       0.03968
  28     23.16        8.7931        0.0027       35.5153       35.5181      26.724952       0.03695
  27     28.12        8.7927        0.0033       35.4939       35.4972      26.704546       0.03469
  26     33.73        8.7922        0.0040       35.4718       35.4757      26.683586       0.03151
  25     40.54        8.7915        0.0048       35.4471       35.4519      26.660357       0.02882
  24     48.69        8.7908        0.0057       35.4203       35.4260      26.635171       0.02606
  23     57.69        8.7900        0.0068       35.3931       35.3999      26.609880       0.02371
  22     68.43        8.7890        0.0080       35.3632       35.3712      26.582193       0.02177
  21     81.20        8.7879        0.0095       35.3298       35.3394      26.551472       0.02030
  20     96.49        8.7865        0.0113       35.2920       35.3033      26.516828       0.01912
  19     114.6        8.7849        0.0134       35.2485       35.2619      26.477012       0.01859
  18     136.5        8.7830        0.0159       35.1976       35.2135      26.430539       0.01787
  17     162.9        8.7807        0.0189       35.1254       35.1443      26.363653       0.02138
  16     196.4        8.7777        0.0228       34.9834       35.0062      26.228415       0.03404
  15     218.7        8.7759        0.0253       34.7917       34.8170      26.041090       0.07112
  14     243.0        8.7739        0.0278       34.4147       34.4426      25.668616       0.12919
  13     269.0        8.7720        0.0304       33.7263       33.7568      24.984717       0.22185
  12     297.5        8.7703        0.0329       32.7369       32.7698      23.999448       0.29222
  11     328.5        8.7689        0.0354       31.6831       31.7185      22.949615       0.28545
  10     361.9        8.7680        0.0379       30.5399       30.5779      21.809901       0.28836
   9     398.1        8.7677        0.0404       29.2297       29.2701      20.502347       0.30463
   8     437.6        8.7686        0.0426       27.7628       27.8054      19.036792       0.31334
   7     480.5        8.7713        0.0447       26.2348       26.2795      17.508219       0.30021
   6     533.0        8.7777        0.0469       24.4564       24.5033      15.725633       0.28676
   5     589.8        8.7904        0.0488       22.6566       22.7054      13.915041       0.26875
   4     651.6        8.8161        0.0503       20.7674       20.8177      12.001594       0.26167
   3     718.7        8.8638        0.0515       18.9325       18.9840      10.120134       0.23645
   2     792.3        8.9528        0.0524       17.1570       17.2095       8.256631       0.21372
   1     891.5        9.1745        0.0534       15.1253       15.1787       6.004274       0.19166
   0    1013.0        9.7283        0.0546       13.2217       13.2763       3.548063       0.17055



 Wavenumbers:  7700. -  8050. cm-1, ATM      1
 LEVEL PRESSURE   UPWARD FLUX   DIFDOWN FLUX  DIRDOWN FLUX  DOWNWARD FLUX   NET FLUX    HEATING RATE
          mb          W/m2          W/m2          W/m2        W/m2          W/m2       degree/day
  51    .06700        4.7024        0.0000        8.4233        8.4233       3.720948       0.00000
  50    .07753        4.7024        0.0000        8.4233        8.4233       3.720928       0.01663
  49    .09103        4.7024        0.0000        8.4233        8.4233       3.720902       0.01630
  48    0.1069        4.7024        0.0000        8.4233        8.4233       3.720872       0.01595
  47    0.1255        4.7024        0.0000        8.4232        8.4232       3.720837       0.01561
  46    0.1487        4.7024        0.0000        8.4232        8.4232       3.720794       0.01584
  45    0.1794        4.7024        0.0000        8.4231        8.4232       3.720734       0.01630
  44    0.2165        4.7024        0.0000        8.4231        8.4231       3.720664       0.01599
  43    0.2613        4.7024        0.0000        8.4230        8.4230       3.720581       0.01569
  42    0.3336        4.7025        0.0000        8.4229        8.4229       3.720443       0.01606
  41    0.4307        4.7025        0.0000        8.4227        8.4227       3.720260       0.01588
  40    0.5894        4.7025        0.0000        8.4225        8.4225       3.719962       0.01586
  39     1.339        4.7027        0.0001        8.4212        8.4213       3.718551       0.01588
  38     1.782        4.7028        0.0001        8.4204        8.4205       3.717723       0.01578
  37     2.292        4.7029        0.0001        8.4196        8.4197       3.716764       0.01588
  36     2.964        4.7031        0.0002        8.4185        8.4186       3.715505       0.01580
  35     3.853        4.7033        0.0002        8.4170        8.4172       3.713842       0.01578
  34     5.035        4.7036        0.0003        8.4150        8.4152       3.711634       0.01577
  33     6.613        4.7040        0.0003        8.4123        8.4127       3.708687       0.01576
  32     8.786        4.7045        0.0005        8.4088        8.4092       3.704719       0.01541
  31     11.80        4.7053        0.0006        8.4037        8.4043       3.699050       0.01587
  30     15.07        4.7061        0.0008        8.3983        8.3990       3.692974       0.01569
  29     18.79        4.7070        0.0010        8.3921        8.3931       3.686125       0.01553
  28     23.16        4.7081        0.0012        8.3850        8.3862       3.678146       0.01543
  27     28.12        4.7093        0.0015        8.3769        8.3783       3.669048       0.01547
  26     33.73        4.7107        0.0018        8.3678        8.3696       3.658902       0.01525
  25     40.54        4.7123        0.0021        8.3569        8.3590       3.646695       0.01514
  24     48.69        4.7144        0.0025        8.3439        8.3464       3.632053       0.01515
  23     57.69        4.7166        0.0030        8.3297        8.3327       3.616064       0.01499
  22     68.43        4.7193        0.0035        8.3129        8.3165       3.597150       0.01487
  21     81.20        4.7225        0.0042        8.2932        8.2973       3.574798       0.01477
  20     96.49        4.7264        0.0050        8.2699        8.2748       3.548416       0.01456
  19     114.6        4.7311        0.0059        8.2426        8.2485       3.517441       0.01446
  18     136.5        4.7367        0.0070        8.2109        8.2179       3.481199       0.01394
  17     162.9        4.7434        0.0083        8.1738        8.1821       3.438671       0.01359
  16     196.4        4.7523        0.0100        8.1267        8.1367       3.384418       0.01366
  15     218.7        4.7582        0.0111        8.0965        8.1076       3.349342       0.01332
  14     243.0        4.7648        0.0123        8.0641        8.0764       3.311609       0.01309
  13     269.0        4.7720        0.0136        8.0295        8.0431       3.271091       0.01314
  12     297.5        4.7800        0.0149        7.9927        8.0076       3.227605       0.01290
  11     328.5        4.7888        0.0164        7.9533        7.9697       3.180892       0.01270
  10     361.9        4.7986        0.0181        7.9113        7.9294       3.130708       0.01270
   9     398.1        4.8096        0.0198        7.8665        7.8863       3.076755       0.01257
   8     437.6        4.8218        0.0217        7.8186        7.8402       3.018371       0.01248
   7     480.5        4.8356        0.0236        7.7671        7.7907       2.955119       0.01242
   6     533.0        4.8536        0.0261        7.7033        7.7294       2.875786       0.01276
   5     589.8        4.8746        0.0287        7.6330        7.6617       2.787123       0.01316
   4     651.6        4.8997        0.0315        7.5536        7.5851       2.685369       0.01392
   3     718.7        4.9305        0.0345        7.4625        7.4969       2.566420       0.01495
   2     792.3        4.9695        0.0376        7.3551        7.3927       2.423158       0.01643
   1     891.5        5.0347        0.0417        7.1905        7.2322       2.197525       0.01920
   0    1013.0        5.1367        0.0464        6.9622        7.0086       1.871954       0.02261



 Wavenumbers:  8050. - 12850. cm-1, ATM      1
 LEVEL PRESSURE   UPWARD FLUX   DIFDOWN FLUX  DIRDOWN FLUX  DOWNWARD FLUX   NET FLUX    HEATING RATE
          mb          W/m2          W/m2          W/m2        W/m2          W/m2       degree/day
  51    .06700       58.0227        0.0000      117.9329      117.9329      59.910225       0.00000
  50    .07753       58.0227        0.0000      117.9329      117.9329      59.910225       0.00000
  49    .09103       58.0227        0.0001      117.9328      117.9329      59.910225       0.00000
  48    0.1069       58.0227        0.0001      117.9328      117.9329      59.910225       0.00000
  47    0.1255       58.0226        0.0001      117.9327      117.9329      59.910225      -0.00000
  46    0.1487       58.0226        0.0002      117.9326      117.9328      59.910225       0.00000
  45    0.1794       58.0225        0.0003      117.9325      117.9328      59.910225       0.00000
  44    0.2165       58.0225        0.0004      117.9323      117.9327      59.910225      -0.00000
  43    0.2613       58.0224        0.0005      117.9322      117.9327      59.910225      -0.00000
  42    0.3336       58.0223        0.0007      117.9319      117.9326      59.910225       0.00000
  41    0.4307       58.0222        0.0009      117.9315      117.9324      59.910225       0.00000
  40    0.5894       58.0220        0.0013      117.9309      117.9322      59.910225       0.00000
  39     1.339       58.0209        0.0032      117.9279      117.9311      59.910225      -0.00000
  38     1.782       58.0203        0.0043      117.9262      117.9305      59.910225       0.00000
  37     2.292       58.0195        0.0056      117.9242      117.9297      59.910225      -0.00000
  36     2.964       58.0186        0.0073      117.9215      117.9288      59.910225       0.00000
  35     3.853       58.0173        0.0095      117.9180      117.9275      59.910225       0.00000
  34     5.035       58.0156        0.0124      117.9134      117.9258      59.910225       0.00000
  33     6.613       58.0133        0.0164      117.9072      117.9236      59.910225      -0.00000
  32     8.786       58.0103        0.0217      117.8988      117.9205      59.910225       0.00000
  31     11.80       58.0060        0.0293      117.8868      117.9162      59.910225       0.00000
  30     15.07       58.0013        0.0375      117.8740      117.9115      59.910225      -0.00000
  29     18.79       57.9960        0.0468      117.8594      117.9062      59.910225       0.00000
  28     23.16       57.9898        0.0576      117.8424      117.9000      59.910225       0.00000
  27     28.12       57.9827        0.0700      117.8229      117.8929      59.910225       0.00000
  26     33.73       57.9748        0.0839      117.8011      117.8850      59.910225      -0.00000
  25     40.54       57.9651        0.1007      117.7746      117.8754      59.910225       0.00000
  24     48.69       57.9535        0.1210      117.7427      117.8638      59.910225       0.00000
  23     57.69       57.9408        0.1433      117.7077      117.8510      59.910225      -0.00000
  22     68.43       57.9256        0.1700      117.6658      117.8358      59.910225      -0.00000
  21     81.20       57.9074        0.2017      117.6159      117.8176      59.910225       0.00000
  20     96.49       57.8857        0.2396      117.5563      117.7959      59.910225      -0.00000
  19     114.6       57.8600        0.2847      117.4794      117.7641      59.904094       0.00286
  18     136.5       57.8295        0.3383      117.3877      117.7260      59.896495       0.00292
  17     162.9       57.7930        0.4022      117.2748      117.6769      59.883887       0.00403
  16     196.4       57.7457        0.4852      117.1122      117.5974      59.851627       0.00812
  15     218.7       57.7147        0.5398      116.9668      117.5066      59.791892       0.02268
  14     243.0       57.6813        0.5991      116.7359      117.3350      59.653737       0.04792
  13     269.0       57.6456        0.6631      116.3713      117.0344      59.388821       0.08594
  12     297.5       57.6083        0.7320      115.8598      116.5918      58.983520       0.12021
  11     328.5       57.5696        0.8062      115.2535      116.0597      58.490091       0.13416
  10     361.9       57.5303        0.8856      114.5172      115.4029      57.872524       0.15625
   9     398.1       57.4917        0.9705      113.5881      114.5586      57.066891       0.18769
   8     437.6       57.4559        1.0604      112.4122      113.4726      56.016611       0.22456
   7     480.5       57.4259        1.1552      110.9760      112.1312      54.705380       0.25752
   6     533.0       57.4042        1.2694      108.9717      110.2411      52.836876       0.30058
   5     589.8       57.4089        1.3884      106.4802      107.8685      50.459611       0.35286
   4     651.6       57.4720        1.5094      103.2803      104.7897      47.317723       0.42966
   3     718.7       57.6341        1.6313       99.4768      101.1080      43.473922       0.48306
   2     792.3       57.9840        1.7508       94.9528       96.7035      38.719520       0.54528
   1     891.5       58.9132        1.8931       88.5019       90.3950      31.481878       0.61589
   0    1013.0       61.1618        2.0431       81.2827       83.3258      22.164010       0.64699



 Wavenumbers: 12850. - 16000. cm-1, ATM      1
 LEVEL PRESSURE   UPWARD FLUX   DIFDOWN FLUX  DIRDOWN FLUX  DOWNWARD FLUX   NET FLUX    HEATING RATE
          mb          W/m2          W/m2          W/m2        W/m2          W/m2       degree/day
  51    .06700       53.5675        0.0000       73.8954       73.8954      20.327923       0.00000
  50    .07753       53.5675        0.0001       73.8945       73.8946      20.327139       0.62871
  49    .09103       53.5674        0.0001       73.8935       73.8936      20.326158       0.61295
  48    0.1069       53.5674        0.0002       73.8922       73.8925      20.325037       0.59660
  47    0.1255       53.5674        0.0003       73.8908       73.8912      20.323757       0.58031
  46    0.1487       53.5674        0.0005       73.8891       73.8895      20.322153       0.58477
  45    0.1794       53.5674        0.0006       73.8867       73.8874      20.319989       0.59409
  44    0.2165       53.5674        0.0009       73.8840       73.8848      20.317469       0.57332
  43    0.2613       53.5674        0.0011       73.8808       73.8819      20.314538       0.55245
  42    0.3336       53.5674        0.0015       73.8757       73.8773      20.309818       0.55028
  41    0.4307       53.5676        0.0021       73.8693       73.8714      20.303836       0.52012
  40    0.5894       53.5679        0.0030       73.8595       73.8625      20.294631       0.48949
  39     1.339       53.5712        0.0072       73.8188       73.8260      20.254832       0.44807
  38     1.782       53.5746        0.0097       73.7961       73.8059      20.231282       0.44835
  37     2.292       53.5798        0.0126       73.7689       73.7815      20.201648       0.49081
  36     2.964       53.5887        0.0164       73.7300       73.7464      20.157640       0.55243
  35     3.853       53.6034        0.0214       73.6731       73.6946      20.091213       0.63041
  34     5.035       53.6256        0.0281       73.5920       73.6201      19.994470       0.69109
  33     6.613       53.6567        0.0370       73.4811       73.5181      19.861338       0.71173
  32     8.786       53.6972        0.0489       73.3367       73.3856      19.688392       0.67166
  31     11.80       53.7495        0.0660       73.1456       73.2116      19.462123       0.63348
  30     15.07       53.7992        0.0843       72.9584       73.0427      19.243491       0.56447
  29     18.79       53.8495        0.1049       72.7631       72.8680      19.018560       0.50999
  28     23.16       53.9015        0.1289       72.5537       72.6827      18.781168       0.45904
  27     28.12       53.9532        0.1564       72.3359       72.4923      18.539141       0.41143
  26     33.73       53.9997        0.1871       72.1220       72.3091      18.309321       0.34554
  25     40.54       54.0430        0.2242       71.8978       72.1220      18.078991       0.28575
  24     48.69       54.0826        0.2688       71.6619       71.9307      17.848128       0.23891
  23     57.69       54.1138        0.3178       71.4358       71.7536      17.639879       0.19520
  22     68.43       54.1376        0.3761       71.2019       71.5781      17.440413       0.15681
  21     81.20       54.1479        0.4457       70.9692       71.4149      17.266984       0.11460
  20     96.49       54.1434        0.5286       70.7337       71.2623      17.118902       0.08173
  19     114.6       54.1396        0.6278       70.4719       71.0997      16.960096       0.07415
  18     136.5       54.1274        0.7453       70.1746       70.9199      16.792511       0.06444
  17     162.9       54.1055        0.8851       69.8297       70.7148      16.609250       0.05858
  16     196.4       54.0620        1.0660       69.4044       70.4705      16.408480       0.05054
  15     218.7       54.0278        1.1847       69.1322       70.3170      16.289122       0.04532
  14     243.0       53.9883        1.3136       68.8385       70.1521      16.163769       0.04348
  13     269.0       53.9432        1.4531       68.5222       69.9753      16.032022       0.04274
  12     297.5       53.8927        1.6036       68.1804       69.7841      15.891412       0.04170
  11     328.5       53.8377        1.7661       67.8097       69.5758      15.738094       0.04169
  10     361.9       53.7787        1.9408       67.4075       69.3483      15.569578       0.04264
   9     398.1       53.7163        2.1284       66.9695       69.0980      15.381701       0.04377
   8     437.6       53.6517        2.3296       66.4884       68.8180      15.166225       0.04607
   7     480.5       53.5865        2.5446       65.9581       68.5027      14.916261       0.04909
   6     533.0       53.5141        2.8084       65.2795       68.0879      14.573799       0.05509
   5     589.8       53.4512        3.0912       64.5029       67.5941      14.142873       0.06396
   4     651.6       53.4152        3.3925       63.5800       66.9726      13.557403       0.08006
   3     718.7       53.4169        3.7106       62.5096       66.2202      12.803391       0.09476
   2     792.3       53.4926        4.0419       61.2445       65.2864      11.793787       0.11579
   1     891.5       53.7676        4.4708       59.3523       63.8231      10.055560       0.14791
   0    1013.0       54.4292        4.9580       56.9241       61.8820       7.452853       0.18072



 Wavenumbers: 16000. - 22650. cm-1, ATM      1
 LEVEL PRESSURE   UPWARD FLUX   DIFDOWN FLUX  DIRDOWN FLUX  DOWNWARD FLUX   NET FLUX    HEATING RATE
          mb          W/m2          W/m2          W/m2        W/m2          W/m2       degree/day
  51    .06700      104.1855        0.0000      117.8180      117.8180      13.632527       0.00000
  50    .07753      104.1854        0.0004      117.8175      117.8178      13.632397       0.10440
  49    .09103      104.1853        0.0008      117.8167      117.8175      13.632207       0.11841
  48    0.1069      104.1852        0.0013      117.8159      117.8172      13.631953       0.13502
  47    0.1255      104.1852        0.0019      117.8149      117.8168      13.631614       0.15391
  46    0.1487      104.1851        0.0027      117.8135      117.8162      13.631114       0.18238
  45    0.1794      104.1850        0.0037      117.8116      117.8153      13.630331       0.21474
  44    0.2165      104.1849        0.0049      117.8093      117.8142      13.629270       0.24134
  43    0.2613      104.1849        0.0063      117.8064      117.8127      13.627831       0.27132
  42    0.3336      104.1850        0.0087      117.8014      117.8101      13.625094       0.31907
  41    0.4307      104.1854        0.0118      117.7945      117.8064      13.620969       0.35866
  40    0.5894      104.1864        0.0170      117.7825      117.7995      13.613103       0.41835
  39     1.339      104.1985        0.0413      117.7122      117.7535      13.554987       0.65427
  38     1.782      104.2112        0.0555      117.6612      117.7167      13.505488       0.94239
  37     2.292      104.2312        0.0721      117.5930      117.6650      13.433849       1.18652
  36     2.964      104.2653        0.0937      117.4894      117.5831      13.317823       1.45648
  35     3.853      104.3217        0.1223      117.3332      117.4555      13.133787       1.74653
  34     5.035      104.4076        0.1602      117.1068      117.2670      12.859379       1.96026
  33     6.613      104.5282        0.2108      116.7957      117.0065      12.478341       2.03703
  32     8.786      104.6848        0.2789      116.3890      116.6679      11.983064       1.92348
  31     11.80      104.8872        0.3760      115.8490      116.2250      11.337776       1.80660
  30     15.07      105.0791        0.4800      115.3171      115.7971      10.718023       1.60008
  29     18.79      105.2730        0.5972      114.7597      115.3569      10.083856       1.43785
  28     23.16      105.4733        0.7337      114.1583      114.8919       9.418637       1.28632
  27     28.12      105.6716        0.8893      113.5275      114.4168       8.745193       1.14481
  26     33.73      105.8493        1.0631      112.9000      113.9631       8.113752       0.94939
  25     40.54      106.0131        1.2727      112.2312      113.5038       7.490776       0.77287
  24     48.69      106.1609        1.5246      111.5114      113.0361       6.875163       0.63706
  23     57.69      106.2755        1.8006      110.8037      112.6043       6.328833       0.51210
  22     68.43      106.3604        2.1285      110.0488      112.1773       5.816906       0.40244
  21     81.20      106.3909        2.5181      109.2670      111.7851       5.394193       0.27932
  20     96.49      106.3620        2.9811      108.4440      111.4251       5.063060       0.18276
  19     114.6      106.2949        3.5280      107.5270      111.0550       4.760075       0.14147
  18     136.5      106.1934        4.1722      106.4838      110.6560       4.462602       0.11439
  17     162.9      106.0531        4.9336      105.2848      110.2184       4.165283       0.09504
  16     196.4      105.8285        5.9127      103.8144      109.7270       3.898569       0.06714
  15     218.7      105.6658        6.5504      102.8828      109.4332       3.767476       0.04977
  14     243.0      105.4825        7.2390      101.8895      109.1284       3.645943       0.04215
  13     269.0      105.2773        7.9797      100.8336      108.8133       3.536007       0.03566
  12     297.5      105.0496        8.7740       99.7135      108.4875       3.437961       0.02908
  11     328.5      104.8017        9.6250       98.5195      108.1445       3.342767       0.02588
  10     361.9      104.5336       10.5329       97.2513      107.7842       3.250551       0.02333
   9     398.1      104.2446       11.5006       95.9046      107.4051       3.160573       0.02096
   8     437.6      103.9351       12.5289       94.4765      107.0053       3.070214       0.01932
   7     480.5      103.6049       13.6189       92.9654      106.5842       2.979272       0.01786
   6     533.0      103.2022       14.9436       91.1300      106.0735       2.871366       0.01736
   5     589.8      102.7750       16.3509       89.1768      105.5276       2.752595       0.01763
   4     651.6      102.3280       17.8404       87.0977      104.9381       2.610097       0.01949
   3     718.7      101.8653       19.4117       84.8864      104.2981       2.432790       0.02228
   2     792.3      101.3989       21.0607       82.5317      103.5925       2.193549       0.02744
   1     891.5      100.8340       23.2309       79.3593      102.5903       1.756211       0.03722
   0    1013.0      100.2601       25.7501       75.5853      101.3355       1.075321       0.04728



 Wavenumbers: 22650. - 29000. cm-1, ATM      1
 LEVEL PRESSURE   UPWARD FLUX   DIFDOWN FLUX  DIRDOWN FLUX  DOWNWARD FLUX   NET FLUX    HEATING RATE
          mb          W/m2          W/m2          W/m2        W/m2          W/m2       degree/day
  51    .06700       44.0302        0.0000       44.4602       44.4602       0.430004       0.00000
  50    .07753       44.0301        0.0004       44.4597       44.4601       0.430004       0.00000
  49    .09103       44.0299        0.0009       44.4590       44.4599       0.430004      -0.00000
  48    0.1069       44.0297        0.0015       44.4582       44.4597       0.430004       0.00000
  47    0.1255       44.0295        0.0022       44.4573       44.4595       0.430004       0.00000
  46    0.1487       44.0292        0.0031       44.4561       44.4592       0.430004      -0.00000
  45    0.1794       44.0288        0.0043       44.4545       44.4588       0.430004       0.00000
  44    0.2165       44.0284        0.0057       44.4527       44.4584       0.430004       0.00000
  43    0.2613       44.0278        0.0074       44.4505       44.4578       0.430004      -0.00000
  42    0.3336       44.0269        0.0101       44.4468       44.4569       0.430004      -0.00000
  41    0.4307       44.0257        0.0138       44.4419       44.4557       0.430004       0.00000
  40    0.5894       44.0238        0.0198       44.4340       44.4538       0.430004      -0.00000
  39     1.339       44.0145        0.0481       44.3964       44.4445       0.430004       0.00000
  38     1.782       44.0091        0.0648       44.3744       44.4391       0.430004      -0.00000
  37     2.292       44.0028        0.0840       44.3488       44.4328       0.430004       0.00000
  36     2.964       43.9946        0.1093       44.3153       44.4246       0.430004      -0.00000
  35     3.853       43.9837        0.1426       44.2711       44.4137       0.430004       0.00000
  34     5.035       43.9693        0.1869       44.2124       44.3993       0.430004       0.00000
  33     6.613       43.9500        0.2460       44.1340       44.3800       0.430004      -0.00000
  32     8.786       43.9241        0.3255       44.0286       44.3541       0.430004       0.00000
  31     11.80       43.8870        0.4389       43.8781       44.3170       0.430004       0.00000
  30     15.07       43.8474        0.5604       43.7170       44.2774       0.430004       0.00000
  29     18.79       43.8028        0.6973       43.5355       44.2328       0.430004      -0.00000
  28     23.16       43.7508        0.8565       43.3243       44.1808       0.430004       0.00000
  27     28.12       43.6916        1.0379       43.0838       44.1216       0.430004       0.00000
  26     33.73       43.6257        1.2398       42.8160       44.0557       0.430004       0.00000
  25     40.54       43.5466        1.4822       42.4944       43.9766       0.430004       0.00000
  24     48.69       43.4519        1.7723       42.1096       43.8819       0.430004      -0.00000
  23     57.69       43.3487        2.0883       41.6905       43.7787       0.430004       0.00000
  22     68.43       43.2271        2.4608       41.1963       43.6571       0.430004       0.00000
  21     81.20       43.0839        2.8991       40.6148       43.5139       0.430004      -0.00000
  20     96.49       42.9158        3.4138       39.9320       43.3458       0.430004       0.00000
  19     114.6       42.7196        4.0140       39.1356       43.1496       0.430004       0.00000
  18     136.5       42.4920        4.7105       38.2115       42.9220       0.430004       0.00000
  17     162.9       42.2275        5.5190       37.1386       42.6575       0.430004       0.00000
  16     196.4       41.8953        6.5343       35.7910       42.3253       0.430004       0.00000
  15     218.7       41.6834        7.1815       34.9318       42.1134       0.430004       0.00000
  14     243.0       41.4585        7.8679       34.0206       41.8885       0.430004      -0.00000
  13     269.0       41.2212        8.5921       33.0591       41.6512       0.430004       0.00000
  12     297.5       40.9718        9.3523       32.0495       41.4018       0.430004      -0.00000
  11     328.5       40.7105       10.1487       30.9918       41.1405       0.430004       0.00000
  10     361.9       40.4382       10.9778       29.8904       40.8682       0.430004      -0.00000
   9     398.1       40.1552       11.8388       28.7463       40.5852       0.430004       0.00000
   8     437.6       39.8626       12.7280       27.5647       40.2926       0.430004      -0.00000
   7     480.5       39.5613       13.6428       26.3485       39.9913       0.430004      -0.00000
   6     533.0       39.2073       14.7163       24.9211       39.6373       0.430004       0.00000
   5     589.8       38.8455       15.8118       23.4637       39.2755       0.430004      -0.00000
   4     651.6       38.4778       16.9230       21.9847       38.9078       0.430004       0.00000
   3     718.7       38.1063       18.0434       20.4929       38.5363       0.430004       0.00000
   2     792.3       37.7338       19.1639       18.9999       38.1638       0.430004       0.00000
   1     891.5       37.2693       20.5570       17.1423       37.6993       0.430004      -0.00000
   0    1013.0       36.7643       22.0645       15.1297       37.1943       0.430004      -0.00000



 Wavenumbers: 29000. - 38000. cm-1, ATM      1
 LEVEL PRESSURE   UPWARD FLUX   DIFDOWN FLUX  DIRDOWN FLUX  DOWNWARD FLUX   NET FLUX    HEATING RATE
          mb          W/m2          W/m2          W/m2        W/m2          W/m2       degree/day
  51    .06700        6.3980        0.0000       15.6785       15.6785       9.280578       0.00000
  50    .07753        6.3977        0.0003       15.6742       15.6745       9.276776       3.04698
  49    .09103        6.3975        0.0007       15.6681       15.6687       9.271250       3.45385
  48    0.1069        6.3972        0.0011       15.6599       15.6611       9.263861       3.93347
  47    0.1255        6.3969        0.0016       15.6492       15.6509       9.253993       4.47374
  46    0.1487        6.3965        0.0023       15.6337       15.6360       9.239503       5.28172
  45    0.1794        6.3960        0.0031       15.6098       15.6129       9.216998       6.17815
  44    0.2165        6.3953        0.0041       15.5780       15.5821       9.186778       6.87449
  43    0.2613        6.3946        0.0053       15.5357       15.5410       9.146348       7.62094
  42    0.3336        6.3935        0.0073       15.4576       15.4649       9.071320       8.74748
  41    0.4307        6.3922        0.0098       15.3450       15.3548       8.962686       9.44551
  40    0.5894        6.3901        0.0139       15.1459       15.1598       8.769678      10.26390
  39     1.339        6.3835        0.0310       14.1080       14.1389       7.755497      11.41783
  38     1.782        6.3815        0.0398       13.5691       13.6089       7.227368      10.05473
  37     2.292        6.3809        0.0492       13.0422       13.0914       6.710533       8.56014
  36     2.964        6.3823        0.0608       12.4702       12.5310       6.148706       7.05263
  35     3.853        6.3873        0.0753       11.8594       11.9347       5.547404       5.70646
  34     5.035        6.3969        0.0934       11.2395       11.3329       4.935994       4.36766
  33     6.613        6.4119        0.1164       10.6392       10.7557       4.343780       3.16597
  32     8.786        6.4318        0.1464       10.0712       10.2175       3.785726       2.16728
  31     11.80        6.4573        0.1876        9.5130        9.7007       3.243392       1.51836
  30     15.07        6.4811        0.2304        9.0826        9.3131       2.832008       1.06211
  29     18.79        6.5050        0.2773        8.7060        8.9833       2.478380       0.80178
  28     23.16        6.5294        0.3304        8.3552        8.6856       2.156144       0.62310
  27     28.12        6.5533        0.3894        8.0303        8.4196       1.866318       0.49269
  26     33.73        6.5730        0.4540        7.7391        8.1931       1.620044       0.37028
  25     40.54        6.5884        0.5305        7.4546        7.9851       1.396694       0.27709
  24     48.69        6.5991        0.6207        7.1705        7.7912       1.192120       0.21170
  23     57.69        6.6031        0.7176        6.9076        7.6251       1.022067       0.15940
  22     68.43        6.5993        0.8304        6.6405        7.4709       0.871555       0.11832
  21     81.20        6.5820        0.9622        6.3730        7.3352       0.753187       0.07822
  20     96.49        6.5499        1.1157        6.0985        7.2142       0.664270       0.04908
  19     114.6        6.5077        1.2909        5.8030        7.0939       0.586181       0.03646
  18     136.5        6.4569        1.4891        5.4800        6.9691       0.512169       0.02846
  17     162.9        6.3976        1.7118        5.1266        6.8384       0.440801       0.02281
  16     196.4        6.3189        1.9826        4.7153        6.6979       0.379002       0.01556
  15     218.7        6.2679        2.1500        4.4672        6.6172       0.349238       0.01130
  14     243.0        6.2146        2.3224        4.2143        6.5366       0.322031       0.00944
  13     269.0        6.1588        2.4992        3.9574        6.4566       0.297820       0.00785
  12     297.5        6.1009        2.6793        3.6983        6.3776       0.276674       0.00627
  11     328.5        6.0421        2.8611        3.4377        6.2987       0.256630       0.00545
  10     361.9        5.9829        3.0428        3.1779        6.2207       0.237742       0.00478
   9     398.1        5.9236        3.2239        2.9197        6.1436       0.220008       0.00413
   8     437.6        5.8648        3.4025        2.6655        6.0679       0.203064       0.00362
   7     480.5        5.8069        3.5775        2.4166        5.9941       0.187123       0.00313
   6     533.0        5.7425        3.7714        2.1410        5.9124       0.169901       0.00277
   5     589.8        5.6808        3.9566        1.8775        5.8342       0.153376       0.00245
   4     651.6        5.6226        4.1312        1.6287        5.7599       0.137341       0.00219
   3     718.7        5.5684        4.2936        1.3965        5.6901       0.121752       0.00196
   2     792.3        5.5187        4.4428        1.1825        5.6253       0.106593       0.00174
   1     891.5        5.4636        4.6092        0.9424        5.5516       0.087999       0.00158
   0    1013.0        5.4127        4.7659        0.7143        5.4803       0.067599       0.00142



 Wavenumbers: 38000. - 50000. cm-1, ATM      1
 LEVEL PRESSURE   UPWARD FLUX   DIFDOWN FLUX  DIRDOWN FLUX  DOWNWARD FLUX   NET FLUX    HEATING RATE
          mb          W/m2          W/m2          W/m2        W/m2          W/m2       degree/day
  51    .06700        0.0055        0.0000        0.9670        0.9670       0.961557       0.00000
  50    .07753        0.0054        0.0001        0.9646        0.9646       0.959223       1.87018
  49    .09103        0.0053        0.0002        0.9611        0.9612       0.955897       2.07920
  48    0.1069        0.0053        0.0002        0.9565        0.9568       0.951530       2.32416
  47    0.1255        0.0052        0.0004        0.9506        0.9510       0.945800       2.59773
  46    0.1487        0.0051        0.0005        0.9421        0.9426       0.937529       3.01499
  45    0.1794        0.0049        0.0007        0.9291        0.9298       0.924888       3.47021
  44    0.2165        0.0047        0.0009        0.9121        0.9129       0.908213       3.79334
  43    0.2613        0.0045        0.0011        0.8897        0.8909       0.886340       4.12290
  42    0.3336        0.0042        0.0015        0.8495        0.8510       0.846821       4.60761
  41    0.4307        0.0038        0.0019        0.7936        0.7955       0.791657       4.79631
  40    0.5894        0.0033        0.0025        0.7000        0.7025       0.699232       4.91507
  39     1.339        0.0017        0.0032        0.3266        0.3298       0.328051       4.17882
  38     1.782        0.0012        0.0028        0.2066        0.2094       0.208165       2.28244
  37     2.292        0.0009        0.0024        0.1299        0.1323       0.131391       1.27158
  36     2.964        0.0006        0.0019        0.0776        0.0795       0.078945       0.65836
  35     3.853        0.0004        0.0015        0.0436        0.0451       0.044708       0.32491
  34     5.035        0.0002        0.0011        0.0236        0.0247       0.024454       0.14469
  33     6.613        0.0001        0.0008        0.0121        0.0129       0.012725       0.06270
  32     8.786        0.0001        0.0005        0.0055        0.0060       0.005939       0.02635
  31     11.80        0.0000        0.0003        0.0020        0.0023       0.002306       0.01017
  30     15.07        0.0000        0.0002        0.0008        0.0010       0.000954       0.00349
  29     18.79        0.0000        0.0001        0.0003        0.0004       0.000393       0.00127
  28     23.16        0.0000        0.0001        0.0001        0.0002       0.000156       0.00046
  27     28.12        0.0000        0.0000        0.0000        0.0001       0.000061       0.00016
  26     33.73        0.0000        0.0000        0.0000        0.0000       0.000024       0.00005
  25     40.54        0.0000        0.0000        0.0000        0.0000       0.000009       0.00002
  24     48.69        0.0000        0.0000        0.0000        0.0000       0.000003       0.00001
  23     57.69        0.0000        0.0000        0.0000        0.0000       0.000001       0.00000
  22     68.43        0.0000        0.0000        0.0000        0.0000       0.000000       0.00000
  21     81.20        0.0000        0.0000        0.0000        0.0000       0.000000       0.00000
  20     96.49        0.0000        0.0000        0.0000        0.0000       0.000000       0.00000
  19     114.6        0.0000        0.0000        0.0000        0.0000       0.000000       0.00000
  18     136.5        0.0000        0.0000        0.0000        0.0000       0.000000       0.00000
  17     162.9        0.0000        0.0000        0.0000        0.0000       0.000000       0.00000
  16     196.4        0.0000        0.0000        0.0000        0.0000       0.000000       0.00000
  15     218.7        0.0000        0.0000        0.0000        0.0000       0.000000       0.00000
  14     243.0        0.0000        0.0000        0.0000        0.0000       0.000000       0.00000
  13     269.0        0.0000        0.0000        0.0000        0.0000       0.000000       0.00000
  12     297.5        0.0000        0.0000        0.0000        0.0000       0.000000       0.00000
  11     328.5        0.0000        0.0000        0.0000        0.0000       0.000000       0.00000
  10     361.9        0.0000        0.0000        0.0000        0.0000       0.000000       0.00000
   9     398.1        0.0000        0.0000        0.0000        0.0000       0.000000       0.00000
   8     437.6        0.0000        0.0000        0.0000        0.0000       0.000000       0.00000
   7     480.5        0.0000        0.0000        0.0000        0.0000       0.000000       0.00000
   6     533.0        0.0000        0.0000        0.0000        0.0000       0.000000       0.00000
   5     589.8        0.0000        0.0000        0.0000        0.0000       0.000000       0.00000
   4     651.6        0.0000        0.0000        0.0000        0.0000       0.000000       0.00000
   3     718.7        0.0000        0.0000        0.0000        0.0000       0.000000       0.00000
   2     792.3        0.0000        0.0000        0.0000        0.0000       0.000000       0.00000
   1     891.5        0.0000        0.0000        0.0000        0.0000       0.000000       0.00000
   0    1013.0        0.0000        0.0000        0.0000        0.0000       0.000000       0.00000



 Wavenumbers:   820. -  2600. cm-1, ATM      1
 LEVEL PRESSURE   UPWARD FLUX   DIFDOWN FLUX  DIRDOWN FLUX  DOWNWARD FLUX   NET FLUX    HEATING RATE
          mb          W/m2          W/m2          W/m2        W/m2          W/m2       degree/day
  51    .06700        0.5240        0.0000        4.5237        4.5237       3.999688       0.00000
  50    .07753        0.5240        0.0000        4.5206        4.5206       3.996609       2.46733
  49    .09103        0.5240        0.0000        4.5198        4.5198       3.995769       0.52539
  48    0.1069        0.5240        0.0000        4.5188        4.5188       3.994831       0.49933
  47    0.1255        0.5240        0.0000        4.5178        4.5178       3.993800       0.46734
  46    0.1487        0.5240        0.0000        4.5166        4.5166       3.992584       0.44309
  45    0.1794        0.5240        0.0000        4.5151        4.5151       3.991093       0.40934
  44    0.2165        0.5240        0.0000        4.5135        4.5135       3.989536       0.35434
  43    0.2613        0.5240        0.0000        4.5119        4.5119       3.987888       0.31048
  42    0.3336        0.5240        0.0000        4.5094        4.5094       3.985417       0.28818
  41    0.4307        0.5240        0.0000        4.5063        4.5063       3.982296       0.27131
  40    0.5894        0.5240        0.0000        4.5012        4.5012       3.977203       0.27087
  39     1.339        0.5240        0.0000        4.4780        4.4780       3.953986       0.26137
  38     1.782        0.5240        0.0000        4.4652        4.4652       3.941180       0.24382
  37     2.292        0.5240        0.0000        4.4510        4.4510       3.927012       0.23465
  36     2.964        0.5240        0.0000        4.4335        4.4335       3.909474       0.22016
  35     3.853        0.5240        0.0000        4.4120        4.4120       3.887975       0.20403
  34     5.035        0.5240        0.0000        4.3855        4.3855       3.861491       0.18919
  33     6.613        0.5240        0.0000        4.3526        4.3526       3.828585       0.17592
  32     8.786        0.5240        0.0000        4.3124        4.3124       3.788436       0.15592
  31     11.80        0.5240        0.0000        4.2658        4.2658       3.741768       0.13065
  30     15.07        0.5240        0.0000        4.2295        4.2295       3.705505       0.09362
  29     18.79        0.5240        0.0000        4.2012        4.2012       3.677177       0.06423
  28     23.16        0.5240        0.0000        4.1776        4.1776       3.653529       0.04573
  27     28.12        0.5240        0.0000        4.1556        4.1556       3.631581       0.03731
  26     33.73        0.5240        0.0000        4.1333        4.1333       3.609243       0.03359
  25     40.54        0.5241        0.0000        4.1076        4.1076       3.583511       0.03192
  24     48.69        0.5241        0.0000        4.0778        4.0779       3.553790       0.03076
  23     57.69        0.5241        0.0000        4.0463        4.0463       3.522273       0.02954
  22     68.43        0.5241        0.0000        4.0102        4.0102       3.486104       0.02843
  21     81.20        0.5241        0.0000        3.9694        3.9694       3.445330       0.02694
  20     96.49        0.5241        0.0000        3.9236        3.9236       3.399449       0.02532
  19     114.6        0.5242        0.0000        3.8721        3.8721       3.347920       0.02406
  18     136.5        0.5242        0.0000        3.8152        3.8152       3.291017       0.02188
  17     162.9        0.5242        0.0000        3.7475        3.7476       3.223339       0.02163
  16     196.4        0.5243        0.0000        3.6515        3.6515       3.127241       0.02419
  15     218.7        0.5244        0.0000        3.5705        3.5706       3.046182       0.03078
  14     243.0        0.5245        0.0000        3.4627        3.4627       2.938185       0.03746
  13     269.0        0.5247        0.0000        3.3375        3.3376       2.812860       0.04065
  12     297.5        0.5250        0.0000        3.1806        3.1806       2.655565       0.04665
  11     328.5        0.5255        0.0000        2.9947        2.9947       2.469202       0.05067
  10     361.9        0.5261        0.0000        2.7887        2.7887       2.262590       0.05228
   9     398.1        0.5269        0.0000        2.5918        2.5919       2.064923       0.04605
   8     437.6        0.5280        0.0000        2.4308        2.4309       1.902857       0.03465
   7     480.5        0.5294        0.0000        2.3163        2.3163       1.786945       0.02276
   6     533.0        0.5315        0.0000        2.2084        2.2084       1.676880       0.01771
   5     589.8        0.5348        0.0000        2.0884        2.0884       1.553647       0.01829
   4     651.6        0.5407        0.0000        1.9385        1.9386       1.397820       0.02131
   3     718.7        0.5512        0.0000        1.7754        1.7755       1.224266       0.02181
   2     792.3        0.5705        0.0000        1.6023        1.6023       1.031852       0.02207
   1     891.5        0.6195        0.0000        1.3516        1.3517       0.732190       0.02550
   0    1013.0        0.7402        0.0000        1.0105        1.0106       0.270324       0.03207

  Modules and versions used in this calculation:

       rrtmg_sw.1col.f90:  $Revision$                    rrtmg_sw_init.f90:  $Revision$        
     rrtmgsw_cldprop.f90:  $Revision$                  rrtmgsw_cldprmc.f90:  NOT USED          
     rrtmg_sw_reftra.f90:  $Revision$                  rrtmg_sw_spcvrt.f90:  NOT USED          
     rrtmg_sw_spcvmc.f90:  NOT USED                    rrtmgsw_setcoef.f90:  NOT USED          
     rrtmg_sw_taumol.f90:  $Revision$                  rrtmg_sw_vrtqdr.f90:  NOT USED          
                rrtatm.f:  NOT USED                             util_xxx.f:  NOT USED          
                 extra.f:  NOT USED                       rrtmg_sw_k_g.f90:  $Revision$        

