

 Wavenumbers:   820. - 50000. cm-1, ATM      1
 LEVEL PRESSURE   UPWARD FLUX   DIFDOWN FLUX  DIRDOWN FLUX  DOWNWARD FLUX   NET FLUX    HEATING RATE
          mb          W/m2          W/m2          W/m2        W/m2          W/m2       degree/day
  51    .06700      745.1267        0.0000     1178.5299     1178.5299     433.403187       0.00000
  50    .07753      745.1269        0.0017     1178.5089     1178.5106     433.383743      15.58433
  49    .09103      745.1270        0.0039     1178.4899     1178.4938     433.366809      10.58424
  48    0.1069      745.1273        0.0064     1178.4686     1178.4750     433.347710      10.16684
  47    0.1255      745.1277        0.0093     1178.4430     1178.4523     433.324625      10.46565
  46    0.1487      745.1283        0.0130     1178.4083     1178.4213     433.292989      11.53145
  45    0.1794      745.1293        0.0179     1178.3574     1178.3753     433.246042      12.88805
  44    0.2165      745.1307        0.0238     1178.2919     1178.3157     433.185067      13.87084
  43    0.2613      745.1326        0.0307     1178.2073     1178.2381     433.105460      15.00551
  42    0.3336      745.1363        0.0422     1178.0543     1178.0965     432.960148      16.94201
  41    0.4307      745.1421        0.0573     1177.8354     1177.8926     432.750507      18.22782
  40    0.5894      745.1534        0.0818     1177.4438     1177.5256     432.372197      20.11802
  39     1.339      745.2400        0.1942     1175.1487     1175.3429     430.102840      25.54884
  38     1.782      745.3147        0.2580     1173.7104     1173.9683     428.653654      27.59016
  37     2.292      745.4229        0.3307     1172.1429     1172.4736     427.050738      26.54846
  36     2.964      745.5982        0.4254     1170.3569     1170.7822     425.184046      23.43263
  35     3.853      745.8763        0.5498     1168.4542     1169.0040     423.127628      19.51578
  34     5.035      746.2917        0.7143     1166.4877     1167.2020     420.910293      15.83972
  33     6.613      746.8709        0.9335     1164.4480     1165.3815     418.510583      12.82885
  32     8.786      747.6294        1.2281     1162.3192     1163.5473     415.917836      10.06929
  31     11.80      748.6294        1.6485     1159.9454     1161.5939     412.964431       8.26860
  30     15.07      749.6044        2.0990     1157.8685     1159.9675     410.363104       6.71612
  29     18.79      750.6176        2.6067     1155.8508     1158.4575     407.839840       5.72102
  28     23.16      751.6999        3.1986     1153.7890     1156.9877     405.287826       4.93477
  27     28.12      752.8184        3.8746     1151.7101     1155.5847     402.766244       4.28652
  26     33.73      753.8941        4.6310     1149.6810     1154.3120     400.417919       3.53077
  25     40.54      754.9868        5.5448     1147.5303     1153.0751     398.088342       2.89010
  24     48.69      756.1026        6.6460     1145.2129     1151.8589     395.756253       2.41335
  23     57.69      757.1309        7.8549     1142.9116     1150.7665     393.635557       1.98783
  22     68.43      758.1389        9.2939     1140.4143     1149.7082     391.569292       1.62436
  21     81.20      759.0340       11.0090     1137.7366     1148.7457     389.711716       1.22746
  20     96.49      759.8121       13.0519     1134.8117     1147.8636     388.051466       0.91634
  19     114.6      760.6092       15.4707     1131.4727     1146.9434     386.334205       0.80184
  18     136.5      761.4497       18.3226     1127.6357     1145.9583     384.508581       0.70200
  17     162.9      762.3556       21.6984     1123.1331     1144.8315     382.475915       0.64972
  16     196.4      763.3199       26.0574     1117.2568     1143.3142     379.994264       0.62466
  15     218.7      763.8739       28.8939     1112.9479     1141.8418     377.967899       0.76934
  14     243.0      764.4417       31.9590     1107.5903     1139.5493     375.107520       0.99207
  13     269.0      765.0234       35.2597     1100.8208     1136.0805     371.057163       1.31392
  12     297.5      765.6245       38.8025     1092.4079     1131.2104     365.585973       1.62270
  11     328.5      766.2675       42.6020     1083.1122     1125.7142     359.446710       1.66925
  10     361.9      766.9593       46.6600     1073.0789     1119.7389     352.779593       1.68685
   9     398.1      767.7132       50.9900     1062.0456     1113.0356     345.322416       1.73735
   8     437.6      768.5528       55.5971     1049.6608     1105.2579     336.705139       1.84243
   7     480.5      769.4995       60.4879     1036.0163     1096.5042     327.004701       1.90513
   6     533.0      770.7667       66.4416     1018.9355     1085.3771     314.610439       1.99384
   5     589.8      772.3390       72.7787     1000.0628     1072.8414     300.502442       2.09409
   4     651.6      774.4791       79.5000      978.3617     1057.8617     283.382654       2.34118
   3     718.7      777.4930       86.6047      954.5397     1041.1444     263.651359       2.47968
   2     792.3      782.1080       94.0796      928.4592     1022.5388     240.430798       2.66314
   1     891.5      792.1886      103.9493      893.3013      997.2506     205.061979       3.00972
   0    1013.0      816.0950      115.4858      852.5482      968.0340     151.939036       3.68860



 Wavenumbers:  2600. -  3250. cm-1, ATM      1
 LEVEL PRESSURE   UPWARD FLUX   DIFDOWN FLUX  DIRDOWN FLUX  DOWNWARD FLUX   NET FLUX    HEATING RATE
          mb          W/m2          W/m2          W/m2        W/m2          W/m2       degree/day
  51    .06700        2.2602        0.0000       10.3869       10.3869       8.126627       0.00000
  50    .07753        2.2602        0.0000       10.3869       10.3869       8.126619       0.00640
  49    .09103        2.2602        0.0000       10.3868       10.3868       8.126609       0.00627
  48    0.1069        2.2602        0.0000       10.3868       10.3868       8.126598       0.00613
  47    0.1255        2.2602        0.0000       10.3868       10.3868       8.126584       0.00600
  46    0.1487        2.2602        0.0000       10.3868       10.3868       8.126568       0.00608
  45    0.1794        2.2602        0.0000       10.3868       10.3868       8.126545       0.00625
  44    0.2165        2.2602        0.0000       10.3868       10.3868       8.126518       0.00613
  43    0.2613        2.2602        0.0000       10.3867       10.3867       8.126486       0.00601
  42    0.3336        2.2602        0.0000       10.3867       10.3867       8.126433       0.00618
  41    0.4307        2.2602        0.0000       10.3866       10.3866       8.126362       0.00622
  40    0.5894        2.2602        0.0000       10.3865       10.3865       8.126241       0.00640
  39     1.339        2.2602        0.0000       10.3858       10.3858       8.125526       0.00805
  38     1.782        2.2602        0.0000       10.3852       10.3852       8.124972       0.01054
  37     2.292        2.2602        0.0000       10.3845       10.3845       8.124235       0.01221
  36     2.964        2.2602        0.0000       10.3834       10.3834       8.123152       0.01360
  35     3.853        2.2602        0.0000       10.3818       10.3818       8.121582       0.01490
  34     5.035        2.2602        0.0000       10.3796       10.3796       8.119338       0.01603
  33     6.613        2.2602        0.0000       10.3764       10.3764       8.116180       0.01688
  32     8.786        2.2602        0.0000       10.3720       10.3720       8.111811       0.01696
  31     11.80        2.2602        0.0000       10.3658       10.3658       8.105594       0.01741
  30     15.07        2.2602        0.0000       10.3594       10.3594       8.099158       0.01661
  29     18.79        2.2602        0.0000       10.3526       10.3526       8.092376       0.01538
  28     23.16        2.2602        0.0000       10.3453       10.3454       8.085110       0.01405
  27     28.12        2.2603        0.0000       10.3378       10.3378       8.077555       0.01284
  26     33.73        2.2603        0.0000       10.3297       10.3297       8.069468       0.01216
  25     40.54        2.2603        0.0000       10.3200       10.3200       8.059758       0.01205
  24     48.69        2.2603        0.0000       10.3082       10.3082       8.047898       0.01227
  23     57.69        2.2603        0.0000       10.2946       10.2946       8.034283       0.01276
  22     68.43        2.2604        0.0000       10.2773       10.2774       8.016995       0.01359
  21     81.20        2.2604        0.0000       10.2553       10.2553       7.994853       0.01463
  20     96.49        2.2605        0.0000       10.2272       10.2272       7.966699       0.01554
  19     114.6        2.2607        0.0001       10.1911       10.1912       7.930520       0.01689
  18     136.5        2.2609        0.0001       10.1470       10.1471       7.886212       0.01704
  17     162.9        2.2612        0.0001       10.0936       10.0937       7.832526       0.01716
  16     196.4        2.2617        0.0001       10.0240       10.0241       7.762438       0.01764
  15     218.7        2.2622        0.0001        9.9753        9.9754       7.713244       0.01868
  14     243.0        2.2630        0.0001        9.9155        9.9156       7.652619       0.02103
  13     269.0        2.2643        0.0001        9.8402        9.8403       7.575985       0.02486
  12     297.5        2.2663        0.0001        9.7475        9.7476       7.481314       0.02808
  11     328.5        2.2691        0.0001        9.6429        9.6431       7.373996       0.02918
  10     361.9        2.2728        0.0002        9.5262        9.5264       7.253557       0.03047
   9     398.1        2.2779        0.0002        9.3913        9.3915       7.113567       0.03261
   8     437.6        2.2849        0.0002        9.2275        9.2277       6.942791       0.03651
   7     480.5        2.2944        0.0002        9.0239        9.0241       6.729758       0.04184
   6     533.0        2.3096        0.0002        8.7314        8.7316       6.422080       0.04950
   5     589.8        2.3322        0.0002        8.3583        8.3585       6.026341       0.05874
   4     651.6        2.3683        0.0002        7.8873        7.8876       5.519295       0.06934
   3     718.7        2.4251        0.0002        7.3588        7.3590       4.933982       0.07356
   2     792.3        2.5201        0.0003        6.7802        6.7804       4.260325       0.07726
   1     891.5        2.7464        0.0003        5.9862        5.9864       3.240048       0.08682
   0    1013.0        3.3673        0.0002        5.0535        5.0537       1.686398       0.10788



 Wavenumbers:  3250. -  4000. cm-1, ATM      1
 LEVEL PRESSURE   UPWARD FLUX   DIFDOWN FLUX  DIRDOWN FLUX  DOWNWARD FLUX   NET FLUX    HEATING RATE
          mb          W/m2          W/m2          W/m2        W/m2          W/m2       degree/day
  51    .06700        0.0019        0.0000       17.5107       17.5107      17.508847       0.00000
  50    .07753        0.0019        0.0000       17.5052       17.5052      17.503298       4.44766
  49    .09103        0.0019        0.0000       17.5003       17.5003      17.498389       3.06837
  48    0.1069        0.0019        0.0000       17.4963       17.4963      17.494364       2.14254
  47    0.1255        0.0019        0.0000       17.4928       17.4928      17.490864       1.58670
  46    0.1487        0.0019        0.0000       17.4892       17.4892      17.487312       1.29476
  45    0.1794        0.0019        0.0000       17.4851       17.4851      17.483227       1.12145
  44    0.2165        0.0019        0.0000       17.4809       17.4809      17.478993       0.96320
  43    0.2613        0.0019        0.0000       17.4764       17.4764      17.474517       0.84364
  42    0.3336        0.0019        0.0000       17.4700       17.4700      17.468077       0.75090
  41    0.4307        0.0019        0.0000       17.4628       17.4628      17.460902       0.62383
  40    0.5894        0.0019        0.0000       17.4530       17.4530      17.451141       0.51906
  39     1.339        0.0019        0.0000       17.4178       17.4178      17.415869       0.39710
  38     1.782        0.0019        0.0000       17.4010       17.4010      17.399145       0.31841
  37     2.292        0.0019        0.0000       17.3843       17.3843      17.382405       0.27725
  36     2.964        0.0019        0.0000       17.3652       17.3652      17.363345       0.23926
  35     3.853        0.0019        0.0000       17.3431       17.3432      17.341269       0.20951
  34     5.035        0.0019        0.0000       17.3168       17.3168      17.314909       0.18831
  33     6.613        0.0019        0.0000       17.2839       17.2839      17.282065       0.17558
  32     8.786        0.0019        0.0000       17.2404       17.2404      17.238504       0.16918
  31     11.80        0.0019        0.0000       17.1766       17.1766      17.174758       0.17847
  30     15.07        0.0019        0.0000       17.1053       17.1054      17.103501       0.18397
  29     18.79        0.0019        0.0000       17.0217       17.0217      17.019833       0.18970
  28     23.16        0.0019        0.0000       16.9215       16.9216      16.919696       0.19363
  27     28.12        0.0018        0.0000       16.8058       16.8059      16.804035       0.19662
  26     33.73        0.0018        0.0000       16.6782       16.6783      16.676445       0.19184
  25     40.54        0.0018        0.0001       16.5302       16.5303      16.528440       0.18362
  24     48.69        0.0018        0.0001       16.3653       16.3653      16.363519       0.17067
  23     57.69        0.0018        0.0001       16.2011       16.2012      16.199415       0.15382
  22     68.43        0.0018        0.0001       16.0251       16.0252      16.023404       0.13837
  21     81.20        0.0018        0.0001       15.8331       15.8332      15.831454       0.12684
  20     96.49        0.0018        0.0001       15.6170       15.6171      15.615343       0.11928
  19     114.6        0.0017        0.0001       15.3575       15.3576      15.355881       0.12115
  18     136.5        0.0017        0.0002       15.0569       15.0571      15.055347       0.11556
  17     162.9        0.0017        0.0002       14.6938       14.6940      14.692327       0.11604
  16     196.4        0.0016        0.0002       14.1659       14.1662      14.164521       0.13286
  15     218.7        0.0016        0.0002       13.6753       13.6755      13.673911       0.18627
  14     243.0        0.0016        0.0003       12.9913       12.9916      12.989989       0.23721
  13     269.0        0.0016        0.0003       12.0865       12.0868      12.085225       0.29350
  12     297.5        0.0016        0.0003       11.0209       11.0212      11.019595       0.31605
  11     328.5        0.0015        0.0003        9.9695        9.9698       9.968243       0.28586
  10     361.9        0.0015        0.0002        8.9402        8.9404       8.938901       0.26043
   9     398.1        0.0015        0.0002        7.9121        7.9124       7.910848       0.23951
   8     437.6        0.0015        0.0002        6.9128        6.9130       6.911448       0.21368
   7     480.5        0.0016        0.0002        6.0045        6.0047       6.003132       0.17839
   6     533.0        0.0016        0.0002        5.0469        5.0471       5.045522       0.15405
   5     589.8        0.0017        0.0002        4.1343        4.1345       4.132729       0.13549
   4     651.6        0.0020        0.0001        3.2085        3.2086       3.206606       0.12665
   3     718.7        0.0026        0.0001        2.3230        2.3231       2.320479       0.11136
   2     792.3        0.0043        0.0001        1.5041        1.5041       1.499850       0.09412
   1     891.5        0.0132        0.0000        0.7141        0.7142       0.701004       0.06798
   0    1013.0        0.1268        0.0000        0.1903        0.1903       0.063515       0.04426



 Wavenumbers:  4000. -  4650. cm-1, ATM      1
 LEVEL PRESSURE   UPWARD FLUX   DIFDOWN FLUX  DIRDOWN FLUX  DOWNWARD FLUX   NET FLUX    HEATING RATE
          mb          W/m2          W/m2          W/m2        W/m2          W/m2       degree/day
  51    .06700        8.4011        0.0000       20.5629       20.5629      12.161811       0.00000
  50    .07753        8.4011        0.0000       20.5629       20.5629      12.161810       0.00080
  49    .09103        8.4011        0.0000       20.5629       20.5629      12.161809       0.00078
  48    0.1069        8.4011        0.0000       20.5629       20.5629      12.161808       0.00076
  47    0.1255        8.4011        0.0000       20.5629       20.5629      12.161806       0.00075
  46    0.1487        8.4011        0.0000       20.5629       20.5629      12.161804       0.00076
  45    0.1794        8.4011        0.0000       20.5629       20.5629      12.161801       0.00078
  44    0.2165        8.4011        0.0000       20.5629       20.5629      12.161798       0.00076
  43    0.2613        8.4011        0.0000       20.5629       20.5629      12.161794       0.00075
  42    0.3336        8.4011        0.0000       20.5629       20.5629      12.161787       0.00077
  41    0.4307        8.4011        0.0000       20.5629       20.5629      12.161778       0.00077
  40    0.5894        8.4011        0.0000       20.5628       20.5628      12.161763       0.00080
  39     1.339        8.4011        0.0000       20.5627       20.5628      12.161674       0.00101
  38     1.782        8.4011        0.0000       20.5627       20.5627      12.161604       0.00133
  37     2.292        8.4011        0.0000       20.5626       20.5626      12.161510       0.00156
  36     2.964        8.4011        0.0000       20.5624       20.5624      12.161369       0.00176
  35     3.853        8.4011        0.0000       20.5622       20.5622      12.161161       0.00198
  34     5.035        8.4011        0.0000       20.5619       20.5619      12.160853       0.00220
  33     6.613        8.4011        0.0000       20.5614       20.5615      12.160400       0.00242
  32     8.786        8.4011        0.0000       20.5608       20.5608      12.159730       0.00260
  31     11.80        8.4011        0.0001       20.5597       20.5597      12.158675       0.00295
  30     15.07        8.4011        0.0001       20.5584       20.5585      12.157435       0.00320
  29     18.79        8.4011        0.0001       20.5569       20.5570      12.155929       0.00341
  28     23.16        8.4011        0.0001       20.5550       20.5551      12.154054       0.00363
  27     28.12        8.4011        0.0002       20.5527       20.5529      12.151774       0.00388
  26     33.73        8.4011        0.0002       20.5499       20.5501      12.148951       0.00425
  25     40.54        8.4011        0.0002       20.5460       20.5462      12.145100       0.00478
  24     48.69        8.4012        0.0003       20.5409       20.5411      12.139934       0.00535
  23     57.69        8.4013        0.0003       20.5347       20.5350      12.133766       0.00578
  22     68.43        8.4014        0.0004       20.5270       20.5274      12.125980       0.00612
  21     81.20        8.4016        0.0004       20.5174       20.5179      12.116307       0.00639
  20     96.49        8.4018        0.0005       20.5057       20.5063      12.104440       0.00655
  19     114.6        8.4022        0.0006       20.4911       20.4917      12.089469       0.00699
  18     136.5        8.4028        0.0007       20.4733       20.4741      12.071268       0.00700
  17     162.9        8.4037        0.0009       20.4515       20.4524      12.048766       0.00719
  16     196.4        8.4051        0.0010       20.4215       20.4225      12.017372       0.00790
  15     218.7        8.4065        0.0012       20.3984       20.3995      11.992990       0.00926
  14     243.0        8.4086        0.0013       20.3670       20.3683      11.959704       0.01154
  13     269.0        8.4117        0.0014       20.3225       20.3239      11.912218       0.01540
  12     297.5        8.4163        0.0016       20.2611       20.2627      11.846377       0.01953
  11     328.5        8.4226        0.0017       20.1854       20.1872      11.764516       0.02226
  10     361.9        8.4309        0.0019       20.0909       20.0928      11.661881       0.02597
   9     398.1        8.4413        0.0021       19.9678       19.9699      11.528628       0.03104
   8     437.6        8.4542        0.0023       19.8033       19.8056      11.351370       0.03790
   7     480.5        8.4704        0.0025       19.5934       19.5959      11.125418       0.04438
   6     533.0        8.4947        0.0027       19.2986       19.3013      10.806557       0.05129
   5     589.8        8.5286        0.0030       18.9494       18.9523      10.423688       0.05683
   4     651.6        8.5807        0.0032       18.5295       18.5327       9.952049       0.06450
   3     718.7        8.6623        0.0035       18.0248       18.0282       9.365925       0.07366
   2     792.3        8.7988        0.0037       17.3523       17.3559       8.557129       0.09276
   1     891.5        9.1215        0.0039       16.2629       16.2668       7.145331       0.12014
   0    1013.0        9.9738        0.0042       14.9639       14.9681       4.994327       0.14936



 Wavenumbers:  4650. -  5150. cm-1, ATM      1
 LEVEL PRESSURE   UPWARD FLUX   DIFDOWN FLUX  DIRDOWN FLUX  DOWNWARD FLUX   NET FLUX    HEATING RATE
          mb          W/m2          W/m2          W/m2        W/m2          W/m2       degree/day
  51    .06700        6.0750        0.0000       19.4637       19.4637      13.388764       0.00000
  50    .07753        6.0750        0.0000       19.4635       19.4635      13.388527       0.18922
  49    .09103        6.0750        0.0000       19.4632       19.4632      13.388232       0.18494
  48    0.1069        6.0750        0.0000       19.4629       19.4629      13.387893       0.18047
  47    0.1255        6.0750        0.0000       19.4625       19.4625      13.387504       0.17597
  46    0.1487        6.0750        0.0000       19.4620       19.4620      13.387017       0.17778
  45    0.1794        6.0750        0.0000       19.4613       19.4613      13.386354       0.18190
  44    0.2165        6.0750        0.0000       19.4606       19.4606      13.385575       0.17719
  43    0.2613        6.0750        0.0000       19.4596       19.4596      13.384660       0.17245
  42    0.3336        6.0750        0.0000       19.4581       19.4581      13.383164       0.17441
  41    0.4307        6.0750        0.0000       19.4562       19.4562      13.381213       0.16965
  40    0.5894        6.0750        0.0000       19.4531       19.4531      13.378104       0.16533
  39     1.339        6.0750        0.0000       19.4396       19.4396      13.364588       0.15217
  38     1.782        6.0750        0.0000       19.4325       19.4325      13.357490       0.13513
  37     2.292        6.0750        0.0000       19.4249       19.4250      13.349984       0.12432
  36     2.964        6.0750        0.0000       19.4161       19.4161      13.341138       0.11104
  35     3.853        6.0750        0.0000       19.4059       19.4059      13.330947       0.09672
  34     5.035        6.0750        0.0000       19.3945       19.3946      13.319576       0.08123
  33     6.613        6.0750        0.0001       19.3822       19.3822      13.307267       0.06580
  32     8.786        6.0750        0.0001       19.3691       19.3692      13.294210       0.05071
  31     11.80        6.0750        0.0001       19.3545       19.3546      13.279553       0.04104
  30     15.07        6.0750        0.0001       19.3412       19.3413      13.266232       0.03439
  29     18.79        6.0751        0.0001       19.3270       19.3271      13.252020       0.03222
  28     23.16        6.0751        0.0002       19.3101       19.3102      13.235103       0.03271
  27     28.12        6.0752        0.0002       19.2895       19.2897      13.214498       0.03503
  26     33.73        6.0754        0.0003       19.2646       19.2649      13.189552       0.03751
  25     40.54        6.0755        0.0003       19.2320       19.2323      13.156783       0.04065
  24     48.69        6.0758        0.0004       19.1894       19.1898      13.114024       0.04425
  23     57.69        6.0761        0.0004       19.1394       19.1398      13.063720       0.04715
  22     68.43        6.0766        0.0005       19.0764       19.0769      13.000372       0.04980
  21     81.20        6.0772        0.0006       18.9984       18.9990      12.921793       0.05192
  20     96.49        6.0781        0.0007       18.9035       18.9042      12.826103       0.05281
  19     114.6        6.0793        0.0009       18.7910       18.7918      12.712483       0.05305
  18     136.5        6.0810        0.0010       18.6609       18.6620      12.580929       0.05059
  17     162.9        6.0834        0.0012       18.5139       18.5151      12.431706       0.04770
  16     196.4        6.0870        0.0014       18.3374       18.3389      12.251809       0.04528
  15     218.7        6.0899        0.0016       18.2289       18.2304      12.140524       0.04225
  14     243.0        6.0937        0.0018       18.1147       18.1165      12.022774       0.04084
  13     269.0        6.0988        0.0019       17.9917       17.9937      11.894921       0.04147
  12     297.5        6.1059        0.0021       17.8545       17.8566      11.750702       0.04277
  11     328.5        6.1153        0.0023       17.7022       17.7045      11.589206       0.04391
  10     361.9        6.1274        0.0026       17.5308       17.5334      11.405987       0.04636
   9     398.1        6.1431        0.0028       17.3339       17.3367      11.193665       0.04947
   8     437.6        6.1634        0.0030       17.1042       17.1072      10.943865       0.05341
   7     480.5        6.1897        0.0033       16.8350       16.8382      10.648493       0.05801
   6     533.0        6.2297        0.0035       16.4690       16.4725      10.242819       0.06526
   5     589.8        6.2849        0.0038       16.0264       16.0303       9.745320       0.07385
   4     651.6        6.3658        0.0041       15.4763       15.4804       9.114559       0.08626
   3     718.7        6.4860        0.0043       14.8212       14.8255       8.339523       0.09740
   2     792.3        6.6709        0.0046       14.0683       14.0729       7.401933       0.10753
   1     891.5        7.0675        0.0049       13.0394       13.0442       5.976681       0.12128
   0    1013.0        7.9359        0.0051       11.9042       11.9094       3.973505       0.13909



 Wavenumbers:  5150. -  6150. cm-1, ATM      1
 LEVEL PRESSURE   UPWARD FLUX   DIFDOWN FLUX  DIRDOWN FLUX  DOWNWARD FLUX   NET FLUX    HEATING RATE
          mb          W/m2          W/m2          W/m2        W/m2          W/m2       degree/day
  51    .06700       14.6742        0.0000       48.7957       48.7957      34.121516       0.00000
  50    .07753       14.6742        0.0000       48.7956       48.7956      34.121477       0.03163
  49    .09103       14.6742        0.0000       48.7956       48.7956      34.121425       0.03211
  48    0.1069       14.6742        0.0000       48.7955       48.7955      34.121364       0.03263
  47    0.1255       14.6742        0.0000       48.7955       48.7955      34.121291       0.03313
  46    0.1487       14.6742        0.0000       48.7954       48.7954      34.121195       0.03491
  45    0.1794       14.6742        0.0000       48.7952       48.7952      34.121060       0.03716
  44    0.2165       14.6742        0.0000       48.7951       48.7951      34.120894       0.03773
  43    0.2613       14.6742        0.0000       48.7948       48.7949      34.120691       0.03832
  42    0.3336       14.6742        0.0000       48.7945       48.7945      34.120343       0.04051
  41    0.4307       14.6742        0.0000       48.7940       48.7940      34.119871       0.04108
  40    0.5894       14.6742        0.0000       48.7932       48.7932      34.119078       0.04214
  39     1.339       14.6742        0.0000       48.7894       48.7894      34.115244       0.04316
  38     1.782       14.6742        0.0001       48.7871       48.7872      34.113000       0.04274
  37     2.292       14.6742        0.0001       48.7845       48.7846      34.110448       0.04226
  36     2.964       14.6742        0.0001       48.7812       48.7813      34.107189       0.04091
  35     3.853       14.6742        0.0001       48.7771       48.7772      34.103019       0.03957
  34     5.035       14.6742        0.0002       48.7716       48.7718      34.097602       0.03869
  33     6.613       14.6742        0.0002       48.7645       48.7647      34.090498       0.03798
  32     8.786       14.6742        0.0003       48.7551       48.7554      34.081157       0.03628
  31     11.80       14.6743        0.0004       48.7421       48.7426      34.068276       0.03606
  30     15.07       14.6743        0.0005       48.7289       48.7294      34.055063       0.03411
  29     18.79       14.6744        0.0006       48.7147       48.7153      34.040925       0.03206
  28     23.16       14.6745        0.0008       48.6990       48.6998      34.025302       0.03021
  27     28.12       14.6747        0.0010       48.6821       48.6831      34.008415       0.02871
  26     33.73       14.6748        0.0012       48.6645       48.6656      33.990795       0.02649
  25     40.54       14.6751        0.0014       48.6447       48.6461      33.971037       0.02451
  24     48.69       14.6755        0.0017       48.6231       48.6248      33.949301       0.02249
  23     57.69       14.6759        0.0020       48.6011       48.6031      33.927148       0.02077
  22     68.43       14.6765        0.0023       48.5766       48.5790      33.902509       0.01937
  21     81.20       14.6772        0.0028       48.5491       48.5519      33.874714       0.01837
  20     96.49       14.6781        0.0033       48.5176       48.5209      33.842792       0.01762
  19     114.6       14.6792        0.0039       48.4808       48.4847      33.805470       0.01743
  18     136.5       14.6806        0.0047       48.4373       48.4420      33.761355       0.01696
  17     162.9       14.6823        0.0055       48.3717       48.3772      33.694919       0.02124
  16     196.4       14.6846        0.0067       48.2310       48.2377      33.553109       0.03570
  15     218.7       14.6863        0.0074       48.0275       48.0350      33.348703       0.07761
  14     243.0       14.6882        0.0082       47.6487       47.6569      32.968667       0.13181
  13     269.0       14.6906        0.0089       46.9533       46.9622      32.271571       0.22613
  12     297.5       14.6937        0.0097       45.8926       45.9023      31.208609       0.31526
  11     328.5       14.6976        0.0105       44.7499       44.7604      30.062822       0.31154
  10     361.9       14.7024        0.0113       43.5596       43.5709      28.868487       0.30218
   9     398.1       14.7086        0.0121       42.1918       42.2038      27.495289       0.31992
   8     437.6       14.7166        0.0128       40.5731       40.5859      25.869313       0.34764
   7     480.5       14.7272        0.0136       38.8070       38.8206      24.093388       0.34878
   6     533.0       14.7441        0.0145       36.6898       36.7043      21.960176       0.34317
   5     589.8       14.7699        0.0154       34.4960       34.5114      19.741509       0.32932
   4     651.6       14.8144        0.0163       32.2334       32.2497      17.435295       0.31538
   3     718.7       14.8916        0.0173       30.2116       30.2289      15.337382       0.26365
   2     792.3       15.0347        0.0185       28.5107       28.5292      13.494490       0.21136
   1     891.5       15.4194        0.0199       26.7750       26.7949      11.375571       0.18031
   0    1013.0       16.6303        0.0215       24.9336       24.9551       8.324773       0.21183



 Wavenumbers:  6150. -  7700. cm-1, ATM      1
 LEVEL PRESSURE   UPWARD FLUX   DIFDOWN FLUX  DIRDOWN FLUX  DOWNWARD FLUX   NET FLUX    HEATING RATE
          mb          W/m2          W/m2          W/m2        W/m2          W/m2       degree/day
  51    .06700       22.1382        0.0000       90.2495       90.2495      68.111317       0.00000
  50    .07753       22.1382        0.0000       90.2494       90.2494      68.111260       0.04554
  49    .09103       22.1382        0.0000       90.2493       90.2493      68.111187       0.04583
  48    0.1069       22.1382        0.0000       90.2493       90.2493      68.111100       0.04615
  47    0.1255       22.1382        0.0000       90.2491       90.2492      68.110997       0.04646
  46    0.1487       22.1382        0.0000       90.2490       90.2490      68.110864       0.04854
  45    0.1794       22.1382        0.0000       90.2488       90.2488      68.110677       0.05129
  44    0.2165       22.1382        0.0000       90.2486       90.2486      68.110450       0.05170
  43    0.2613       22.1381        0.0000       90.2483       90.2483      68.110173       0.05215
  42    0.3336       22.1381        0.0000       90.2478       90.2478      68.109704       0.05477
  41    0.4307       22.1381        0.0001       90.2472       90.2472      68.109068       0.05530
  40    0.5894       22.1381        0.0001       90.2461       90.2461      68.108006       0.05646
  39     1.339       22.1381        0.0002       90.2408       90.2410      68.102890       0.05760
  38     1.782       22.1380        0.0002       90.2377       90.2379      68.099896       0.05700
  37     2.292       22.1380        0.0003       90.2342       90.2345      68.096484       0.05650
  36     2.964       22.1380        0.0004       90.2297       90.2301      68.092107       0.05495
  35     3.853       22.1379        0.0005       90.2238       90.2244      68.086473       0.05346
  34     5.035       22.1378        0.0007       90.2162       90.2169      68.079127       0.05248
  33     6.613       22.1377        0.0009       90.2062       90.2072      68.069456       0.05170
  32     8.786       22.1376        0.0012       90.1930       90.1942      68.056672       0.04965
  31     11.80       22.1373        0.0016       90.1746       90.1762      68.038890       0.04979
  30     15.07       22.1371        0.0021       90.1555       90.1576      68.020445       0.04762
  29     18.79       22.1368        0.0026       90.1347       90.1373      68.000438       0.04536
  28     23.16       22.1365        0.0032       90.1114       90.1146      67.978010       0.04337
  27     28.12       22.1362        0.0039       90.0857       90.0896      67.953402       0.04183
  26     33.73       22.1358        0.0047       90.0585       90.0631      67.927299       0.03925
  25     40.54       22.1353        0.0056       90.0273       90.0329      67.897554       0.03690
  24     48.69       22.1348        0.0067       89.9923       89.9990      67.864188       0.03453
  23     57.69       22.1341        0.0079       89.9559       89.9638      67.829645       0.03238
  22     68.43       22.1334        0.0094       89.9146       89.9241      67.790658       0.03065
  21     81.20       22.1325        0.0112       89.8675       89.8787      67.746197       0.02938
  20     96.49       22.1315        0.0133       89.8128       89.8261      67.694620       0.02847
  19     114.6       22.1302        0.0158       89.7485       89.7642      67.634005       0.02830
  18     136.5       22.1288        0.0187       89.6719       89.6906      67.561841       0.02775
  17     162.9       22.1270        0.0222       89.5610       89.5832      67.456168       0.03378
  16     196.4       22.1249        0.0268       89.3326       89.3594      67.234461       0.05581
  15     218.7       22.1237        0.0297       89.0078       89.0375      66.913758       0.12176
  14     243.0       22.1226        0.0328       88.4244       88.4572      66.334585       0.20088
  13     269.0       22.1220        0.0359       87.4769       87.5128      65.390832       0.30615
  12     297.5       22.1224        0.0390       85.9565       85.9955      63.873153       0.45013
  11     328.5       22.1240        0.0422       84.0391       84.0813      61.957230       0.52093
  10     361.9       22.1276        0.0455       81.8940       81.9395      59.811869       0.54280
   9     398.1       22.1341        0.0488       79.5482       79.5969      57.462787       0.54728
   8     437.6       22.1454        0.0519       76.8475       76.8994      54.754056       0.57914
   7     480.5       22.1633        0.0550       73.7630       73.8179      51.654628       0.60872
   6     533.0       22.1970        0.0583       69.8611       69.9194      47.722420       0.63257
   5     589.8       22.2553        0.0615       65.6267       65.6882      43.432955       0.63670
   4     651.6       22.3651        0.0642       60.8791       60.9433      38.578195       0.66390
   3     718.7       22.5643        0.0668       56.0705       56.1373      33.572929       0.62902
   2     792.3       22.9395        0.0690       51.3189       51.3879      28.448403       0.58773
   1     891.5       23.9335        0.0717       45.7589       45.8306      21.897118       0.55748
   0    1013.0       26.9982        0.0748       40.4305       40.5053      13.507071       0.58256



 Wavenumbers:  7700. -  8050. cm-1, ATM      1
 LEVEL PRESSURE   UPWARD FLUX   DIFDOWN FLUX  DIRDOWN FLUX  DOWNWARD FLUX   NET FLUX    HEATING RATE
          mb          W/m2          W/m2          W/m2        W/m2          W/m2       degree/day
  51    .06700       11.7381        0.0000       21.3286       21.3286       9.590551       0.00000
  50    .07753       11.7381        0.0000       21.3286       21.3286       9.590525       0.02085
  49    .09103       11.7381        0.0000       21.3286       21.3286       9.590492       0.02044
  48    0.1069       11.7381        0.0000       21.3286       21.3286       9.590455       0.02001
  47    0.1255       11.7381        0.0000       21.3285       21.3285       9.590412       0.01958
  46    0.1487       11.7381        0.0000       21.3285       21.3285       9.590357       0.01987
  45    0.1794       11.7382        0.0000       21.3284       21.3285       9.590283       0.02044
  44    0.2165       11.7382        0.0000       21.3284       21.3284       9.590194       0.02005
  43    0.2613       11.7382        0.0000       21.3283       21.3283       9.590090       0.01968
  42    0.3336       11.7383        0.0000       21.3282       21.3282       9.589917       0.02014
  41    0.4307       11.7384        0.0000       21.3280       21.3280       9.589688       0.01992
  40    0.5894       11.7385        0.0000       21.3278       21.3278       9.589314       0.01990
  39     1.339       11.7390        0.0001       21.3265       21.3266       9.587544       0.01993
  38     1.782       11.7394        0.0001       21.3257       21.3259       9.586503       0.01981
  37     2.292       11.7397        0.0002       21.3249       21.3250       9.585299       0.01995
  36     2.964       11.7402        0.0002       21.3237       21.3239       9.583717       0.01986
  35     3.853       11.7409        0.0003       21.3223       21.3225       9.581626       0.01984
  34     5.035       11.7418        0.0003       21.3203       21.3206       9.578848       0.01985
  33     6.613       11.7429        0.0005       21.3176       21.3181       9.575135       0.01985
  32     8.786       11.7445        0.0006       21.3140       21.3146       9.570129       0.01944
  31     11.80       11.7468        0.0008       21.3089       21.3097       9.562962       0.02006
  30     15.07       11.7492        0.0010       21.3034       21.3045       9.555263       0.01988
  29     18.79       11.7520        0.0013       21.2972       21.2985       9.546560       0.01973
  28     23.16       11.7552        0.0016       21.2900       21.2916       9.536388       0.01967
  27     28.12       11.7589        0.0020       21.2817       21.2837       9.524749       0.01979
  26     33.73       11.7631        0.0023       21.2725       21.2748       9.511718       0.01959
  25     40.54       11.7682        0.0028       21.2613       21.2641       9.495964       0.01954
  24     48.69       11.7743        0.0034       21.2479       21.2513       9.476963       0.01966
  23     57.69       11.7811        0.0040       21.2332       21.2372       9.456082       0.01957
  22     68.43       11.7892        0.0047       21.2157       21.2204       9.431203       0.01956
  21     81.20       11.7990        0.0056       21.1949       21.2005       9.401552       0.01959
  20     96.49       11.8107        0.0067       21.1703       21.1769       9.366210       0.01951
  19     114.6       11.8248        0.0079       21.1411       21.1490       9.324235       0.01960
  18     136.5       11.8417        0.0094       21.1067       21.1161       9.274469       0.01914
  17     162.9       11.8621        0.0112       21.0661       21.0772       9.215176       0.01895
  16     196.4       11.8890        0.0134       21.0138       21.0272       9.138222       0.01937
  15     218.7       11.9070        0.0150       20.9796       20.9946       9.087605       0.01922
  14     243.0       11.9268        0.0166       20.9427       20.9593       9.032446       0.01913
  13     269.0       11.9488        0.0184       20.9028       20.9212       8.972415       0.01947
  12     297.5       11.9730        0.0203       20.8598       20.8801       8.907083       0.01938
  11     328.5       11.9998        0.0224       20.8134       20.8357       8.835894       0.01936
  10     361.9       12.0295        0.0246       20.7633       20.7879       8.758385       0.01961
   9     398.1       12.0626        0.0270       20.7093       20.7363       8.673707       0.01973
   8     437.6       12.0997        0.0296       20.6509       20.6805       8.580815       0.01986
   7     480.5       12.1413        0.0324       20.5876       20.6200       8.478687       0.02006
   6     533.0       12.1955        0.0358       20.5083       20.5440       8.348583       0.02093
   5     589.8       12.2586        0.0395       20.4200       20.4595       8.200873       0.02192
   4     651.6       12.3343        0.0434       20.3192       20.3627       8.028356       0.02359
   3     718.7       12.4270        0.0477       20.2021       20.2498       7.822816       0.02583
   2     792.3       12.5449        0.0522       20.0620       20.1142       7.569315       0.02907
   1     891.5       12.7447        0.0582       19.8434       19.9016       7.156848       0.03510
   0    1013.0       13.0669        0.0652       19.5335       19.5987       6.531754       0.04340



 Wavenumbers:  8050. - 12850. cm-1, ATM      1
 LEVEL PRESSURE   UPWARD FLUX   DIFDOWN FLUX  DIRDOWN FLUX  DOWNWARD FLUX   NET FLUX    HEATING RATE
          mb          W/m2          W/m2          W/m2        W/m2          W/m2       degree/day
  51    .06700      141.3205        0.0000      298.6167      298.6167     157.296210       0.00000
  50    .07753      141.3205        0.0000      298.6166      298.6167     157.296210       0.00000
  49    .09103      141.3204        0.0001      298.6166      298.6167     157.296210       0.00000
  48    0.1069      141.3204        0.0001      298.6165      298.6166     157.296210       0.00000
  47    0.1255      141.3204        0.0002      298.6164      298.6166     157.296210      -0.00000
  46    0.1487      141.3204        0.0003      298.6163      298.6166     157.296210       0.00000
  45    0.1794      141.3204        0.0004      298.6162      298.6166     157.296210      -0.00000
  44    0.2165      141.3204        0.0005      298.6161      298.6166     157.296210       0.00000
  43    0.2613      141.3203        0.0006      298.6159      298.6165     157.296210       0.00000
  42    0.3336      141.3203        0.0009      298.6156      298.6165     157.296210       0.00000
  41    0.4307      141.3202        0.0012      298.6152      298.6164     157.296210       0.00000
  40    0.5894      141.3201        0.0017      298.6146      298.6163     157.296210      -0.00000
  39     1.339      141.3196        0.0042      298.6117      298.6158     157.296210       0.00000
  38     1.782      141.3193        0.0056      298.6099      298.6155     157.296210      -0.00000
  37     2.292      141.3190        0.0073      298.6079      298.6152     157.296210      -0.00000
  36     2.964      141.3185        0.0095      298.6053      298.6147     157.296210       0.00000
  35     3.853      141.3179        0.0124      298.6018      298.6141     157.296210       0.00000
  34     5.035      141.3171        0.0162      298.5971      298.6133     157.296210      -0.00000
  33     6.613      141.3161        0.0214      298.5909      298.6123     157.296210       0.00000
  32     8.786      141.3147        0.0283      298.5826      298.6109     157.296210       0.00000
  31     11.80      141.3126        0.0383      298.5706      298.6088     157.296210      -0.00000
  30     15.07      141.3104        0.0489      298.5577      298.6066     157.296210       0.00000
  29     18.79      141.3080        0.0610      298.5431      298.6042     157.296210       0.00000
  28     23.16      141.3051        0.0752      298.5261      298.6013     157.296210      -0.00000
  27     28.12      141.3017        0.0913      298.5066      298.5979     157.296210       0.00000
  26     33.73      141.2980        0.1095      298.4848      298.5942     157.296210       0.00000
  25     40.54      141.2935        0.1314      298.4583      298.5897     157.296210      -0.00000
  24     48.69      141.2881        0.1579      298.4264      298.5843     157.296210       0.00000
  23     57.69      141.2821        0.1870      298.3913      298.5783     157.296210       0.00000
  22     68.43      141.2750        0.2218      298.3494      298.5712     157.296210       0.00000
  21     81.20      141.2664        0.2633      298.2994      298.5626     157.296210      -0.00000
  20     96.49      141.2563        0.3128      298.2396      298.5525     157.296210      -0.00000
  19     114.6      141.2444        0.3718      298.1625      298.5343     157.289880       0.00296
  18     136.5      141.2304        0.4418      298.0706      298.5124     157.282019       0.00302
  17     162.9      141.2136        0.5254      297.9572      298.4826     157.268963       0.00417
  16     196.4      141.1920        0.6341      297.7933      298.4274     157.235408       0.00845
  15     218.7      141.1781        0.7056      297.6446      298.3502     157.172139       0.02402
  14     243.0      141.1639        0.7835      297.3992      298.1827     157.018791       0.05319
  13     269.0      141.1505        0.8677      296.9778      297.8455     156.694982       0.10504
  12     297.5      141.1403        0.9585      296.3126      297.2712     156.130841       0.16732
  11     328.5      141.1346        1.0566      295.4614      296.5180     155.383338       0.20324
  10     361.9      141.1363        1.1620      294.4349      295.5969     154.460606       0.23346
   9     398.1      141.1503        1.2750      293.1850      294.4600     153.309746       0.26812
   8     437.6      141.1848        1.3956      291.6006      292.9961     151.811342       0.32037
   7     480.5      141.2496        1.5236      289.5976      291.1212     149.871555       0.38097
   6     533.0      141.3820        1.6791      286.6827      288.3618     146.979736       0.46520
   5     589.8      141.6215        1.8432      282.8877      284.7309     143.109393       0.57449
   4     651.6      142.0827        2.0129      277.6589      279.6718     137.589093       0.75492
   3     718.7      142.9180        2.1870      270.9757      273.1627     130.244633       0.92300
   2     792.3      144.4711        2.3618      262.6810      265.0429     120.571753       1.10937
   1     891.5      148.4272        2.5776      250.3819      252.9595     104.532297       1.36488
   0    1013.0      159.0174        2.8130      235.3052      238.1183      79.100839       1.76584



 Wavenumbers: 12850. - 16000. cm-1, ATM      1
 LEVEL PRESSURE   UPWARD FLUX   DIFDOWN FLUX  DIRDOWN FLUX  DOWNWARD FLUX   NET FLUX    HEATING RATE
          mb          W/m2          W/m2          W/m2        W/m2          W/m2       degree/day
  51    .06700      135.9896        0.0000      187.1097      187.1097      51.120111       0.00000
  50    .07753      135.9897        0.0001      187.1089      187.1090      51.119304       0.64682
  49    .09103      135.9897        0.0002      187.1078      187.1080      51.118283       0.63821
  48    0.1069      135.9898        0.0003      187.1065      187.1068      51.117099       0.62997
  47    0.1255      135.9898        0.0005      187.1051      187.1056      51.115726       0.62250
  46    0.1487      135.9899        0.0007      187.1033      187.1039      51.113973       0.63887
  45    0.1794      135.9901        0.0009      187.1008      187.1017      51.111557       0.66333
  44    0.2165      135.9904        0.0012      187.0978      187.0990      51.108669       0.65687
  43    0.2613      135.9907        0.0016      187.0943      187.0959      51.105213       0.65146
  42    0.3336      135.9913        0.0022      187.0886      187.0908      51.099444       0.67271
  41    0.4307      135.9923        0.0029      187.0811      187.0841      51.091770       0.66720
  40    0.5894      135.9942        0.0042      187.0691      187.0733      51.079178       0.66965
  39     1.339      136.0081        0.0102      187.0146      187.0248      51.016767       0.70263
  38     1.782      136.0200        0.0138      186.9834      186.9972      50.977198       0.75333
  37     2.292      136.0372        0.0178      186.9471      186.9649      50.927706       0.81972
  36     2.964      136.0653        0.0232      186.8983      186.9215      50.856235       0.89717
  35     3.853      136.1098        0.0303      186.8316      186.8620      50.752119       0.98809
  34     5.035      136.1765        0.0397      186.7418      186.7815      50.605074       1.05042
  33     6.613      136.2693        0.0523      186.6240      186.6763      50.407075       1.05851
  32     8.786      136.3903        0.0693      186.4741      186.5433      50.153023       0.98664
  31     11.80      136.5488        0.0935      186.2773      186.3708      49.822015       0.92672
  30     15.07      136.7018        0.1196      186.0838      186.2034      49.501567       0.82733
  29     18.79      136.8592        0.1490      185.8805      186.0295      49.170252       0.75119
  28     23.16      137.0253        0.1834      185.6602      185.8435      48.818214       0.68073
  27     28.12      137.1944        0.2227      185.4279      185.6506      48.456197       0.61540
  26     33.73      137.3540        0.2668      185.1960      185.4628      48.108765       0.52237
  25     40.54      137.5124        0.3201      184.9479      185.2679      47.755584       0.43816
  24     48.69      137.6698        0.3844      184.6806      185.0650      47.395209       0.37293
  23     57.69      137.8103        0.4552      184.4182      184.8734      47.063098       0.31130
  22     68.43      137.9425        0.5396      184.1400      184.6796      46.737114       0.25627
  21     81.20      138.0518        0.6405      183.8556      184.4961      46.444262       0.19351
  20     96.49      138.1376        0.7609      183.5626      184.3235      46.185983       0.14255
  19     114.6      138.2387        0.9059      183.2414      184.1473      45.908552       0.12954
  18     136.5      138.3390        1.0780      182.8848      183.9628      45.623824       0.10948
  17     162.9      138.4403        1.2833      182.4825      183.7657      45.325418       0.09538
  16     196.4      138.5334        1.5500      181.9953      183.5453      45.011878       0.07892
  15     218.7      138.5808        1.7255      181.6850      183.4105      44.829678       0.06917
  14     243.0      138.6267        1.9165      181.3486      183.2651      44.638411       0.06634
  13     269.0      138.6712        2.1238      180.9829      183.1066      44.435458       0.06584
  12     297.5      138.7156        2.3482      180.5817      182.9299      44.214320       0.06559
  11     328.5      138.7640        2.5911      180.1400      182.7311      43.967079       0.06722
  10     361.9      138.8183        2.8531      179.6535      182.5066      43.688275       0.07054
   9     398.1      138.8816        3.1356      179.1164      182.2519      43.370304       0.07408
   8     437.6      138.9597        3.4395      178.5199      181.9594      42.999703       0.07924
   7     480.5      139.0583        3.7659      177.8575      181.6234      42.565065       0.08536
   6     533.0      139.2086        4.1684      177.0028      181.1712      41.962595       0.09692
   5     589.8      139.4246        4.6028      176.0158      180.6185      41.193959       0.11409
   4     651.6      139.7673        5.0691      174.8248      179.8939      40.126578       0.14597
   3     718.7      140.2803        5.5659      173.4022      178.9681      38.687767       0.18082
   2     792.3      141.0978        6.0893      171.6540      177.7433      36.645506       0.23422
   1     891.5      142.8567        6.7770      168.8958      175.6728      32.816109       0.32586
   0    1013.0      146.4077        7.5756      165.1348      172.7103      26.302690       0.45226



 Wavenumbers: 16000. - 22650. cm-1, ATM      1
 LEVEL PRESSURE   UPWARD FLUX   DIFDOWN FLUX  DIRDOWN FLUX  DOWNWARD FLUX   NET FLUX    HEATING RATE
          mb          W/m2          W/m2          W/m2        W/m2          W/m2       degree/day
  51    .06700      272.4603        0.0000      298.3258      298.3258      25.865501       0.00000
  50    .07753      272.4604        0.0005      298.3252      298.3257      25.865292       0.16753
  49    .09103      272.4607        0.0012      298.3245      298.3257      25.864988       0.19002
  48    0.1069      272.4610        0.0020      298.3236      298.3256      25.864581       0.21668
  47    0.1255      272.4614        0.0029      298.3226      298.3254      25.864036       0.24699
  46    0.1487      272.4620        0.0040      298.3212      298.3252      25.863233       0.29268
  45    0.1794      272.4629        0.0055      298.3193      298.3249      25.861978       0.34461
  44    0.2165      272.4641        0.0074      298.3170      298.3244      25.860275       0.38731
  43    0.2613      272.4657        0.0095      298.3141      298.3237      25.857965       0.43543
  42    0.3336      272.4687        0.0131      298.3092      298.3222      25.853573       0.51207
  41    0.4307      272.4731        0.0178      298.3022      298.3201      25.846953       0.57563
  40    0.5894      272.4814        0.0256      298.2902      298.3158      25.834326       0.67147
  39     1.339      272.5411        0.0622      298.2199      298.2821      25.741025       1.05040
  38     1.782      272.5910        0.0837      298.1688      298.2525      25.661525       1.51354
  37     2.292      272.6627        0.1086      298.1005      298.2091      25.546422       1.90642
  36     2.964      272.7782        0.1412      297.9968      298.1381      25.359887       2.34157
  35     3.853      272.9608        0.1844      297.8402      298.0246      25.063740       2.81049
  34     5.035      273.2331        0.2417      297.6130      297.8547      24.621551       3.15882
  33     6.613      273.6121        0.3182      297.3002      297.6184      24.006325       3.28900
  32     8.786      274.1072        0.4213      296.8904      297.3117      23.204537       3.11385
  31     11.80      274.7570        0.5687      296.3446      296.9133      22.156286       2.93477
  30     15.07      275.3867        0.7271      295.8053      296.5323      21.145605       2.60938
  29     18.79      276.0368        0.9059      295.2382      296.1442      20.107380       2.35398
  28     23.16      276.7253        1.1149      294.6243      295.7391      19.013844       2.11454
  27     28.12      277.4299        1.3539      293.9780      295.3319      17.902014       1.89004
  26     33.73      278.0996        1.6216      293.3330      294.9546      16.855028       1.57417
  25     40.54      278.7711        1.9455      292.6433      294.5887      15.817606       1.28704
  24     48.69      279.4469        2.3363      291.8984      294.2347      14.787838       1.06565
  23     57.69      280.0597        2.7661      291.1635      293.9296      13.869875       0.86045
  22     68.43      280.6498        3.2786      290.3771      293.6557      13.005930       0.67918
  21     81.20      281.1611        3.8904      289.5601      293.4505      12.289410       0.47347
  20     96.49      281.5921        4.6206      288.6972      293.3178      11.725714       0.31112
  19     114.6      282.0110        5.4879      287.7320      293.2198      11.208841       0.24134
  18     136.5      282.4445        6.5155      286.6280      293.1435      10.698965       0.19606
  17     162.9      282.9028        7.7385      285.3509      293.0894      10.186624       0.16376
  16     196.4      283.3728        9.3244      283.7725      293.0969       9.724146       0.11641
  15     218.7      283.6351       10.3654      282.7653      293.1307       9.495579       0.08678
  14     243.0      283.8983       11.4964      281.6847      293.1811       9.282764       0.07381
  13     269.0      284.1605       12.7214      280.5285      293.2499       9.089394       0.06273
  12     297.5      284.4216       14.0444      279.2934      293.3378       8.916145       0.05138
  11     328.5      284.6925       15.4731      277.9665      293.4396       8.747112       0.04596
  10     361.9      284.9731       17.0102      276.5454      293.5557       8.582517       0.04164
   9     398.1      285.2653       18.6634      275.0229      293.6863       8.421039       0.03762
   8     437.6      285.5723       20.4374      273.3928      293.8302       8.257930       0.03487
   7     480.5      285.8950       22.3378      271.6499      293.9877       8.092717       0.03245
   6     533.0      286.2879       24.6756      269.5074      294.1830       7.895143       0.03178
   5     589.8      286.7145       27.1943      267.1956      294.3899       7.675473       0.03261
   4     651.6      287.1902       29.9013      264.6973      294.5986       7.408409       0.03652
   3     718.7      287.7307       32.8047      261.9959      294.8006       7.069935       0.04254
   2     792.3      288.3725       35.9078      259.0661      294.9739       6.601393       0.05374
   1     891.5      289.3979       40.0834      255.0273      295.1107       5.712880       0.07561
   0    1013.0      290.8944       45.0773      250.0655      295.1429       4.248445       0.10168



 Wavenumbers: 22650. - 29000. cm-1, ATM      1
 LEVEL PRESSURE   UPWARD FLUX   DIFDOWN FLUX  DIRDOWN FLUX  DOWNWARD FLUX   NET FLUX    HEATING RATE
          mb          W/m2          W/m2          W/m2        W/m2          W/m2       degree/day
  51    .06700      110.9325        0.0000      112.5773      112.5773       1.644803       0.00000
  50    .07753      110.9326        0.0006      112.5767      112.5774       1.644803       0.00000
  49    .09103      110.9327        0.0014      112.5760      112.5775       1.644803       0.00000
  48    0.1069      110.9328        0.0023      112.5752      112.5776       1.644803      -0.00000
  47    0.1255      110.9329        0.0034      112.5743      112.5777       1.644803       0.00000
  46    0.1487      110.9331        0.0047      112.5732      112.5779       1.644803       0.00000
  45    0.1794      110.9333        0.0065      112.5716      112.5781       1.644803       0.00000
  44    0.2165      110.9335        0.0086      112.5697      112.5783       1.644803      -0.00000
  43    0.2613      110.9338        0.0112      112.5675      112.5787       1.644803       0.00000
  42    0.3336      110.9344        0.0153      112.5638      112.5792       1.644803       0.00000
  41    0.4307      110.9350        0.0209      112.5590      112.5798       1.644803       0.00000
  40    0.5894      110.9362        0.0299      112.5510      112.5810       1.644803       0.00000
  39     1.339      110.9414        0.0728      112.5134      112.5862       1.644803       0.00000
  38     1.782      110.9445        0.0980      112.4913      112.5893       1.644803      -0.00000
  37     2.292      110.9481        0.1271      112.4658      112.5929       1.644803       0.00000
  36     2.964      110.9528        0.1654      112.4322      112.5976       1.644803      -0.00000
  35     3.853      110.9590        0.2159      112.3879      112.6038       1.644803       0.00000
  34     5.035      110.9672        0.2831      112.3290      112.6120       1.644803      -0.00000
  33     6.613      110.9783        0.3728      112.2503      112.6231       1.644803       0.00000
  32     8.786      110.9931        0.4936      112.1443      112.6379       1.644803       0.00000
  31     11.80      111.0143        0.6665      111.9926      112.6591       1.644803       0.00000
  30     15.07      111.0371        0.8520      111.8299      112.6819       1.644803       0.00000
  29     18.79      111.0628        1.0615      111.6461      112.7076       1.644803       0.00000
  28     23.16      111.0929        1.3060      111.4316      112.7377       1.644803       0.00000
  27     28.12      111.1271        1.5854      111.1865      112.7719       1.644803       0.00000
  26     33.73      111.1655        1.8977      110.9126      112.8103       1.644803       0.00000
  25     40.54      111.2117        2.2744      110.5821      112.8565       1.644803       0.00000
  24     48.69      111.2673        2.7276      110.1845      112.9121       1.644803      -0.00000
  23     57.69      111.3282        3.2243      109.7487      112.9730       1.644803      -0.00000
  22     68.43      111.4005        3.8141      109.2312      113.0453       1.644803       0.00000
  21     81.20      111.4863        4.5142      108.6169      113.1311       1.644803      -0.00000
  20     96.49      111.5881        5.3446      107.8882      113.2329       1.644803      -0.00000
  19     114.6      111.7081        6.3250      107.0279      113.3529       1.644803       0.00000
  18     136.5      111.8493        7.4790      106.0151      113.4942       1.644803      -0.00000
  17     162.9      112.0160        8.8419      104.8189      113.6608       1.644803       0.00000
  16     196.4      112.2297       10.5907      103.2838      113.8745       1.644803       0.00000
  15     218.7      112.3685       11.7279      102.2854      114.0133       1.644803      -0.00000
  14     243.0      112.5181       12.9539      101.2089      114.1629       1.644803       0.00000
  13     269.0      112.6786       14.2709      100.0524      114.3234       1.644803      -0.00000
  12     297.5      112.8503       15.6807       98.8143      114.4951       1.644803      -0.00000
  11     328.5      113.0337       17.1888       97.4897      114.6785       1.644803       0.00000
  10     361.9      113.2289       18.7950       96.0787      114.8737       1.644803      -0.00000
   9     398.1      113.4363       20.5036       94.5775      115.0811       1.644803       0.00000
   8     437.6      113.6560       22.3158       92.9850      115.3008       1.644803      -0.00000
   7     480.5      113.8880       24.2326       91.3002      115.5328       1.644803       0.00000
   6     533.0      114.1689       26.5566       89.2571      115.8137       1.644803       0.00000
   5     589.8      114.4659       29.0193       87.0914      116.1107       1.644803      -0.00000
   4     651.6      114.7788       31.6196       84.8040      116.4236       1.644803       0.00000
   3     718.7      115.1074       34.3569       82.3953      116.7522       1.644803      -0.00000
   2     792.3      115.4508       37.2259       79.8697      117.0956       1.644803       0.00000
   1     891.5      115.9008       40.9991       76.5465      117.5456       1.644803       0.00000
   0    1013.0      116.4213       45.3844       72.6818      118.0661       1.644803       0.00000



 Wavenumbers: 29000. - 38000. cm-1, ATM      1
 LEVEL PRESSURE   UPWARD FLUX   DIFDOWN FLUX  DIRDOWN FLUX  DOWNWARD FLUX   NET FLUX    HEATING RATE
          mb          W/m2          W/m2          W/m2        W/m2          W/m2       degree/day
  51    .06700       17.4945        0.0000       39.6994       39.6994      22.204981       0.00000
  50    .07753       17.4943        0.0004       39.6951       39.6955      22.201154       3.06741
  49    .09103       17.4942        0.0009       39.6889       39.6898      22.195583       3.48158
  48    0.1069       17.4941        0.0014       39.6808       39.6822      22.188121       3.97220
  47    0.1255       17.4939        0.0020       39.6701       39.6721      22.178132       4.52856
  46    0.1487       17.4938        0.0028       39.6544       39.6572      22.163416       5.36430
  45    0.1794       17.4936        0.0039       39.6302       39.6341      22.140443       6.30640
  44    0.2165       17.4935        0.0051       39.5977       39.6028      22.109374       7.06763
  43    0.2613       17.4933        0.0066       39.5541       39.5607      22.067406       7.91080
  42    0.3336       17.4932        0.0091       39.4724       39.4815      21.988280       9.22535
  41    0.4307       17.4933        0.0123       39.3517       39.3641      21.870781      10.21627
  40    0.5894       17.4938        0.0175       39.1290       39.1465      21.652709      11.59681
  39     1.339       17.5035        0.0404       37.7272       37.7677      20.264172      15.63241
  38     1.782       17.5140        0.0526       36.7932       36.8458      19.331816      17.75055
  37     2.292       17.5302        0.0659       35.7337       35.7996      18.269335      17.59745
  36     2.964       17.5578        0.0825       34.4834       34.5658      17.008057      15.83286
  35     3.853       17.6029        0.1035       33.1337       33.2373      15.634387      13.03638
  34     5.035       17.6714        0.1305       31.7759       31.9065      14.235104       9.99590
  33     6.613       17.7680        0.1657       30.4559       30.6217      12.853693       7.38503
  32     8.786       17.8957        0.2122       29.2069       29.4191      11.523383       5.16645
  31     11.80       18.0662        0.2776       27.9832       28.2607      10.194571       3.72025
  30     15.07       18.2356        0.3468       27.0492       27.3960       9.160384       2.67007
  29     18.79       18.4156        0.4239       26.2430       26.6669       8.251316       2.06114
  28     23.16       18.6131        0.5129       25.5054       26.0183       7.405279       1.63596
  27     28.12       18.8233        0.6138       24.8371       25.4509       6.627617       1.32197
  26     33.73       19.0310        0.7266       24.2529       24.9795       5.948466       1.02112
  25     40.54       19.2470        0.8630       23.6985       24.5615       5.314515       0.78649
  24     48.69       19.4732        1.0272       23.1583       24.1855       4.712314       0.62318
  23     57.69       19.6862        1.2075       22.6715       23.8790       4.192812       0.48695
  22     68.43       19.8980        1.4223       22.1902       23.6125       3.714462       0.37605
  21     81.20       20.0846        1.6799       21.7276       23.4075       3.322885       0.25875
  20     96.49       20.2416        1.9882       21.2703       23.2585       3.016928       0.16887
  19     114.6       20.3946        2.3509       20.7814       23.1323       2.737725       0.13037
  18     136.5       20.5547        2.7735       20.2433       23.0167       2.462003       0.10602
  17     162.9       20.7270        3.2680       19.6439       22.9120       2.185001       0.08854
  16     196.4       20.9031        3.9084       18.9359       22.8443       1.941246       0.06136
  15     218.7       20.9988        4.3143       18.4991       22.8133       1.814532       0.04811
  14     243.0       21.0943        4.7477       18.0418       22.7896       1.695282       0.04136
  13     269.0       21.1879        5.2089       17.5651       22.7741       1.586133       0.03541
  12     297.5       21.2791        5.6975       17.0696       22.7671       1.488063       0.02909
  11     328.5       21.3723        6.2128       16.5518       22.7647       1.392355       0.02602
  10     361.9       21.4673        6.7535       16.0133       22.7668       1.299534       0.02348
   9     398.1       21.5639        7.3193       15.4544       22.7737       1.209811       0.02090
   8     437.6       21.6629        7.9088       14.8758       22.7845       1.121620       0.01886
   7     480.5       21.7636        8.5209       14.2790       22.7999       1.036236       0.01677
   6     533.0       21.8812        9.2465       13.5759       22.8225       0.941212       0.01529
   5     589.8       22.0022        9.9955       12.8538       22.8493       0.847054       0.01398
   4     651.6       22.1272       10.7653       12.1149       22.8801       0.752936       0.01287
   3     718.7       22.2558       11.5501       11.3644       22.9145       0.658656       0.01185
   2     792.3       22.3881       12.3464       10.6061       22.9525       0.564409       0.01081
   1     891.5       22.5596       13.3532        9.6516       23.0048       0.445283       0.01014
   0    1013.0       22.7575       14.4645        8.6032       23.0676       0.310165       0.00938



 Wavenumbers: 38000. - 50000. cm-1, ATM      1
 LEVEL PRESSURE   UPWARD FLUX   DIFDOWN FLUX  DIRDOWN FLUX  DOWNWARD FLUX   NET FLUX    HEATING RATE
          mb          W/m2          W/m2          W/m2        W/m2          W/m2       degree/day
  51    .06700        0.0074        0.0000        2.4486        2.4486       2.441190       0.00000
  50    .07753        0.0074        0.0001        2.4462        2.4462       2.438852       1.87385
  49    .09103        0.0073        0.0002        2.4427        2.4428       2.435512       2.08768
  48    0.1069        0.0072        0.0003        2.4381        2.4384       2.431115       2.34048
  47    0.1255        0.0071        0.0004        2.4321        2.4325       2.425322       2.62623
  46    0.1487        0.0070        0.0005        2.4235        2.4240       2.416914       3.06494
  45    0.1794        0.0069        0.0007        2.4102        2.4108       2.403955       3.55742
  44    0.2165        0.0067        0.0009        2.3925        2.3934       2.386654       3.93563
  43    0.2613        0.0065        0.0012        2.3690        2.3701       2.363590       4.34750
  42    0.3336        0.0063        0.0015        2.3255        2.3270       2.320778       4.99154
  41    0.4307        0.0059        0.0020        2.2623        2.2643       2.258401       5.42350
  40    0.5894        0.0053        0.0027        2.1484        2.1511       2.145732       5.99159
  39     1.339        0.0035        0.0041        1.5115        1.5155       1.512023       7.13441
  38     1.782        0.0028        0.0039        1.1616        1.1655       1.162718       6.65020
  37     2.292        0.0022        0.0034        0.8378        0.8412       0.839022       5.36125
  36     2.964        0.0017        0.0028        0.5542        0.5570       0.555324       3.56128
  35     3.853        0.0013        0.0023        0.3504        0.3527       0.351377       1.93549
  34     5.035        0.0010        0.0018        0.2191        0.2210       0.219975       0.93868
  33     6.613        0.0008        0.0014        0.1358        0.1373       0.136524       0.44613
  32     8.786        0.0006        0.0012        0.0843        0.0855       0.084918       0.20042
  31     11.80        0.0004        0.0009        0.0507        0.0516       0.051201       0.09440
  30     15.07        0.0003        0.0007        0.0324        0.0331       0.032836       0.04742
  29     18.79        0.0002        0.0005        0.0207        0.0212       0.021029       0.02677
  28     23.16        0.0001        0.0004        0.0129        0.0133       0.013123       0.01529
  27     28.12        0.0001        0.0002        0.0079        0.0081       0.008035       0.00865
  26     33.73        0.0001        0.0002        0.0048        0.0050       0.004927       0.00467
  25     40.54        0.0000        0.0001        0.0028        0.0029       0.002909       0.00250
  24     48.69        0.0000        0.0001        0.0016        0.0017       0.001633       0.00132
  23     57.69        0.0000        0.0000        0.0009        0.0009       0.000912       0.00068
  22     68.43        0.0000        0.0000        0.0005        0.0005       0.000480       0.00034
  21     81.20        0.0000        0.0000        0.0002        0.0002       0.000239       0.00016
  20     96.49        0.0000        0.0000        0.0001        0.0001       0.000110       0.00007
  19     114.6        0.0000        0.0000        0.0000        0.0000       0.000045       0.00003
  18     136.5        0.0000        0.0000        0.0000        0.0000       0.000015       0.00001
  17     162.9        0.0000        0.0000        0.0000        0.0000       0.000004       0.00000
  16     196.4        0.0000        0.0000        0.0000        0.0000       0.000001       0.00000
  15     218.7        0.0000        0.0000        0.0000        0.0000       0.000000       0.00000
  14     243.0        0.0000        0.0000        0.0000        0.0000       0.000000       0.00000
  13     269.0        0.0000        0.0000        0.0000        0.0000       0.000000       0.00000
  12     297.5        0.0000        0.0000        0.0000        0.0000       0.000000       0.00000
  11     328.5        0.0000        0.0000        0.0000        0.0000       0.000000       0.00000
  10     361.9        0.0000        0.0000        0.0000        0.0000       0.000000       0.00000
   9     398.1        0.0000        0.0000        0.0000        0.0000       0.000000       0.00000
   8     437.6        0.0000        0.0000        0.0000        0.0000       0.000000       0.00000
   7     480.5        0.0000        0.0000        0.0000        0.0000       0.000000       0.00000
   6     533.0        0.0000        0.0000        0.0000        0.0000       0.000000       0.00000
   5     589.8        0.0000        0.0000        0.0000        0.0000       0.000000       0.00000
   4     651.6        0.0000        0.0000        0.0000        0.0000       0.000000       0.00000
   3     718.7        0.0000        0.0000        0.0000        0.0000       0.000000       0.00000
   2     792.3        0.0000        0.0000        0.0000        0.0000       0.000000       0.00000
   1     891.5        0.0000        0.0000        0.0000        0.0000       0.000000       0.00000
   0    1013.0        0.0000        0.0000        0.0000        0.0000       0.000000       0.00000



 Wavenumbers:   820. -  2600. cm-1, ATM      1
 LEVEL PRESSURE   UPWARD FLUX   DIFDOWN FLUX  DIRDOWN FLUX  DOWNWARD FLUX   NET FLUX    HEATING RATE
          mb          W/m2          W/m2          W/m2        W/m2          W/m2       degree/day
  51    .06700        1.6334        0.0000       11.4544       11.4544       9.820958       0.00000
  50    .07753        1.6334        0.0000       11.4480       11.4480       9.814612       5.08663
  49    .09103        1.6334        0.0000       11.4467       11.4467       9.813287       0.82800
  48    0.1069        1.6334        0.0000       11.4456       11.4456       9.812199       0.57880
  47    0.1255        1.6334        0.0000       11.4444       11.4444       9.810936       0.57279
  46    0.1487        1.6334        0.0000       11.4427       11.4427       9.809323       0.58798
  45    0.1794        1.6334        0.0000       11.4406       11.4406       9.807148       0.59701
  44    0.2165        1.6334        0.0000       11.4381       11.4381       9.804657       0.56663
  43    0.2613        1.6334        0.0000       11.4353       11.4353       9.801860       0.52733
  42    0.3336        1.6334        0.0000       11.4311       11.4311       9.797634       0.49266
  41    0.4307        1.6334        0.0000       11.4261       11.4261       9.792707       0.42845
  40    0.5894        1.6334        0.0000       11.4190       11.4190       9.785590       0.37843
  39     1.339        1.6334        0.0000       11.3879       11.3879       9.754504       0.34997
  38     1.782        1.6334        0.0000       11.3702       11.3702       9.736773       0.33757
  37     2.292        1.6334        0.0000       11.3503       11.3503       9.716875       0.32957
  36     2.964        1.6334        0.0000       11.3250       11.3250       9.691512       0.31838
  35     3.853        1.6334        0.0000       11.2924       11.2924       9.658913       0.30937
  34     5.035        1.6335        0.0000       11.2508       11.2508       9.617322       0.29711
  33     6.613        1.6335        0.0000       11.1984       11.1984       9.564952       0.27997
  32     8.786        1.6335        0.0000       11.1322       11.1322       9.498748       0.25711
  31     11.80        1.6335        0.0000       11.0441       11.0441       9.410638       0.24668
  30     15.07        1.6335        0.0000       10.9581       10.9581       9.324600       0.22213
  29     18.79        1.6335        0.0000       10.8743       10.8743       9.240769       0.19007
  28     23.16        1.6336        0.0000       10.7963       10.7963       9.162689       0.15098
  27     28.12        1.6336        0.0000       10.7305       10.7305       9.096939       0.11177
  26     33.73        1.6336        0.0000       10.6791       10.6791       9.045495       0.07735
  25     40.54        1.6337        0.0000       10.6358       10.6358       9.002079       0.05386
  24     48.69        1.6337        0.0000       10.5962       10.5962       8.962418       0.04104
  23     57.69        1.6338        0.0000       10.5576       10.5576       8.923787       0.03621
  22     68.43        1.6339        0.0000       10.5130       10.5130       8.879172       0.03507
  21     81.20        1.6340        0.0000       10.4610       10.4610       8.827036       0.03445
  20     96.49        1.6341        0.0000       10.3996       10.3996       8.765511       0.03396
  19     114.6        1.6342        0.0000       10.3265       10.3265       8.692296       0.03419
  18     136.5        1.6343        0.0000       10.2399       10.2399       8.605530       0.03336
  17     162.9        1.6346        0.0000       10.1281       10.1281       8.493514       0.03580
  16     196.4        1.6350        0.0000        9.9498        9.9498       8.314849       0.04497
  15     218.7        1.6353        0.0000        9.7757        9.7758       8.140430       0.06622
  14     243.0        1.6360        0.0000        9.5026        9.5026       7.866684       0.09494
  13     269.0        1.6369        0.0000        9.1401        9.1401       7.503225       0.11790
  12     297.5        1.6384        0.0000        8.7433        8.7434       7.104967       0.11812
  11     328.5        1.6404        0.0000        8.4005        8.4005       6.760114       0.09376
  10     361.9        1.6431        0.0000        8.0479        8.0479       6.404790       0.08990
   9     398.1        1.6467        0.0000        7.6349        7.6349       5.988222       0.09705
   8     437.6        1.6514        0.0000        7.1674        7.1674       5.516081       0.10095
   7     480.5        1.6571        0.0000        6.7179        6.7179       5.060819       0.08941
   6     533.0        1.6659        0.0000        6.3047        6.3047       4.638794       0.06789
   5     589.8        1.6790        0.0001        6.0073        6.0073       4.328343       0.04608
   4     651.6        1.7022        0.0001        5.7286        5.7286       4.026478       0.04128
   3     718.7        1.7419        0.0001        5.3943        5.3944       3.652528       0.04700
   2     792.3        1.8145        0.0001        4.9859        4.9860       3.171488       0.05517
   1     891.5        2.0003        0.0001        4.4183        4.4183       2.418005       0.06412
   0    1013.0        2.4974        0.0001        3.7481        3.7481       1.250750       0.08105

  Modules and versions used in this calculation:

       rrtmg_sw.1col.f90:  $Revision$                    rrtmg_sw_init.f90:  $Revision$        
     rrtmgsw_cldprop.f90:  $Revision$                  rrtmgsw_cldprmc.f90:  NOT USED          
     rrtmg_sw_reftra.f90:  $Revision$                  rrtmg_sw_spcvrt.f90:  NOT USED          
     rrtmg_sw_spcvmc.f90:  NOT USED                    rrtmgsw_setcoef.f90:  NOT USED          
     rrtmg_sw_taumol.f90:  $Revision$                  rrtmg_sw_vrtqdr.f90:  NOT USED          
                rrtatm.f:  NOT USED                             util_xxx.f:  NOT USED          
                 extra.f:  NOT USED                       rrtmg_sw_k_g.f90:  $Revision$        

