

 Wavenumbers:   820. - 50000. cm-1, ATM      1
 LEVEL PRESSURE   UPWARD FLUX   DIFDOWN FLUX  DIRDOWN FLUX  DOWNWARD FLUX   NET FLUX    HEATING RATE
          mb          W/m2          W/m2          W/m2        W/m2          W/m2       degree/day
  51    .06700      431.6016        0.0000      680.4246      680.4246     248.823015       0.00000
  50    .07753      431.6012        0.0014      680.4063      680.4077     248.806431      13.29193
  49    .09103      431.6008        0.0031      680.3891      680.3922     248.791356       9.42235
  48    0.1069      431.6004        0.0051      680.3692      680.3743     248.773868       9.30882
  47    0.1255      431.6000        0.0074      680.3449      680.3523     248.752318       9.76960
  46    0.1487      431.5995        0.0103      680.3116      680.3219     248.722388      10.90983
  45    0.1794      431.5990        0.0143      680.2625      680.2768     248.677779      12.24624
  44    0.2165      431.5985        0.0190      680.1994      680.2184     248.619929      13.15993
  43    0.2613      431.5980        0.0245      680.1182      680.1427     248.544674      14.18525
  42    0.3336      431.5976        0.0336      679.9721      680.0057     248.408086      15.92483
  41    0.4307      431.5975        0.0457      679.7647      679.8103     248.212861      16.97440
  40    0.5894      431.5984        0.0650      679.4005      679.4655     247.867129      18.38558
  39     1.339      431.6221        0.1526      677.4707      677.6233     246.001170      21.00731
  38     1.782      431.6497        0.2019      676.4258      676.6276     244.977957      19.48034
  37     2.292      431.6940        0.2582      675.3853      675.6435     243.949525      17.03351
  36     2.964      431.7708        0.3310      674.2523      674.5832     242.812434      14.27392
  35     3.853      431.8983        0.4267      673.0156      673.4422     241.543908      12.03854
  34     5.035      432.0934        0.5531      671.6676      672.2207     240.127303      10.11964
  33     6.613      432.3675        0.7209      670.2067      670.9275     238.560057       8.37850
  32     8.786      432.7249        0.9472      668.6145      669.5617     236.836804       6.69249
  31     11.80      433.1893        1.2687      666.7677      668.0364     234.847104       5.57053
  30     15.07      433.6332        1.6116      665.1055      666.7170     233.083828       4.55243
  29     18.79      434.0859        1.9976      663.4620      665.4596     231.373720       3.87734
  28     23.16      434.5585        2.4464      661.7555      664.2020     229.643498       3.34569
  27     28.12      435.0330        2.9576      660.0065      662.9640     227.931019       2.91110
  26     33.73      435.4676        3.5278      658.2726      661.8004     226.332794       2.40297
  25     40.54      435.8801        4.2149      656.4088      660.6237     224.743624       1.97154
  24     48.69      436.2682        5.0398      654.3800      659.4197     223.151526       1.64757
  23     57.69      436.5884        5.9420      652.3486      658.2906     221.702148       1.35857
  22     68.43      436.8544        7.0121      650.1283      657.1404     220.286009       1.11327
  21     81.20      437.0105        8.2817      647.7323      656.0141     219.003558       0.84742
  20     96.49      437.0470        9.7866      645.1078      654.8944     217.847376       0.63813
  19     114.6      437.0297       11.5590      642.1202      653.6792     216.649552       0.55930
  18     136.5      436.9581       13.6371      638.7104      652.3475     215.389394       0.48456
  17     162.9      436.8283       16.0795      634.7438      650.8232     213.994953       0.44572
  16     196.4      436.5588       19.1997      629.6393      648.8390     212.280145       0.43164
  15     218.7      436.3472       21.2200      625.9959      647.2159     210.868644       0.53589
  14     243.0      436.1044       23.3896      621.5446      644.9342     208.829837       0.70713
  13     269.0      435.8295       25.7108      615.9928      641.7035     205.874083       0.95883
  12     297.5      435.5248       28.1850      609.3192      637.5042     201.979377       1.15513
  11     328.5      435.1994       30.8191      602.1010      632.9201     197.720659       1.15793
  10     361.9      434.8568       33.6105      594.3006      627.9112     193.054395       1.18061
   9     398.1      434.5017       36.5649      585.7170      622.2818     187.780097       1.22879
   8     437.6      434.1453       39.6798      576.2276      615.9074     181.762083       1.28669
   7     480.5      433.7975       42.9573      566.0211      608.9784     175.180843       1.29253
   6     533.0      433.4345       46.9052      553.5106      600.4158     166.981341       1.31904
   5     589.8      433.1618       51.0536      539.9026      590.9562     157.794368       1.36365
   4     651.6      433.1058       55.4006      524.5675      579.9681     146.862360       1.49498
   3     718.7      433.4084       59.9324      508.0376      567.9701     134.561625       1.54586
   2     792.3      434.4047       64.6305      490.1396      554.7701     120.365451       1.62814
   1     891.5      437.4992       70.7204      465.9831      536.7035      99.204275       1.80071
   0    1013.0      445.7809       77.6864      438.5029      516.1893      70.408378       1.99945



 Wavenumbers:  2600. -  3250. cm-1, ATM      1
 LEVEL PRESSURE   UPWARD FLUX   DIFDOWN FLUX  DIRDOWN FLUX  DOWNWARD FLUX   NET FLUX    HEATING RATE
          mb          W/m2          W/m2          W/m2        W/m2          W/m2       degree/day
  51    .06700        1.2352        0.0000        5.9969        5.9969       4.761617       0.00000
  50    .07753        1.2352        0.0000        5.9969        5.9969       4.761609       0.00640
  49    .09103        1.2352        0.0000        5.9968        5.9968       4.761599       0.00627
  48    0.1069        1.2352        0.0000        5.9968        5.9968       4.761588       0.00613
  47    0.1255        1.2352        0.0000        5.9968        5.9968       4.761575       0.00600
  46    0.1487        1.2352        0.0000        5.9968        5.9968       4.761558       0.00608
  45    0.1794        1.2352        0.0000        5.9968        5.9968       4.761535       0.00625
  44    0.2165        1.2352        0.0000        5.9967        5.9967       4.761508       0.00612
  43    0.2613        1.2352        0.0000        5.9967        5.9967       4.761477       0.00600
  42    0.3336        1.2352        0.0000        5.9967        5.9967       4.761424       0.00617
  41    0.4307        1.2352        0.0000        5.9966        5.9966       4.761352       0.00620
  40    0.5894        1.2352        0.0000        5.9965        5.9965       4.761232       0.00637
  39     1.339        1.2352        0.0000        5.9958        5.9958       4.760523       0.00798
  38     1.782        1.2352        0.0000        5.9952        5.9952       4.759978       0.01038
  37     2.292        1.2352        0.0000        5.9945        5.9945       4.759258       0.01192
  36     2.964        1.2352        0.0000        5.9935        5.9935       4.758211       0.01314
  35     3.853        1.2352        0.0000        5.9920        5.9920       4.756716       0.01419
  34     5.035        1.2352        0.0000        5.9899        5.9899       4.754627       0.01493
  33     6.613        1.2352        0.0000        5.9870        5.9870       4.751776       0.01524
  32     8.786        1.2352        0.0000        5.9833        5.9833       4.748014       0.01461
  31     11.80        1.2352        0.0000        5.9782        5.9782       4.742993       0.01406
  30     15.07        1.2352        0.0000        5.9734        5.9734       4.738169       0.01246
  29     18.79        1.2352        0.0000        5.9686        5.9687       4.733413       0.01078
  28     23.16        1.2352        0.0000        5.9638        5.9638       4.728561       0.00938
  27     28.12        1.2352        0.0000        5.9588        5.9588       4.723573       0.00848
  26     33.73        1.2352        0.0000        5.9533        5.9533       4.718042       0.00832
  25     40.54        1.2353        0.0000        5.9461        5.9461       4.710857       0.00891
  24     48.69        1.2353        0.0000        5.9364        5.9364       4.701187       0.01001
  23     57.69        1.2353        0.0000        5.9245        5.9245       4.689227       0.01121
  22     68.43        1.2353        0.0000        5.9088        5.9088       4.673495       0.01237
  21     81.20        1.2353        0.0000        5.8886        5.8886       4.653299       0.01334
  20     96.49        1.2354        0.0000        5.8634        5.8634       4.628044       0.01394
  19     114.6        1.2354        0.0000        5.8322        5.8323       4.596833       0.01457
  18     136.5        1.2355        0.0001        5.7957        5.7958       4.560257       0.01406
  17     162.9        1.2357        0.0001        5.7540        5.7541       4.518458       0.01336
  16     196.4        1.2359        0.0001        5.7035        5.7035       4.467651       0.01279
  15     218.7        1.2361        0.0001        5.6699        5.6700       4.433823       0.01284
  14     243.0        1.2366        0.0001        5.6298        5.6299       4.393309       0.01405
  13     269.0        1.2372        0.0001        5.5807        5.5809       4.343644       0.01611
  12     297.5        1.2382        0.0001        5.5210        5.5211       4.282883       0.01802
  11     328.5        1.2396        0.0001        5.4517        5.4518       4.212287       0.01919
  10     361.9        1.2414        0.0001        5.3690        5.3691       4.127690       0.02140
   9     398.1        1.2439        0.0002        5.2653        5.2654       4.021494       0.02474
   8     437.6        1.2473        0.0002        5.1322        5.1324       3.885038       0.02918
   7     480.5        1.2519        0.0002        4.9661        4.9662       3.714291       0.03353
   6     533.0        1.2593        0.0002        4.7378        4.7379       3.478669       0.03790
   5     589.8        1.2701        0.0002        4.4688        4.4690       3.198898       0.04153
   4     651.6        1.2873        0.0002        4.1581        4.1583       2.870941       0.04485
   3     718.7        1.3140        0.0002        3.8256        3.8258       2.511843       0.04513
   2     792.3        1.3578        0.0002        3.4538        3.4540       2.096276       0.04766
   1     891.5        1.4574        0.0002        2.9387        2.9389       1.481470       0.05232
   0    1013.0        1.6965        0.0002        2.3872        2.3874       0.690889       0.05489



 Wavenumbers:  3250. -  4000. cm-1, ATM      1
 LEVEL PRESSURE   UPWARD FLUX   DIFDOWN FLUX  DIRDOWN FLUX  DOWNWARD FLUX   NET FLUX    HEATING RATE
          mb          W/m2          W/m2          W/m2        W/m2          W/m2       degree/day
  51    .06700        0.0006        0.0000       10.1098       10.1098      10.109231       0.00000
  50    .07753        0.0006        0.0000       10.1049       10.1049      10.104263       3.98117
  49    .09103        0.0006        0.0000       10.1012       10.1012      10.100652       2.25749
  48    0.1069        0.0006        0.0000       10.0985       10.0985      10.097943       1.44156
  47    0.1255        0.0006        0.0000       10.0961       10.0961      10.095547       1.08638
  46    0.1487        0.0006        0.0000       10.0936       10.0936      10.092980       0.93563
  45    0.1794        0.0006        0.0000       10.0905       10.0905      10.089942       0.83402
  44    0.2165        0.0006        0.0000       10.0874       10.0874      10.086835       0.70680
  43    0.2613        0.0006        0.0000       10.0843       10.0843      10.083656       0.59934
  42    0.3336        0.0006        0.0000       10.0798       10.0798      10.079196       0.52000
  41    0.4307        0.0006        0.0000       10.0748       10.0748      10.074161       0.43779
  40    0.5894        0.0006        0.0000       10.0675       10.0675      10.066868       0.38779
  39     1.339        0.0006        0.0000       10.0396       10.0396      10.038993       0.31382
  38     1.782        0.0006        0.0000       10.0272       10.0272      10.026646       0.23508
  37     2.292        0.0006        0.0000       10.0154       10.0154      10.014805       0.19612
  36     2.964        0.0006        0.0000       10.0021       10.0021      10.001546       0.16643
  35     3.853        0.0006        0.0000        9.9865        9.9865       9.985936       0.14814
  34     5.035        0.0006        0.0000        9.9670        9.9670       9.966408       0.13950
  33     6.613        0.0006        0.0000        9.9411        9.9412       9.940568       0.13814
  32     8.786        0.0006        0.0000        9.9052        9.9052       9.904616       0.13963
  31     11.80        0.0006        0.0000        9.8518        9.8519       9.851272       0.14935
  30     15.07        0.0006        0.0000        9.7928        9.7928       9.792245       0.15240
  29     18.79        0.0006        0.0000        9.7252        9.7252       9.724640       0.15328
  28     23.16        0.0006        0.0000        9.6468        9.6468       9.646240       0.15160
  27     28.12        0.0006        0.0000        9.5604        9.5605       9.559917       0.14674
  26     33.73        0.0006        0.0000        9.4705        9.4706       9.470013       0.13517
  25     40.54        0.0005        0.0001        9.3721        9.3722       9.371649       0.12203
  24     48.69        0.0005        0.0001        9.2668        9.2669       9.266340       0.10898
  23     57.69        0.0005        0.0001        9.1619        9.1620       9.161432       0.09834
  22     68.43        0.0005        0.0001        9.0443        9.0444       9.043932       0.09237
  21     81.20        0.0005        0.0001        8.9082        8.9083       8.907823       0.08994
  20     96.49        0.0005        0.0001        8.7490        8.7492       8.748697       0.08783
  19     114.6        0.0005        0.0001        8.5585        8.5587       8.558205       0.08895
  18     136.5        0.0004        0.0002        8.3474        8.3475       8.347108       0.08117
  17     162.9        0.0004        0.0002        8.1019        8.1020       8.101644       0.07846
  16     196.4        0.0004        0.0002        7.7511        7.7513       7.750904       0.08829
  15     218.7        0.0003        0.0002        7.4250        7.4252       7.424861       0.12379
  14     243.0        0.0003        0.0002        6.9852        6.9854       6.985128       0.15251
  13     269.0        0.0003        0.0002        6.4322        6.4324       6.432112       0.17940
  12     297.5        0.0003        0.0002        5.7945        5.7948       5.794515       0.18910
  11     328.5        0.0002        0.0002        5.1487        5.1490       5.148722       0.17559
  10     361.9        0.0002        0.0002        4.5176        4.5178       4.517612       0.15968
   9     398.1        0.0002        0.0002        3.9254        3.9256       3.925430       0.13797
   8     437.6        0.0002        0.0002        3.3781        3.3783       3.378064       0.11703
   7     480.5        0.0002        0.0002        2.8849        2.8851       2.884870       0.09686
   6     533.0        0.0002        0.0002        2.3630        2.3632       2.363002       0.08395
   5     589.8        0.0002        0.0001        1.8664        1.8665       1.866333       0.07372
   4     651.6        0.0002        0.0004        1.3575        1.3579       1.357718       0.06955
   3     718.7        0.0002        0.0003        0.8863        0.8867       0.886403       0.05923
   2     792.3        0.0004        0.0002        0.4955        0.4956       0.495245       0.04486
   1     891.5        0.0012        0.0001        0.1576        0.1576       0.156409       0.02883
   0    1013.0        0.0116        0.0000        0.0163        0.0163       0.004727       0.01053



 Wavenumbers:  4000. -  4650. cm-1, ATM      1
 LEVEL PRESSURE   UPWARD FLUX   DIFDOWN FLUX  DIRDOWN FLUX  DOWNWARD FLUX   NET FLUX    HEATING RATE
          mb          W/m2          W/m2          W/m2        W/m2          W/m2       degree/day
  51    .06700        4.9139        0.0000       11.8720       11.8720       6.958141       0.00000
  50    .07753        4.9139        0.0000       11.8720       11.8720       6.958140       0.00080
  49    .09103        4.9139        0.0000       11.8720       11.8720       6.958138       0.00078
  48    0.1069        4.9139        0.0000       11.8720       11.8720       6.958137       0.00076
  47    0.1255        4.9139        0.0000       11.8720       11.8720       6.958135       0.00075
  46    0.1487        4.9139        0.0000       11.8720       11.8720       6.958133       0.00076
  45    0.1794        4.9139        0.0000       11.8720       11.8720       6.958130       0.00078
  44    0.2165        4.9139        0.0000       11.8720       11.8720       6.958127       0.00076
  43    0.2613        4.9139        0.0000       11.8720       11.8720       6.958123       0.00075
  42    0.3336        4.9139        0.0000       11.8720       11.8720       6.958116       0.00077
  41    0.4307        4.9139        0.0000       11.8720       11.8720       6.958107       0.00077
  40    0.5894        4.9138        0.0000       11.8719       11.8719       6.958093       0.00080
  39     1.339        4.9138        0.0000       11.8718       11.8719       6.958003       0.00101
  38     1.782        4.9138        0.0000       11.8718       11.8718       6.957933       0.00133
  37     2.292        4.9138        0.0000       11.8717       11.8717       6.957839       0.00156
  36     2.964        4.9138        0.0000       11.8715       11.8715       6.957699       0.00176
  35     3.853        4.9138        0.0000       11.8713       11.8713       6.957491       0.00197
  34     5.035        4.9138        0.0000       11.8710       11.8710       6.957184       0.00219
  33     6.613        4.9138        0.0000       11.8705       11.8706       6.956732       0.00242
  32     8.786        4.9138        0.0000       11.8699       11.8699       6.956065       0.00259
  31     11.80        4.9138        0.0001       11.8688       11.8688       6.955016       0.00294
  30     15.07        4.9138        0.0001       11.8675       11.8676       6.953786       0.00318
  29     18.79        4.9138        0.0001       11.8660       11.8661       6.952297       0.00338
  28     23.16        4.9138        0.0001       11.8642       11.8643       6.950447       0.00358
  27     28.12        4.9138        0.0001       11.8619       11.8620       6.948207       0.00381
  26     33.73        4.9138        0.0002       11.8591       11.8593       6.945442       0.00416
  25     40.54        4.9138        0.0002       11.8553       11.8555       6.941690       0.00466
  24     48.69        4.9138        0.0002       11.8503       11.8505       6.936684       0.00518
  23     57.69        4.9139        0.0003       11.8443       11.8446       6.930744       0.00557
  22     68.43        4.9139        0.0003       11.8369       11.8372       6.923295       0.00586
  21     81.20        4.9140        0.0004       11.8277       11.8281       6.914109       0.00607
  20     96.49        4.9141        0.0004       11.8165       11.8170       6.902913       0.00618
  19     114.6        4.9142        0.0005       11.8026       11.8032       6.888908       0.00654
  18     136.5        4.9145        0.0006       11.7859       11.7865       6.872008       0.00650
  17     162.9        4.9149        0.0007       11.7654       11.7662       6.851274       0.00663
  16     196.4        4.9156        0.0009       11.7374       11.7382       6.822633       0.00721
  15     218.7        4.9163        0.0010       11.7161       11.7171       6.800770       0.00830
  14     243.0        4.9173        0.0011       11.6880       11.6891       6.771789       0.01005
  13     269.0        4.9189        0.0012       11.6499       11.6512       6.732216       0.01284
  12     297.5        4.9213        0.0013       11.5992       11.6005       6.679181       0.01573
  11     328.5        4.9246        0.0015       11.5354       11.5369       6.612243       0.01820
  10     361.9        4.9290        0.0016       11.4536       11.4552       6.526227       0.02176
   9     398.1        4.9344        0.0018       11.3479       11.3496       6.415249       0.02586
   8     437.6        4.9412        0.0019       11.2133       11.2152       6.274016       0.03020
   7     480.5        4.9496        0.0021       11.0529       11.0550       6.105457       0.03310
   6     533.0        4.9621        0.0023       10.8451       10.8474       5.885372       0.03540
   5     589.8        4.9794        0.0025       10.6112       10.6136       5.634224       0.03728
   4     651.6        5.0058        0.0026       10.3173       10.3200       5.314177       0.04377
   3     718.7        5.0467        0.0028        9.9309        9.9338       4.887042       0.05368
   2     792.3        5.1142        0.0030        9.4281        9.4310       4.316778       0.06540
   1     891.5        5.2697        0.0031        8.7097        8.7128       3.443090       0.07435
   0    1013.0        5.6352        0.0033        7.9266        7.9298       2.294626       0.07974



 Wavenumbers:  4650. -  5150. cm-1, ATM      1
 LEVEL PRESSURE   UPWARD FLUX   DIFDOWN FLUX  DIRDOWN FLUX  DOWNWARD FLUX   NET FLUX    HEATING RATE
          mb          W/m2          W/m2          W/m2        W/m2          W/m2       degree/day
  51    .06700        3.4755        0.0000       11.2374       11.2374       7.761943       0.00000
  50    .07753        3.4755        0.0000       11.2372       11.2372       7.761707       0.18905
  49    .09103        3.4755        0.0000       11.2369       11.2369       7.761412       0.18441
  48    0.1069        3.4755        0.0000       11.2365       11.2365       7.761075       0.17953
  47    0.1255        3.4755        0.0000       11.2361       11.2361       7.760690       0.17459
  46    0.1487        3.4755        0.0000       11.2357       11.2357       7.760207       0.17582
  45    0.1794        3.4755        0.0000       11.2350       11.2350       7.759555       0.17915
  44    0.2165        3.4755        0.0000       11.2342       11.2342       7.758792       0.17362
  43    0.2613        3.4755        0.0000       11.2334       11.2334       7.757901       0.16796
  42    0.3336        3.4755        0.0000       11.2319       11.2319       7.756456       0.16842
  41    0.4307        3.4755        0.0000       11.2300       11.2300       7.754595       0.16183
  40    0.5894        3.4755        0.0000       11.2271       11.2271       7.751684       0.15477
  39     1.339        3.4754        0.0000       11.2152       11.2152       7.739746       0.13440
  38     1.782        3.4754        0.0000       11.2094       11.2094       7.733944       0.11047
  37     2.292        3.4754        0.0000       11.2036       11.2036       7.728152       0.09593
  36     2.964        3.4754        0.0000       11.1972       11.1972       7.721772       0.08008
  35     3.853        3.4754        0.0000       11.1904       11.1904       7.714978       0.06448
  34     5.035        3.4754        0.0000       11.1834       11.1834       7.707975       0.05003
  33     6.613        3.4754        0.0000       11.1762       11.1763       7.700835       0.03817
  32     8.786        3.4754        0.0001       11.1686       11.1687       7.693230       0.02954
  31     11.80        3.4754        0.0001       11.1591       11.1592       7.683751       0.02654
  30     15.07        3.4754        0.0001       11.1490       11.1491       7.673655       0.02606
  29     18.79        3.4754        0.0001       11.1368       11.1370       7.661508       0.02754
  28     23.16        3.4755        0.0002       11.1214       11.1215       7.646056       0.02988
  27     28.12        3.4755        0.0002       11.1021       11.1022       7.626755       0.03281
  26     33.73        3.4755        0.0002       11.0786       11.0789       7.603347       0.03519
  25     40.54        3.4756        0.0003       11.0482       11.0485       7.572925       0.03774
  24     48.69        3.4757        0.0003       11.0093       11.0096       7.533924       0.04036
  23     57.69        3.4758        0.0004       10.9647       10.9650       7.489234       0.04189
  22     68.43        3.4760        0.0004       10.9102       10.9106       7.434654       0.04291
  21     81.20        3.4762        0.0005       10.8451       10.8456       7.369394       0.04312
  20     96.49        3.4766        0.0006       10.7696       10.7702       7.293586       0.04184
  19     114.6        3.4771        0.0007       10.6845       10.6852       7.208100       0.03992
  18     136.5        3.4778        0.0009       10.5917       10.5926       7.114796       0.03588
  17     162.9        3.4788        0.0010       10.4923       10.4933       7.014491       0.03206
  16     196.4        3.4804        0.0012       10.3775       10.3788       6.898412       0.02922
  15     218.7        3.4816        0.0014       10.3072       10.3086       6.826950       0.02713
  14     243.0        3.4833        0.0015       10.2316       10.2331       6.749834       0.02675
  13     269.0        3.4855        0.0017       10.1469       10.1486       6.663059       0.02815
  12     297.5        3.4888        0.0018       10.0474       10.0492       6.560441       0.03044
  11     328.5        3.4930        0.0020        9.9321        9.9341       6.441101       0.03245
  10     361.9        3.4986        0.0022        9.7977        9.7999       6.301350       0.03536
   9     398.1        3.5057        0.0023        9.6395        9.6418       6.136086       0.03850
   8     437.6        3.5150        0.0025        9.4536        9.4561       5.941066       0.04170
   7     480.5        3.5271        0.0027        9.2366        9.2393       5.712244       0.04494
   6     533.0        3.5453        0.0029        8.9485        8.9514       5.406079       0.04925
   5     589.8        3.5705        0.0031        8.6142        8.6173       5.046856       0.05332
   4     651.6        3.6071        0.0033        8.2221        8.2254       4.618266       0.05861
   3     718.7        3.6611        0.0034        7.7849        7.7883       4.127247       0.06171
   2     792.3        3.7431        0.0036        7.3128        7.3164       3.573361       0.06352
   1     891.5        3.9146        0.0038        6.6900        6.6937       2.779075       0.06759
   0    1013.0        4.2653        0.0038        5.9980        6.0019       1.736628       0.07238



 Wavenumbers:  5150. -  6150. cm-1, ATM      1
 LEVEL PRESSURE   UPWARD FLUX   DIFDOWN FLUX  DIRDOWN FLUX  DOWNWARD FLUX   NET FLUX    HEATING RATE
          mb          W/m2          W/m2          W/m2        W/m2          W/m2       degree/day
  51    .06700        8.7896        0.0000       28.1722       28.1722      19.382599       0.00000
  50    .07753        8.7896        0.0000       28.1722       28.1722      19.382559       0.03159
  49    .09103        8.7896        0.0000       28.1721       28.1721      19.382508       0.03208
  48    0.1069        8.7896        0.0000       28.1720       28.1720      19.382447       0.03259
  47    0.1255        8.7896        0.0000       28.1720       28.1720      19.382374       0.03309
  46    0.1487        8.7896        0.0000       28.1719       28.1719      19.382278       0.03486
  45    0.1794        8.7896        0.0000       28.1717       28.1717      19.382143       0.03711
  44    0.2165        8.7896        0.0000       28.1716       28.1716      19.381977       0.03767
  43    0.2613        8.7896        0.0000       28.1714       28.1714      19.381774       0.03825
  42    0.3336        8.7896        0.0000       28.1710       28.1710      19.381428       0.04042
  41    0.4307        8.7896        0.0000       28.1705       28.1706      19.380956       0.04097
  40    0.5894        8.7896        0.0000       28.1697       28.1698      19.380167       0.04199
  39     1.339        8.7896        0.0000       28.1659       28.1659      19.376360       0.04286
  38     1.782        8.7896        0.0001       28.1637       28.1637      19.374142       0.04224
  37     2.292        8.7896        0.0001       28.1611       28.1612      19.371629       0.04162
  36     2.964        8.7896        0.0001       28.1579       28.1580      19.368433       0.04012
  35     3.853        8.7896        0.0001       28.1538       28.1539      19.364367       0.03859
  34     5.035        8.7896        0.0002       28.1485       28.1487      19.359121       0.03747
  33     6.613        8.7895        0.0002       28.1416       28.1419      19.352302       0.03645
  32     8.786        8.7895        0.0003       28.1327       28.1330      19.343442       0.03441
  31     11.80        8.7895        0.0004       28.1206       28.1210      19.331414       0.03367
  30     15.07        8.7895        0.0005       28.1084       28.1088      19.319300       0.03127
  29     18.79        8.7896        0.0006       28.0956       28.0961      19.306580       0.02884
  28     23.16        8.7896        0.0007       28.0817       28.0824      19.292806       0.02663
  27     28.12        8.7896        0.0009       28.0670       28.0678      19.278246       0.02475
  26     33.73        8.7896        0.0010       28.0520       28.0530      19.263349       0.02240
  25     40.54        8.7897        0.0012       28.0355       28.0367      19.247021       0.02026
  24     48.69        8.7898        0.0015       28.0178       28.0193      19.229494       0.01814
  23     57.69        8.7900        0.0018       28.0002       28.0020      19.211973       0.01642
  22     68.43        8.7902        0.0021       27.9810       27.9831      19.192883       0.01501
  21     81.20        8.7905        0.0025       27.9598       27.9623      19.171818       0.01392
  20     96.49        8.7908        0.0029       27.9359       27.9389      19.148038       0.01312
  19     114.6        8.7912        0.0035       27.9085       27.9120      19.120736       0.01275
  18     136.5        8.7918        0.0041       27.8766       27.8808      19.088955       0.01222
  17     162.9        8.7925        0.0049       27.8296       27.8345      19.042052       0.01499
  16     196.4        8.7934        0.0059       27.7311       27.7370      18.943614       0.02478
  15     218.7        8.7941        0.0065       27.5818       27.5883      18.794222       0.05672
  14     243.0        8.7950        0.0072       27.2669       27.2741      18.479111       0.10929
  13     269.0        8.7960        0.0078       26.6955       26.7033      17.907266       0.18550
  12     297.5        8.7974        0.0084       25.9385       25.9469      17.149457       0.22476
  11     328.5        8.7992        0.0090       25.1714       25.1804      16.381185       0.20889
  10     361.9        8.8015        0.0096       24.3139       24.3235      15.522014       0.21738
   9     398.1        8.8044        0.0102       23.3241       23.3343      14.529937       0.23113
   8     437.6        8.8082        0.0107       22.2328       22.2435      13.435269       0.23405
   7     480.5        8.8132        0.0117       21.1073       21.1190      12.305824       0.22182
   6     533.0        8.8210        0.0122       19.8218       19.8340      11.012945       0.20798
   5     589.8        8.8329        0.0128       18.5867       18.5995       9.766619       0.18500
   4     651.6        8.8531        0.0133       17.4119       17.4253       8.572206       0.16334
   3     718.7        8.8873        0.0141       16.4317       16.4458       7.558498       0.12740
   2     792.3        8.9490        0.0149       15.5989       15.6139       6.664839       0.10249
   1     891.5        9.1061        0.0161       14.5760       14.5921       5.485989       0.10031
   0    1013.0        9.5533        0.0174       13.4246       13.4420       3.888668       0.11091



 Wavenumbers:  6150. -  7700. cm-1, ATM      1
 LEVEL PRESSURE   UPWARD FLUX   DIFDOWN FLUX  DIRDOWN FLUX  DOWNWARD FLUX   NET FLUX    HEATING RATE
          mb          W/m2          W/m2          W/m2        W/m2          W/m2       degree/day
  51    .06700       13.0027        0.0000       52.1056       52.1056      39.102821       0.00000
  50    .07753       13.0027        0.0000       52.1055       52.1055      39.102764       0.04553
  49    .09103       13.0027        0.0000       52.1054       52.1054      39.102691       0.04583
  48    0.1069       13.0027        0.0000       52.1053       52.1053      39.102604       0.04614
  47    0.1255       13.0027        0.0000       52.1052       52.1052      39.102502       0.04645
  46    0.1487       13.0027        0.0000       52.1051       52.1051      39.102368       0.04852
  45    0.1794       13.0027        0.0000       52.1049       52.1049      39.102182       0.05127
  44    0.2165       13.0027        0.0000       52.1047       52.1047      39.101954       0.05168
  43    0.2613       13.0027        0.0000       52.1044       52.1044      39.101678       0.05211
  42    0.3336       13.0027        0.0000       52.1039       52.1039      39.101209       0.05472
  41    0.4307       13.0027        0.0000       52.1032       52.1033      39.100574       0.05523
  40    0.5894       13.0027        0.0001       52.1021       52.1022      39.099514       0.05636
  39     1.339       13.0026        0.0002       52.0969       52.0970      39.094417       0.05738
  38     1.782       13.0026        0.0002       52.0938       52.0940      39.091442       0.05663
  37     2.292       13.0026        0.0003       52.0903       52.0906      39.088059       0.05603
  36     2.964       13.0025        0.0004       52.0859       52.0862      39.083730       0.05435
  35     3.853       13.0024        0.0005       52.0801       52.0806      39.078176       0.05270
  34     5.035       13.0023        0.0006       52.0727       52.0733      39.070964       0.05152
  33     6.613       13.0022        0.0008       52.0629       52.0637      39.061522       0.05048
  32     8.786       13.0020        0.0011       52.0501       52.0511      39.049131       0.04812
  31     11.80       13.0017        0.0015       52.0323       52.0338      39.032062       0.04779
  30     15.07       13.0015        0.0019       52.0142       52.0160      39.014557       0.04519
  29     18.79       13.0012        0.0023       51.9946       51.9970      38.995793       0.04254
  28     23.16       13.0008        0.0029       51.9729       51.9758      38.975026       0.04016
  27     28.12       13.0004        0.0035       51.9494       51.9529      38.952553       0.03820
  26     33.73       12.9999        0.0042       51.9248       51.9290      38.929054       0.03533
  25     40.54       12.9993        0.0050       51.8970       51.9020      38.902681       0.03272
  24     48.69       12.9987        0.0060       51.8662       51.8722      38.873569       0.03013
  23     57.69       12.9979        0.0071       51.8347       51.8418      38.843939       0.02777
  22     68.43       12.9970        0.0085       51.7995       51.8080      38.810936       0.02594
  21     81.20       12.9959        0.0100       51.7599       51.7699      38.773947       0.02444
  20     96.49       12.9947        0.0119       51.7145       51.7264      38.731730       0.02330
  19     114.6       12.9932        0.0141       51.6618       51.6760      38.682806       0.02284
  18     136.5       12.9914        0.0168       51.6001       51.6168      38.625453       0.02205
  17     162.9       12.9893        0.0199       51.5120       51.5320      38.542681       0.02646
  16     196.4       12.9866        0.0240       51.3371       51.3611      38.374547       0.04232
  15     218.7       12.9849        0.0266       51.1013       51.1279      38.142986       0.08792
  14     243.0       12.9832        0.0293       50.6667       50.6960      37.712772       0.14921
  13     269.0       12.9817        0.0320       49.8836       49.9156      36.933871       0.25267
  12     297.5       12.9806        0.0346       48.6664       48.7010      35.720404       0.35990
  11     328.5       12.9801        0.0377       47.2910       47.3288      34.348682       0.37297
  10     361.9       12.9804        0.0401       45.8290       45.8691      32.888715       0.36939
   9     398.1       12.9821        0.0431       44.1777       44.2209      31.238818       0.38439
   8     437.6       12.9859        0.0451       42.2573       42.3023      29.316468       0.41101
   7     480.5       12.9928        0.0482       40.1736       40.2218      27.229028       0.40997
   6     533.0       13.0067        0.0499       37.6874       37.7373      24.730582       0.40192
   5     589.8       13.0321        0.0518       35.0920       35.1438      22.111759       0.38872
   4     651.6       13.0810        0.0539       32.3072       32.3611      19.280056       0.38724
   3     718.7       13.1702        0.0565       29.5712       29.6276      16.457422       0.35473
   2     792.3       13.3366        0.0572       26.9070       26.9642      13.627647       0.32454
   1     891.5       13.7607        0.0601       23.8281       23.8882      10.127561       0.29784
   0    1013.0       14.9098        0.0623       20.9124       20.9747       6.064888       0.28209



 Wavenumbers:  7700. -  8050. cm-1, ATM      1
 LEVEL PRESSURE   UPWARD FLUX   DIFDOWN FLUX  DIRDOWN FLUX  DOWNWARD FLUX   NET FLUX    HEATING RATE
          mb          W/m2          W/m2          W/m2        W/m2          W/m2       degree/day
  51    .06700        6.9496        0.0000       12.3141       12.3141       5.364506       0.00000
  50    .07753        6.9496        0.0000       12.3141       12.3141       5.364484       0.01792
  49    .09103        6.9496        0.0000       12.3141       12.3141       5.364456       0.01756
  48    0.1069        6.9496        0.0000       12.3140       12.3140       5.364424       0.01719
  47    0.1255        6.9496        0.0000       12.3140       12.3140       5.364386       0.01682
  46    0.1487        6.9496        0.0000       12.3140       12.3140       5.364340       0.01707
  45    0.1794        6.9496        0.0000       12.3139       12.3139       5.364276       0.01756
  44    0.2165        6.9496        0.0000       12.3138       12.3138       5.364200       0.01723
  43    0.2613        6.9497        0.0000       12.3138       12.3138       5.364110       0.01691
  42    0.3336        6.9497        0.0000       12.3136       12.3137       5.363962       0.01730
  41    0.4307        6.9497        0.0000       12.3135       12.3135       5.363765       0.01711
  40    0.5894        6.9498        0.0000       12.3132       12.3132       5.363444       0.01709
  39     1.339        6.9501        0.0001       12.3119       12.3120       5.361923       0.01712
  38     1.782        6.9503        0.0001       12.3112       12.3113       5.361030       0.01701
  37     2.292        6.9505        0.0001       12.3103       12.3105       5.359995       0.01713
  36     2.964        6.9507        0.0002       12.3092       12.3094       5.358638       0.01705
  35     3.853        6.9511        0.0002       12.3077       12.3079       5.356844       0.01702
  34     5.035        6.9516        0.0003       12.3057       12.3060       5.354461       0.01702
  33     6.613        6.9522        0.0004       12.3031       12.3035       5.351278       0.01702
  32     8.786        6.9530        0.0005       12.2995       12.3000       5.346989       0.01666
  31     11.80        6.9542        0.0007       12.2944       12.2951       5.340855       0.01717
  30     15.07        6.9555        0.0009       12.2890       12.2898       5.334274       0.01699
  29     18.79        6.9570        0.0011       12.2828       12.2839       5.326845       0.01684
  28     23.16        6.9588        0.0013       12.2756       12.2769       5.318175       0.01676
  27     28.12        6.9607        0.0016       12.2674       12.2690       5.308273       0.01683
  26     33.73        6.9630        0.0019       12.2582       12.2602       5.297207       0.01664
  25     40.54        6.9657        0.0023       12.2472       12.2496       5.283861       0.01656
  24     48.69        6.9690        0.0028       12.2340       12.2368       5.267809       0.01661
  23     57.69        6.9726        0.0033       12.2195       12.2228       5.250223       0.01648
  22     68.43        6.9769        0.0039       12.2024       12.2063       5.229345       0.01641
  21     81.20        6.9822        0.0046       12.1821       12.1867       5.204568       0.01637
  20     96.49        6.9884        0.0055       12.1581       12.1636       5.175180       0.01622
  19     114.6        6.9960        0.0065       12.1299       12.1364       5.140477       0.01620
  18     136.5        7.0050        0.0078       12.0968       12.1046       5.099607       0.01572
  17     162.9        7.0159        0.0092       12.0579       12.0672       5.051291       0.01544
  16     196.4        7.0302        0.0111       12.0083       12.0194       4.989167       0.01564
  15     218.7        7.0398        0.0123       11.9761       11.9885       4.948647       0.01538
  14     243.0        7.0504        0.0137       11.9415       11.9552       4.904789       0.01521
  13     269.0        7.0621        0.0151       11.9044       11.9195       4.857396       0.01537
  12     297.5        7.0750        0.0167       11.8645       11.8812       4.806201       0.01518
  11     328.5        7.0893        0.0184       11.8217       11.8401       4.750847       0.01505
  10     361.9        7.1051        0.0202       11.7759       11.7961       4.691057       0.01513
   9     398.1        7.1227        0.0222       11.7268       11.7490       4.626267       0.01509
   8     437.6        7.1424        0.0243       11.6740       11.6982       4.555770       0.01507
   7     480.5        7.1646        0.0265       11.6170       11.6435       4.478909       0.01510
   6     533.0        7.1935        0.0293       11.5460       11.5753       4.381875       0.01561
   5     589.8        7.2271        0.0323       11.4676       11.4999       4.272792       0.01619
   4     651.6        7.2674        0.0355       11.3786       11.4142       4.146741       0.01724
   3     718.7        7.3167        0.0389       11.2762       11.3152       3.998415       0.01864
   2     792.3        7.3792        0.0425       11.1549       11.1974       3.818162       0.02067
   1     891.5        7.4841        0.0472       10.9678       11.0150       3.530878       0.02445
   0    1013.0        7.6502        0.0527       10.7069       10.7596       3.109436       0.02926



 Wavenumbers:  8050. - 12850. cm-1, ATM      1
 LEVEL PRESSURE   UPWARD FLUX   DIFDOWN FLUX  DIRDOWN FLUX  DOWNWARD FLUX   NET FLUX    HEATING RATE
          mb          W/m2          W/m2          W/m2        W/m2          W/m2       degree/day
  51    .06700       84.4740        0.0000      172.4064      172.4064      87.932403       0.00000
  50    .07753       84.4740        0.0000      172.4064      172.4064      87.932403       0.00000
  49    .09103       84.4740        0.0001      172.4063      172.4064      87.932403      -0.00000
  48    0.1069       84.4740        0.0001      172.4063      172.4064      87.932403       0.00000
  47    0.1255       84.4739        0.0002      172.4062      172.4063      87.932403      -0.00000
  46    0.1487       84.4739        0.0002      172.4061      172.4063      87.932403       0.00000
  45    0.1794       84.4739        0.0003      172.4060      172.4063      87.932403      -0.00000
  44    0.2165       84.4738        0.0004      172.4058      172.4062      87.932403       0.00000
  43    0.2613       84.4738        0.0005      172.4056      172.4062      87.932403      -0.00000
  42    0.3336       84.4737        0.0007      172.4054      172.4061      87.932403      -0.00000
  41    0.4307       84.4736        0.0010      172.4050      172.4060      87.932403      -0.00000
  40    0.5894       84.4734        0.0014      172.4044      172.4058      87.932403       0.00000
  39     1.339       84.4725        0.0035      172.4014      172.4049      87.932403       0.00000
  38     1.782       84.4720        0.0047      172.3997      172.4044      87.932403      -0.00000
  37     2.292       84.4714        0.0061      172.3976      172.4038      87.932403       0.00000
  36     2.964       84.4706        0.0080      172.3950      172.4030      87.932403       0.00000
  35     3.853       84.4695        0.0104      172.3915      172.4019      87.932403       0.00000
  34     5.035       84.4681        0.0136      172.3869      172.4005      87.932403      -0.00000
  33     6.613       84.4662        0.0180      172.3807      172.3986      87.932403       0.00000
  32     8.786       84.4637        0.0238      172.3723      172.3961      87.932403       0.00000
  31     11.80       84.4601        0.0322      172.3603      172.3925      87.932403       0.00000
  30     15.07       84.4562        0.0412      172.3474      172.3886      87.932403       0.00000
  29     18.79       84.4518        0.0513      172.3329      172.3842      87.932403      -0.00000
  28     23.16       84.4467        0.0632      172.3159      172.3791      87.932403       0.00000
  27     28.12       84.4408        0.0768      172.2964      172.3732      87.932403      -0.00000
  26     33.73       84.4342        0.0921      172.2745      172.3666      87.932403       0.00000
  25     40.54       84.4262        0.1105      172.2481      172.3586      87.932403      -0.00000
  24     48.69       84.4165        0.1328      172.2162      172.3489      87.932403       0.00000
  23     57.69       84.4059        0.1573      172.1811      172.3383      87.932403       0.00000
  22     68.43       84.3933        0.1865      172.1392      172.3257      87.932403       0.00000
  21     81.20       84.3782        0.2213      172.0892      172.3106      87.932403      -0.00000
  20     96.49       84.3601        0.2630      172.0296      172.2925      87.932403       0.00000
  19     114.6       84.3388        0.3125      171.9526      172.2650      87.926206       0.00289
  18     136.5       84.3135        0.3713      171.8607      172.2320      87.918513       0.00296
  17     162.9       84.2833        0.4415      171.7476      172.1890      87.905732       0.00409
  16     196.4       84.2441        0.5327      171.5843      172.1170      87.872903       0.00826
  15     218.7       84.2185        0.5928      171.4372      172.0300      87.811471       0.02332
  14     243.0       84.1911        0.6579      171.1990      171.8569      87.665819       0.05052
  13     269.0       84.1624        0.7284      170.8074      171.5358      87.373371       0.09487
  12     297.5       84.1335        0.8045      170.2284      171.0329      86.899453       0.14056
  11     328.5       84.1049        0.8861      169.5292      170.4153      86.310371       0.16017
  10     361.9       84.0781        0.9741      168.6952      169.6693      85.591192       0.18196
   9     398.1       84.0553        1.0681      167.6554      168.7235      84.668255       0.21502
   8     437.6       84.0405        1.1678      166.3207      167.4885      83.448051       0.26089
   7     480.5       84.0384        1.2733      164.6596      165.9329      81.894452       0.30512
   6     533.0       84.0620        1.4019      162.3032      163.7051      79.643164       0.36216
   5     589.8       84.1351        1.5337      159.3088      160.8425      76.707444       0.43576
   4     651.6       84.3133        1.6722      155.3247      156.9969      72.683584       0.55027
   3     718.7       84.6689        1.8099      150.4721      152.2820      67.613114       0.63722
   2     792.3       85.3609        1.9486      144.6549      146.6035      61.242616       0.73062
   1     891.5       87.1302        2.1139      136.1575      138.2715      51.141304       0.85957
   0    1013.0       91.5222        2.2974      126.2286      128.5260      37.003823       0.98164



 Wavenumbers: 12850. - 16000. cm-1, ATM      1
 LEVEL PRESSURE   UPWARD FLUX   DIFDOWN FLUX  DIRDOWN FLUX  DOWNWARD FLUX   NET FLUX    HEATING RATE
          mb          W/m2          W/m2          W/m2        W/m2          W/m2       degree/day
  51    .06700       78.9211        0.0000      108.0279      108.0279      29.106734       0.00000
  50    .07753       78.9211        0.0001      108.0270      108.0271      29.105942       0.63476
  49    .09103       78.9211        0.0002      108.0259      108.0261      29.104946       0.62226
  48    0.1069       78.9211        0.0003      108.0247      108.0249      29.103801       0.60957
  47    0.1255       78.9211        0.0004      108.0232      108.0236      29.102484       0.59722
  46    0.1487       78.9212        0.0005      108.0215      108.0220      29.100819       0.60688
  45    0.1794       78.9212        0.0007      108.0190      108.0198      29.098550       0.62288
  44    0.2165       78.9213        0.0010      108.0162      108.0172      29.095875       0.60846
  43    0.2613       78.9214        0.0012      108.0129      108.0141      29.092722       0.59432
  42    0.3336       78.9216        0.0017      108.0075      108.0092      29.087556       0.60229
  41    0.4307       78.9220        0.0023      108.0005      108.0029      29.080863       0.58197
  40    0.5894       78.9228        0.0034      107.9897      107.9930      29.070252       0.56424
  39     1.339       78.9293        0.0081      107.9429      107.9511      29.021720       0.54639
  38     1.782       78.9353        0.0110      107.9170      107.9279      28.992596       0.55446
  37     2.292       78.9442        0.0142      107.8866      107.9008      28.956535       0.59727
  36     2.964       78.9590        0.0185      107.8447      107.8632      28.904181       0.65720
  35     3.853       78.9828        0.0242      107.7854      107.8095      28.826762       0.73472
  34     5.035       79.0186        0.0317      107.7024      107.7341      28.715493       0.79486
  33     6.613       79.0685        0.0417      107.5902      107.6318      28.563298       0.81363
  32     8.786       79.1336        0.0552      107.4443      107.4994      28.365826       0.76691
  31     11.80       79.2183        0.0745      107.2509      107.3254      28.107046       0.72450
  30     15.07       79.2996        0.0951      107.0607      107.1558      27.856267       0.64746
  29     18.79       79.3826        0.1185      106.8615      106.9800      27.597423       0.58688
  28     23.16       79.4694        0.1457      106.6468      106.7925      27.323090       0.53047
  27     28.12       79.5569        0.1769      106.4221      106.5990      27.042048       0.47775
  26     33.73       79.6380        0.2118      106.1997      106.4115      26.773517       0.40374
  25     40.54       79.7163        0.2539      105.9647      106.2186      26.502325       0.33644
  24     48.69       79.7918        0.3047      105.7151      106.0198      26.228052       0.28383
  23     57.69       79.8562        0.3606      105.4739      105.8345      25.978267       0.23414
  22     68.43       79.9130        0.4271      105.2226      105.6497      25.736741       0.18987
  21     81.20       79.9533        0.5065      104.9711      105.4776      25.524383       0.14032
  20     96.49       79.9759        0.6013      104.7165      105.3178      25.341856       0.10074
  19     114.6       80.0040        0.7150      104.4370      105.1520      25.147992       0.09052
  18     136.5       80.0256        0.8498      104.1231      104.9729      24.947229       0.07720
  17     162.9       80.0408        1.0104      103.7617      104.7721      24.731349       0.06900
  16     196.4       80.0379        1.2187      103.3157      104.5344      24.496519       0.05911
  15     218.7       80.0279        1.3555      103.0288      104.3843      24.356456       0.05318
  14     243.0       80.0134        1.5042      102.7172      104.2214      24.207932       0.05151
  13     269.0       79.9945        1.6653      102.3791      104.0444      24.049947       0.05125
  12     297.5       79.9715        1.8396      102.0110      103.8506      23.879132       0.05066
  11     328.5       79.9464        2.0279      101.6092      103.6371      23.690728       0.05123
  10     361.9       79.9199        2.2307      101.1710      103.4016      23.481766       0.05287
   9     398.1       79.8932        2.4489      100.6917      103.1407      23.247425       0.05460
   8     437.6       79.8691        2.6833      100.1639      102.8472      22.978074       0.05759
   7     480.5       79.8501        2.9345       99.5812      102.5157      22.665601       0.06137
   6     533.0       79.8401        3.2439       98.8330      102.0769      22.236764       0.06899
   5     589.8       79.8551        3.5762       97.9725      101.5488      21.693607       0.08062
   4     651.6       79.9246        3.9312       96.9394      100.8707      20.946075       0.10223
   3     718.7       80.0679        4.3081       95.7213      100.0294      19.961455       0.12374
   2     792.3       80.3479        4.7024       94.2507       98.9531      18.605163       0.15555
   1     891.5       81.0273        5.2164       91.9984       97.2148      16.187478       0.20573
   0    1013.0       82.4556        5.8066       89.0422       94.8488      12.393278       0.26345



 Wavenumbers: 16000. - 22650. cm-1, ATM      1
 LEVEL PRESSURE   UPWARD FLUX   DIFDOWN FLUX  DIRDOWN FLUX  DOWNWARD FLUX   NET FLUX    HEATING RATE
          mb          W/m2          W/m2          W/m2        W/m2          W/m2       degree/day
  51    .06700      154.9936        0.0000      172.2385      172.2385      17.244811       0.00000
  50    .07753      154.9936        0.0004      172.2379      172.2383      17.244657       0.12343
  49    .09103      154.9937        0.0009      172.2372      172.2381      17.244433       0.14000
  48    0.1069      154.9937        0.0015      172.2363      172.2378      17.244133       0.15965
  47    0.1255      154.9937        0.0022      172.2353      172.2375      17.243731       0.18197
  46    0.1487      154.9939        0.0031      172.2339      172.2370      17.243140       0.21564
  45    0.1794      154.9941        0.0042      172.2320      172.2363      17.242215       0.25390
  44    0.2165      154.9944        0.0056      172.2297      172.2353      17.240961       0.28535
  43    0.2613      154.9949        0.0073      172.2268      172.2341      17.239259       0.32080
  42    0.3336      154.9959        0.0100      172.2219      172.2319      17.236023       0.37726
  41    0.4307      154.9974        0.0136      172.2149      172.2286      17.231145       0.42408
  40    0.5894      155.0006        0.0196      172.2029      172.2225      17.221843       0.49468
  39     1.339      155.0271        0.0476      172.1326      172.1802      17.153116       0.77375
  38     1.782      155.0510        0.0640      172.0816      172.1456      17.094566       1.11470
  37     2.292      155.0866        0.0831      172.0133      172.0964      17.009810       1.40377
  36     2.964      155.1453        0.1081      171.9097      172.0178      16.872497       1.72370
  35     3.853      155.2397        0.1411      171.7532      171.8943      16.654591       2.06796
  34     5.035      155.3818        0.1849      171.5264      171.7113      16.329444       2.32272
  33     6.613      155.5803        0.2433      171.2145      171.4578      15.877486       2.41616
  32     8.786      155.8389        0.3220      170.8061      171.1282      15.289219       2.28462
  31     11.80      156.1761        0.4344      170.2631      170.6975      14.521392       2.14967
  30     15.07      156.4999        0.5550      169.7274      170.2824      13.782456       1.90779
  29     18.79      156.8312        0.6910      169.1650      169.8560      13.024794       1.71785
  28     23.16      157.1784        0.8497      168.5570      169.4067      12.228331       1.54010
  27     28.12      157.5289        1.0310      167.9182      168.9491      11.420207       1.37376
  26     33.73      157.8545        1.2337      167.2816      168.5153      10.660779       1.14182
  25     40.54      158.1706        1.4785      166.6019      168.0805       9.909839       0.93163
  24     48.69      158.4767        1.7735      165.8692      167.6427       9.166033       0.76972
  23     57.69      158.7402        2.0972      165.1474      167.2446       8.504393       0.62019
  22     68.43      158.9758        2.4825      164.3763      166.8588       7.882991       0.48851
  21     81.20      159.1491        2.9415      163.5763      166.5178       7.368700       0.33984
  20     96.49      159.2560        3.4882      162.7327      166.2209       6.964922       0.22286
  19     114.6      159.3315        4.1357      161.7909      165.9266       6.595055       0.17270
  18     136.5      159.3863        4.9009      160.7164      165.6173       6.231011       0.13998
  17     162.9      159.4196        5.8085      159.4773      165.2858       5.866130       0.11663
  16     196.4      159.3944        6.9807      157.9514      164.9321       5.537730       0.08266
  15     218.7      159.3526        7.7473      156.9811      164.7284       5.375849       0.06146
  14     243.0      159.2954        8.5777      155.9431      164.5208       5.225430       0.05217
  13     269.0      159.2212        9.4742      154.8360      164.3102       5.089043       0.04424
  12     297.5      159.1293       10.4391      153.6573      164.0964       4.967108       0.03616
  11     328.5      159.0244       11.4772      152.3956      163.8728       4.848415       0.03227
  10     361.9      158.9062       12.5896      151.0498      163.6394       4.733116       0.02917
   9     398.1      158.7745       13.7807      149.6140      163.3948       4.620289       0.02629
   8     437.6      158.6302       15.0530      148.0838      163.1368       4.506631       0.02430
   7     480.5      158.4730       16.4091      146.4558      162.8649       4.391849       0.02254
   6     533.0      158.2786       18.0675      144.4661      162.5336       4.255088       0.02200
   5     589.8      158.0720       19.8424      142.3333      162.1757       4.103751       0.02246
   4     651.6      157.8602       21.7359      140.0452      161.7811       3.920912       0.02500
   3     718.7      157.6500       23.7507      137.5906      161.3413       3.691217       0.02887
   2     792.3      157.4599       25.8853      134.9517      160.8370       3.377128       0.03602
   1     891.5      157.2889       28.7263      131.3548      160.0811       2.792176       0.04978
   0    1013.0      157.2248       32.0755      127.0045      159.0800       1.855210       0.06506



 Wavenumbers: 22650. - 29000. cm-1, ATM      1
 LEVEL PRESSURE   UPWARD FLUX   DIFDOWN FLUX  DIRDOWN FLUX  DOWNWARD FLUX   NET FLUX    HEATING RATE
          mb          W/m2          W/m2          W/m2        W/m2          W/m2       degree/day
  51    .06700       64.2681        0.0000       64.9965       64.9965       0.728444       0.00000
  50    .07753       64.2680        0.0005       64.9960       64.9965       0.728444       0.00000
  49    .09103       64.2679        0.0011       64.9953       64.9964       0.728444       0.00000
  48    0.1069       64.2678        0.0018       64.9945       64.9963       0.728444       0.00000
  47    0.1255       64.2677        0.0026       64.9936       64.9961       0.728444       0.00000
  46    0.1487       64.2675        0.0036       64.9924       64.9960       0.728444       0.00000
  45    0.1794       64.2673        0.0050       64.9908       64.9958       0.728444       0.00000
  44    0.2165       64.2671        0.0066       64.9890       64.9955       0.728444       0.00000
  43    0.2613       64.2668        0.0085       64.9867       64.9953       0.728444      -0.00000
  42    0.3336       64.2663        0.0117       64.9831       64.9948       0.728444      -0.00000
  41    0.4307       64.2657        0.0159       64.9782       64.9942       0.728444       0.00000
  40    0.5894       64.2647        0.0229       64.9703       64.9931       0.728444       0.00000
  39     1.339       64.2598        0.0556       64.9327       64.9883       0.728444       0.00000
  38     1.782       64.2570        0.0748       64.9106       64.9854       0.728444      -0.00000
  37     2.292       64.2537        0.0971       64.8851       64.9821       0.728444       0.00000
  36     2.964       64.2493        0.1263       64.8515       64.9778       0.728444      -0.00000
  35     3.853       64.2436        0.1648       64.8073       64.9721       0.728444       0.00000
  34     5.035       64.2360        0.2160       64.7484       64.9645       0.728444      -0.00000
  33     6.613       64.2259        0.2844       64.6699       64.9543       0.728444       0.00000
  32     8.786       64.2122        0.3765       64.5642       64.9407       0.728444      -0.00000
  31     11.80       64.1927        0.5081       64.4131       64.9211       0.728444       0.00000
  30     15.07       64.1718        0.6491       64.2511       64.9002       0.728444      -0.00000
  29     18.79       64.1481        0.8082       64.0684       64.8766       0.728444       0.00000
  28     23.16       64.1206        0.9936       63.8555       64.8491       0.728444       0.00000
  27     28.12       64.0892        1.2050       63.6126       64.8177       0.728444      -0.00000
  26     33.73       64.0542        1.4410       63.3416       64.7826       0.728444       0.00000
  25     40.54       64.0120        1.7250       63.0154       64.7404       0.728444       0.00000
  24     48.69       63.9613        2.0658       62.6240       64.6898       0.728444      -0.00000
  23     57.69       63.9060        2.4382       62.1963       64.6345       0.728444       0.00000
  22     68.43       63.8405        2.8789       61.6901       64.5689       0.728444       0.00000
  21     81.20       63.7630        3.3998       61.0917       64.4915       0.728444       0.00000
  20     96.49       63.6715        4.0147       60.3853       64.4000       0.728444      -0.00000
  19     114.6       63.5641        4.7363       59.5562       64.2925       0.728444       0.00000
  18     136.5       63.4384        5.5800       58.5869       64.1669       0.728444       0.00000
  17     162.9       63.2911        6.5681       57.4514       64.0195       0.728444       0.00000
  16     196.4       63.1038        7.8231       56.0091       63.8322       0.728444      -0.00000
  15     218.7       62.9830        8.6314       55.0801       63.7115       0.728444      -0.00000
  14     243.0       62.8538        9.4959       54.0863       63.5822       0.728444      -0.00000
  13     269.0       62.7160       10.4166       53.0278       63.4444       0.728444       0.00000
  12     297.5       62.5697       11.3929       51.9052       63.2981       0.728444       0.00000
  11     328.5       62.4146       12.4268       50.7163       63.1431       0.728444       0.00000
  10     361.9       62.2510       13.5159       49.4636       62.9795       0.728444       0.00000
   9     398.1       62.0788       14.6609       48.1464       62.8073       0.728444      -0.00000
   8     437.6       61.8982       15.8600       46.7667       62.6267       0.728444       0.00000
   7     480.5       61.7094       17.1111       45.3267       62.4379       0.728444      -0.00000
   6     533.0       61.4836       18.6048       43.6072       62.2120       0.728444       0.00000
   5     589.8       61.2481       20.1581       41.8184       61.9766       0.728444      -0.00000
   4     651.6       61.0036       21.7666       39.9655       61.7321       0.728444       0.00000
   3     718.7       60.7508       23.4246       38.0546       61.4792       0.728444      -0.00000
   2     792.3       60.4907       25.1240       36.0951       61.2192       0.728444       0.00000
   1     891.5       60.1566       27.2965       33.5886       60.8851       0.728444      -0.00000
   0    1013.0       59.7794       29.7340       30.7739       60.5079       0.728444       0.00000



 Wavenumbers: 29000. - 38000. cm-1, ATM      1
 LEVEL PRESSURE   UPWARD FLUX   DIFDOWN FLUX  DIRDOWN FLUX  DOWNWARD FLUX   NET FLUX    HEATING RATE
          mb          W/m2          W/m2          W/m2        W/m2          W/m2       degree/day
  51    .06700        9.7054        0.0000       22.9205       22.9205      13.215070       0.00000
  50    .07753        9.7052        0.0003       22.9162       22.9165      13.211260       3.05332
  49    .09103        9.7050        0.0007       22.9100       22.9107      13.205719       3.46337
  48    0.1069        9.7048        0.0012       22.9019       22.9031      13.198302       3.94797
  47    0.1255        9.7045        0.0017       22.8911       22.8929      13.188385       4.49575
  46    0.1487        9.7042        0.0024       22.8756       22.8780      13.173799       5.31686
  45    0.1794        9.7037        0.0033       22.8515       22.8548      13.151085       6.23548
  44    0.2165        9.7033        0.0044       22.8193       22.8237      13.120472       6.96410
  43    0.2613        9.7027        0.0057       22.7763       22.7820      13.079310       7.75888
  42    0.3336        9.7019        0.0078       22.6964       22.7042      13.002296       8.97904
  41    0.4307        9.7010        0.0106       22.5797       22.5903      12.889342       9.82104
  40    0.5894        9.6996        0.0150       22.3687       22.3837      12.684046      10.91738
  39     1.339        9.6976        0.0338       21.1625       21.1964      11.498789      13.34385
  38     1.782        9.6991        0.0436       20.4615       20.5052      10.806084      13.18798
  37     2.292        9.7032        0.0544       19.7394       19.7938      10.090638      11.84965
  36     2.964        9.7118        0.0672       18.9466       19.0138       9.301934       9.90062
  35     3.853        9.7279        0.0836       18.1064       18.1900       8.462062       7.97054
  34     5.035        9.7539        0.1044       17.2527       17.3570       7.603116       6.13595
  33     6.613        9.7913        0.1310       16.4227       16.5537       6.762395       4.49450
  32     8.786        9.8406        0.1670       15.6383       15.8053       5.964646       3.09817
  31     11.80        9.9054        0.2164       14.8684       15.0848       5.179419       2.19839
  30     15.07        9.9681        0.2675       14.2779       14.5454       4.577229       1.55474
  29     18.79       10.0334        0.3242       13.7668       14.0910       4.057544       1.17829
  28     23.16       10.1032        0.3889       13.2956       13.6845       3.581257       0.92098
  27     28.12       10.1754        0.4614       12.8630       13.3245       3.149090       0.73465
  26     33.73       10.2431        0.5416       12.4784       13.0200       2.776887       0.55962
  25     40.54       10.3090        0.6379       12.1052       12.7431       2.434048       0.42533
  24     48.69       10.3731        0.7520       11.7350       12.4871       2.113925       0.33128
  23     57.69       10.4281        0.8758       11.3950       12.2708       1.842715       0.25422
  22     68.43       10.4759        1.0217       11.0521       12.0739       1.597981       0.19239
  21     81.20       10.5062        1.1944       10.7139       11.9082       1.402023       0.12949
  20     96.49       10.5168        1.3979       10.3711       11.7690       1.252176       0.08270
  19     114.6       10.5174        1.6339       10.0017       11.6356       1.118210       0.06255
  18     136.5       10.5116        1.9048        9.5959       11.5007       0.989087       0.04965
  17     162.9       10.4997        2.2148        9.1469       11.3617       0.862017       0.04062
  16     196.4       10.4696        2.6010        8.6182       11.2192       0.749570       0.02830
  15     218.7       10.4453        2.8448        8.2950       11.1399       0.694533       0.02090
  14     243.0       10.4177        3.1007        7.9605       11.0612       0.643544       0.01768
  13     269.0       10.3863        3.3681        7.6158       10.9839       0.597613       0.01490
  12     297.5       10.3512        3.6456        7.2627       10.9082       0.557002       0.01204
  11     328.5       10.3142        3.9321        6.9001       10.8322       0.518007       0.01060
  10     361.9       10.2753        4.2262        6.5299       10.7561       0.480797       0.00941
   9     398.1       10.2348        4.5262        6.1541       10.6802       0.445426       0.00824
   8     437.6       10.1933        4.8307        5.7739       10.6045       0.411232       0.00731
   7     480.5       10.1509        5.1377        5.3919       10.5296       0.378678       0.00639
   6     533.0       10.1017        5.4900        4.9548       10.4448       0.343086       0.00573
   5     589.8       10.0527        5.8403        4.5210       10.3613       0.308512       0.00513
   4     651.6       10.0048        6.1854        4.0939       10.2793       0.274582       0.00464
   3     718.7        9.9583        6.5228        3.6767       10.1995       0.241253       0.00419
   2     792.3        9.9141        6.8485        3.2741       10.1226       0.208543       0.00375
   1     891.5        9.8629        7.2366        2.7943       10.0309       0.168046       0.00345
   0    1013.0        9.8135        7.6330        2.3036        9.9367       0.123201       0.00311



 Wavenumbers: 38000. - 50000. cm-1, ATM      1
 LEVEL PRESSURE   UPWARD FLUX   DIFDOWN FLUX  DIRDOWN FLUX  DOWNWARD FLUX   NET FLUX    HEATING RATE
          mb          W/m2          W/m2          W/m2        W/m2          W/m2       degree/day
  51    .06700        0.0063        0.0000        1.4137        1.4137       1.407396       0.00000
  50    .07753        0.0063        0.0001        1.4113        1.4113       1.405061       1.87191
  49    .09103        0.0062        0.0002        1.4078        1.4079       1.401727       2.08342
  48    0.1069        0.0061        0.0002        1.4032        1.4035       1.397345       2.33245
  47    0.1255        0.0060        0.0004        1.3972        1.3976       1.391583       2.61233
  46    0.1487        0.0059        0.0005        1.3886        1.3891       1.383241       3.04069
  45    0.1794        0.0058        0.0007        1.3755        1.3762       1.370437       3.51516
  44    0.2165        0.0056        0.0009        1.3581        1.3590       1.353439       3.86663
  43    0.2613        0.0054        0.0011        1.3352        1.3363       1.330955       4.23826
  42    0.3336        0.0051        0.0015        1.2933        1.2948       1.289754       4.80356
  41    0.4307        0.0047        0.0020        1.2336        1.2357       1.230957       5.11229
  40    0.5894        0.0041        0.0026        1.1302        1.1327       1.128611       5.44262
  39     1.339        0.0024        0.0036        0.6413        0.6449       0.642484       5.47291
  38     1.782        0.0018        0.0033        0.4376        0.4409       0.439132       3.87151
  37     2.292        0.0013        0.0028        0.2872        0.2900       0.288657       2.49226
  36     2.964        0.0010        0.0023        0.1789        0.1812       0.180212       1.36131
  35     3.853        0.0007        0.0018        0.1070        0.1088       0.108161       0.68378
  34     5.035        0.0005        0.0014        0.0619        0.0632       0.062756       0.32436
  33     6.613        0.0003        0.0010        0.0353        0.0363       0.035977       0.14316
  32     8.786        0.0002        0.0008        0.0193        0.0201       0.019899       0.06244
  31     11.80        0.0001        0.0005        0.0093        0.0098       0.009717       0.02851
  30     15.07        0.0001        0.0003        0.0047        0.0050       0.004935       0.01234
  29     18.79        0.0000        0.0002        0.0023        0.0025       0.002471       0.00559
  28     23.16        0.0000        0.0001        0.0011        0.0012       0.001186       0.00248
  27     28.12        0.0000        0.0001        0.0005        0.0006       0.000552       0.00108
  26     33.73        0.0000        0.0000        0.0002        0.0003       0.000257       0.00044
  25     40.54        0.0000        0.0000        0.0001        0.0001       0.000112       0.00018
  24     48.69        0.0000        0.0000        0.0000        0.0000       0.000044       0.00007
  23     57.69        0.0000        0.0000        0.0000        0.0000       0.000017       0.00003
  22     68.43        0.0000        0.0000        0.0000        0.0000       0.000006       0.00001
  21     81.20        0.0000        0.0000        0.0000        0.0000       0.000002       0.00000
  20     96.49        0.0000        0.0000        0.0000        0.0000       0.000001       0.00000
  19     114.6        0.0000        0.0000        0.0000        0.0000       0.000000       0.00000
  18     136.5        0.0000        0.0000        0.0000        0.0000       0.000000       0.00000
  17     162.9        0.0000        0.0000        0.0000        0.0000       0.000000       0.00000
  16     196.4        0.0000        0.0000        0.0000        0.0000       0.000000       0.00000
  15     218.7        0.0000        0.0000        0.0000        0.0000       0.000000       0.00000
  14     243.0        0.0000        0.0000        0.0000        0.0000       0.000000       0.00000
  13     269.0        0.0000        0.0000        0.0000        0.0000       0.000000       0.00000
  12     297.5        0.0000        0.0000        0.0000        0.0000       0.000000       0.00000
  11     328.5        0.0000        0.0000        0.0000        0.0000       0.000000       0.00000
  10     361.9        0.0000        0.0000        0.0000        0.0000       0.000000       0.00000
   9     398.1        0.0000        0.0000        0.0000        0.0000       0.000000       0.00000
   8     437.6        0.0000        0.0000        0.0000        0.0000       0.000000       0.00000
   7     480.5        0.0000        0.0000        0.0000        0.0000       0.000000       0.00000
   6     533.0        0.0000        0.0000        0.0000        0.0000       0.000000       0.00000
   5     589.8        0.0000        0.0000        0.0000        0.0000       0.000000       0.00000
   4     651.6        0.0000        0.0000        0.0000        0.0000       0.000000       0.00000
   3     718.7        0.0000        0.0000        0.0000        0.0000       0.000000       0.00000
   2     792.3        0.0000        0.0000        0.0000        0.0000       0.000000       0.00000
   1     891.5        0.0000        0.0000        0.0000        0.0000       0.000000       0.00000
   0    1013.0        0.0000        0.0000        0.0000        0.0000       0.000000       0.00000



 Wavenumbers:   820. -  2600. cm-1, ATM      1
 LEVEL PRESSURE   UPWARD FLUX   DIFDOWN FLUX  DIRDOWN FLUX  DOWNWARD FLUX   NET FLUX    HEATING RATE
          mb          W/m2          W/m2          W/m2        W/m2          W/m2       degree/day
  51    .06700        0.8659        0.0000        6.6132        6.6132       5.747300       0.00000
  50    .07753        0.8659        0.0000        6.6090        6.6090       5.743138       3.33605
  49    .09103        0.8659        0.0000        6.6081        6.6081       5.742228       0.56888
  48    0.1069        0.8659        0.0000        6.6071        6.6071       5.741222       0.53528
  47    0.1255        0.8659        0.0000        6.6060        6.6060       5.740079       0.51825
  46    0.1487        0.8659        0.0000        6.6046        6.6046       5.738677       0.51103
  45    0.1794        0.8659        0.0000        6.6028        6.6028       5.736883       0.49267
  44    0.2165        0.8659        0.0000        6.6008        6.6008       5.734942       0.44152
  43    0.2613        0.8659        0.0000        6.5988        6.5988       5.732864       0.39168
  42    0.3336        0.8659        0.0000        6.5957        6.5957       5.729820       0.35488
  41    0.4307        0.8659        0.0000        6.5921        6.5921       5.726196       0.31511
  40    0.5894        0.8659        0.0000        6.5864        6.5864       5.720527       0.30148
  39     1.339        0.8659        0.0000        6.5601        6.5601       5.694249       0.29584
  38     1.782        0.8659        0.0000        6.5455        6.5455       5.679618       0.27855
  37     2.292        0.8659        0.0000        6.5292        6.5292       5.663300       0.27027
  36     2.964        0.8659        0.0000        6.5086        6.5086       5.642734       0.25816
  35     3.853        0.8659        0.0000        6.4829        6.4829       5.616977       0.24445
  34     5.035        0.8659        0.0000        6.4508        6.4508       5.584908       0.22909
  33     6.613        0.8659        0.0000        6.4109        6.4109       5.545040       0.21313
  32     8.786        0.8659        0.0000        6.3608        6.3608       5.494880       0.19480
  31     11.80        0.8659        0.0000        6.2972        6.2972       5.431320       0.17795
  30     15.07        0.8659        0.0000        6.2420        6.2420       5.376108       0.14255
  29     18.79        0.8659        0.0000        6.1955        6.1955       5.329566       0.10552
  28     23.16        0.8660        0.0000        6.1574        6.1574       5.291474       0.07366
  27     28.12        0.8660        0.0000        6.1267        6.1267       5.260751       0.05223
  26     33.73        0.8660        0.0000        6.1000        6.1000       5.234052       0.04014
  25     40.54        0.8660        0.0000        6.0718        6.0718       5.205771       0.03509
  24     48.69        0.8660        0.0000        6.0396        6.0396       5.173617       0.03328
  23     57.69        0.8660        0.0000        6.0052        6.0052       5.139135       0.03232
  22     68.43        0.8661        0.0000        5.9650        5.9650       5.098903       0.03163
  21     81.20        0.8661        0.0000        5.9187        5.9188       5.052645       0.03057
  20     96.49        0.8662        0.0000        5.8655        5.8655       4.999386       0.02940
  19     114.6        0.8662        0.0000        5.8038        5.8038       4.937581       0.02886
  18     136.5        0.8663        0.0000        5.7332        5.7332       4.866926       0.02717
  17     162.9        0.8664        0.0000        5.6457        5.6458       4.779390       0.02798
  16     196.4        0.8665        0.0000        5.5146        5.5146       4.648051       0.03306
  15     218.7        0.8667        0.0000        5.3963        5.3963       4.529633       0.04496
  14     243.0        0.8670        0.0000        5.2289        5.2289       4.361936       0.05816
  13     269.0        0.8674        0.0000        5.0334        5.0335       4.166102       0.06353
  12     297.5        0.8680        0.0000        4.8231        4.8232       3.955155       0.06256
  11     328.5        0.8689        0.0000        4.5985        4.5985       3.729628       0.06132
  10     361.9        0.8701        0.0000        4.3345        4.3345       3.464415       0.06710
   9     398.1        0.8717        0.0000        4.0486        4.0487       3.176977       0.06697
   8     437.6        0.8738        0.0000        3.7777        3.7777       2.903960       0.05837
   7     480.5        0.8764        0.0000        3.5675        3.5676       2.691194       0.04179
   6     533.0        0.8804        0.0000        3.3966        3.3967       2.516271       0.02814
   5     589.8        0.8865        0.0000        3.2415        3.2416       2.355130       0.02392
   4     651.6        0.8973        0.0000        3.0460        3.0460       2.148658       0.02824
   3     718.7        0.9162        0.0000        2.8155        2.8155       1.899273       0.03134
   2     792.3        0.9509        0.0000        2.5621        2.5622       1.611248       0.03303
   1     891.5        1.0393        0.0000        2.2216        2.2217       1.182355       0.03650
   0    1013.0        1.2635        0.0000        1.7780        1.7780       0.514560       0.04637

  Modules and versions used in this calculation:

       rrtmg_sw.1col.f90:  $Revision$                    rrtmg_sw_init.f90:  $Revision$        
     rrtmgsw_cldprop.f90:  $Revision$                  rrtmgsw_cldprmc.f90:  NOT USED          
     rrtmg_sw_reftra.f90:  $Revision$                  rrtmg_sw_spcvrt.f90:  NOT USED          
     rrtmg_sw_spcvmc.f90:  NOT USED                    rrtmgsw_setcoef.f90:  NOT USED          
     rrtmg_sw_taumol.f90:  $Revision$                  rrtmg_sw_vrtqdr.f90:  NOT USED          
                rrtatm.f:  NOT USED                             util_xxx.f:  NOT USED          
                 extra.f:  NOT USED                       rrtmg_sw_k_g.f90:  $Revision$        

