

 Wavenumbers:   820. - 50000. cm-1, ATM      1
 LEVEL PRESSURE   UPWARD FLUX   DIFDOWN FLUX  DIRDOWN FLUX  DOWNWARD FLUX   NET FLUX    HEATING RATE
          mb          W/m2          W/m2          W/m2        W/m2          W/m2       degree/day
  51    .06700      404.0619        0.0000      617.8126      617.8126     213.750728       0.00000
  50    .07753      404.0615        0.0014      617.7949      617.7962     213.734728      12.82399
  49    .09103      404.0610        0.0030      617.7781      617.7811     213.720086       9.15175
  48    0.1069      404.0606        0.0050      617.7586      617.7636     213.703012       9.08834
  47    0.1255      404.0601        0.0072      617.7347      617.7419     213.681874       9.58306
  46    0.1487      404.0595        0.0101      617.7019      617.7119     213.652447      10.72641
  45    0.1794      404.0588        0.0139      617.6534      617.6673     213.608557      12.04897
  44    0.2165      404.0581        0.0185      617.5912      617.6097     213.551634      12.94887
  43    0.2613      404.0574        0.0238      617.5111      617.5350     213.477593      13.95642
  42    0.3336      404.0565        0.0327      617.3671      617.3998     213.343300      15.65726
  41    0.4307      404.0559        0.0443      617.1633      617.2076     213.151738      16.65586
  40    0.5894      404.0558        0.0631      616.8064      616.8696     212.813778      17.97232
  39     1.339      404.0738        0.1482      614.9580      615.1061     211.032333      20.05583
  38     1.782      404.0972        0.1960      613.9847      614.1807     210.083547      18.06335
  37     2.292      404.1358        0.2505      613.0278      613.2783     209.142465      15.58678
  36     2.964      404.2041        0.3213      611.9848      612.3061     208.101991      13.06110
  35     3.853      404.3186        0.4141      610.8360      611.2500     206.931427      11.10886
  34     5.035      404.4947        0.5365      609.5742      610.1107     205.616029       9.39666
  33     6.613      404.7426        0.6991      608.1974      608.8965     204.153882       7.81664
  32     8.786      405.0657        0.9172      606.6871      607.6043     202.538657       6.27295
  31     11.80      405.4840        1.2277      604.9239      606.1516     200.667641       5.23826
  30     15.07      405.8821        1.5591      603.3308      604.8898     199.007712       4.28561
  29     18.79      406.2864        1.9319      601.7495      603.6814     197.395026       3.65646
  28     23.16      406.7060        2.3651      600.1034      602.4685     195.762513       3.15675
  27     28.12      407.1245        2.8583      598.4121      601.2704     194.145861       2.74820
  26     33.73      407.5030        3.4080      596.7325      600.1405     192.637533       2.26781
  25     40.54      407.8555        4.0699      594.9242      598.9942     191.138657       1.85953
  24     48.69      408.1791        4.8642      592.9530      597.8172     189.638111       1.55283
  23     57.69      408.4361        5.7325      590.9772      596.7097     188.273579       1.27904
  22     68.43      408.6354        6.7611      588.8167      595.5778     186.942359       1.04652
  21     81.20      408.7244        7.9807      586.4841      594.4648     185.740387       0.79424
  20     96.49      408.6929        9.4247      583.9299      593.3546     184.661753       0.59533
  19     114.6      408.5998       11.1237      581.0319      592.1556     183.555764       0.51642
  18     136.5      408.4439       13.1132      577.7279      590.8410     182.397098       0.44553
  17     162.9      408.2192       15.4481      573.9057      589.3538     181.134568       0.40356
  16     196.4      407.8379       18.4259      569.0548      587.4807     179.642824       0.37549
  15     218.7      407.5572       20.3514      565.6846      586.0360     178.478776       0.44195
  14     243.0      407.2413       22.4168      561.7169      584.1337     176.892347       0.55023
  13     269.0      406.8891       24.6237      556.9496      581.5733     174.684153       0.71633
  12     297.5      406.5017       26.9727      551.2485      578.2211     171.719390       0.87932
  11     328.5      406.0871       29.4702      544.9870      574.4572     168.370077       0.91067
  10     361.9      405.6482       32.1126      538.2362      570.3488     164.700636       0.92840
   9     398.1      405.1881       34.9047      530.8730      565.7777     160.589587       0.95778
   8     437.6      404.7154       37.8454      522.7280      560.5734     155.857975       1.01165
   7     480.5      404.2377       40.9329      513.8706      554.8035     150.565796       1.03936
   6     533.0      403.7026       44.6458      502.9383      547.5842     143.881539       1.07528
   5     589.8      403.2186       48.5419      491.0406      539.5825     136.363891       1.11587
   4     651.6      402.8758       52.6135      477.6423      530.2558     127.379941       1.22858
   3     718.7      402.7865       56.8503      463.1316      519.9819     117.195420       1.27991
   2     792.3      403.1838       61.2336      447.4988      508.7323     105.548488       1.33577
   1     891.5      404.9497       66.9070      426.6749      493.5818      88.632119       1.43950
   0    1013.0      410.0502       73.3721      402.8409      476.2130      66.162813       1.56016



 Wavenumbers:  2600. -  3250. cm-1, ATM      1
 LEVEL PRESSURE   UPWARD FLUX   DIFDOWN FLUX  DIRDOWN FLUX  DOWNWARD FLUX   NET FLUX    HEATING RATE
          mb          W/m2          W/m2          W/m2        W/m2          W/m2       degree/day
  51    .06700        0.0303        0.0000        5.4450        5.4450       5.414737       0.00000
  50    .07753        0.0303        0.0000        5.4450        5.4450       5.414729       0.00640
  49    .09103        0.0303        0.0000        5.4450        5.4450       5.414719       0.00627
  48    0.1069        0.0303        0.0000        5.4450        5.4450       5.414708       0.00613
  47    0.1255        0.0303        0.0000        5.4450        5.4450       5.414695       0.00599
  46    0.1487        0.0303        0.0000        5.4450        5.4450       5.414678       0.00608
  45    0.1794        0.0303        0.0000        5.4450        5.4450       5.414655       0.00625
  44    0.2165        0.0303        0.0000        5.4449        5.4449       5.414628       0.00612
  43    0.2613        0.0303        0.0000        5.4449        5.4449       5.414596       0.00600
  42    0.3336        0.0303        0.0000        5.4448        5.4448       5.414544       0.00617
  41    0.4307        0.0303        0.0000        5.4448        5.4448       5.414472       0.00620
  40    0.5894        0.0303        0.0000        5.4446        5.4446       5.414353       0.00637
  39     1.339        0.0303        0.0000        5.4439        5.4439       5.413645       0.00797
  38     1.782        0.0303        0.0000        5.4434        5.4434       5.413102       0.01034
  37     2.292        0.0303        0.0000        5.4427        5.4427       5.412386       0.01186
  36     2.964        0.0303        0.0000        5.4416        5.4416       5.411347       0.01304
  35     3.853        0.0303        0.0000        5.4402        5.4402       5.409870       0.01402
  34     5.035        0.0303        0.0000        5.4381        5.4381       5.407815       0.01468
  33     6.613        0.0303        0.0000        5.4353        5.4353       5.405034       0.01487
  32     8.786        0.0303        0.0000        5.4317        5.4317       5.401402       0.01411
  31     11.80        0.0303        0.0000        5.4269        5.4269       5.396622       0.01338
  30     15.07        0.0303        0.0000        5.4224        5.4224       5.392096       0.01169
  29     18.79        0.0303        0.0000        5.4180        5.4180       5.387684       0.01000
  28     23.16        0.0303        0.0000        5.4135        5.4135       5.383199       0.00867
  27     28.12        0.0303        0.0000        5.4088        5.4088       5.378552       0.00790
  26     33.73        0.0303        0.0000        5.4036        5.4036       5.373313       0.00788
  25     40.54        0.0303        0.0000        5.3966        5.3967       5.366374       0.00861
  24     48.69        0.0303        0.0000        5.3872        5.3872       5.356901       0.00980
  23     57.69        0.0303        0.0000        5.3754        5.3754       5.345122       0.01104
  22     68.43        0.0303        0.0000        5.3599        5.3599       5.329640       0.01217
  21     81.20        0.0303        0.0000        5.3401        5.3401       5.309816       0.01310
  20     96.49        0.0303        0.0000        5.3155        5.3155       5.285263       0.01355
  19     114.6        0.0303        0.0000        5.2857        5.2857       5.255464       0.01391
  18     136.5        0.0303        0.0000        5.2511        5.2512       5.220911       0.01329
  17     162.9        0.0303        0.0001        5.2122        5.2123       5.182047       0.01242
  16     196.4        0.0302        0.0001        5.1663        5.1663       5.136087       0.01157
  15     218.7        0.0302        0.0001        5.1374        5.1374       5.107189       0.01097
  14     243.0        0.0302        0.0001        5.1047        5.1048       5.074578       0.01131
  13     269.0        0.0303        0.0001        5.0662        5.0662       5.035991       0.01252
  12     297.5        0.0303        0.0001        5.0199        5.0200       4.989758       0.01371
  11     328.5        0.0303        0.0001        4.9669        4.9670       4.936686       0.01443
  10     361.9        0.0303        0.0001        4.9043        4.9044       4.874092       0.01584
   9     398.1        0.0304        0.0001        4.8270        4.8271       4.796783       0.01801
   8     437.6        0.0304        0.0001        4.7291        4.7293       4.698858       0.02094
   7     480.5        0.0305        0.0002        4.6062        4.6064       4.575872       0.02415
   6     533.0        0.0307        0.0002        4.4325        4.4326       4.401980       0.02797
   5     589.8        0.0309        0.0002        4.2204        4.2206       4.189725       0.03151
   4     651.6        0.0312        0.0002        3.9637        3.9639       3.932701       0.03515
   3     718.7        0.0318        0.0002        3.6788        3.6789       3.647180       0.03588
   2     792.3        0.0326        0.0002        3.3749        3.3751       3.342463       0.03495
   1     891.5        0.0345        0.0002        2.9569        2.9571       2.922561       0.03573
   0    1013.0        0.0389        0.0002        2.4799        2.4801       2.441127       0.03343



 Wavenumbers:  3250. -  4000. cm-1, ATM      1
 LEVEL PRESSURE   UPWARD FLUX   DIFDOWN FLUX  DIRDOWN FLUX  DOWNWARD FLUX   NET FLUX    HEATING RATE
          mb          W/m2          W/m2          W/m2        W/m2          W/m2       degree/day
  51    .06700        0.0007        0.0000        9.1795        9.1795       9.178874       0.00000
  50    .07753        0.0007        0.0000        9.1748        9.1748       9.174108       3.82016
  49    .09103        0.0007        0.0000        9.1715        9.1715       9.170805       2.06459
  48    0.1069        0.0007        0.0000        9.1690        9.1690       9.168369       1.29651
  47    0.1255        0.0007        0.0000        9.1669        9.1669       9.166199       0.98374
  46    0.1487        0.0007        0.0000        9.1645        9.1645       9.163864       0.85131
  45    0.1794        0.0007        0.0000        9.1618        9.1618       9.161111       0.75568
  44    0.2165        0.0007        0.0000        9.1590        9.1590       9.158327       0.63327
  43    0.2613        0.0007        0.0000        9.1562        9.1562       9.155506       0.53178
  42    0.3336        0.0007        0.0000        9.1522        9.1522       9.151577       0.45817
  41    0.4307        0.0007        0.0000        9.1478        9.1478       9.147138       0.38590
  40    0.5894        0.0007        0.0000        9.1413        9.1413       9.140651       0.34498
  39     1.339        0.0007        0.0000        9.1163        9.1163       9.115662       0.28133
  38     1.782        0.0007        0.0000        9.1052        9.1052       9.104579       0.21101
  37     2.292        0.0007        0.0000        9.0946        9.0946       9.093933       0.17632
  36     2.964        0.0007        0.0000        9.0826        9.0826       9.081969       0.15019
  35     3.853        0.0007        0.0000        9.0684        9.0684       9.067796       0.13451
  34     5.035        0.0006        0.0000        9.0506        9.0506       9.049956       0.12744
  33     6.613        0.0006        0.0000        9.0269        9.0269       9.026231       0.12683
  32     8.786        0.0006        0.0000        8.9938        8.9938       8.993149       0.12848
  31     11.80        0.0006        0.0000        8.9445        8.9445       8.943894       0.13790
  30     15.07        0.0006        0.0000        8.8898        8.8898       8.889171       0.14128
  29     18.79        0.0006        0.0000        8.8270        8.8270       8.826395       0.14233
  28     23.16        0.0006        0.0000        8.7542        8.7543       8.753627       0.14071
  27     28.12        0.0006        0.0000        8.6743        8.6744       8.673755       0.13578
  26     33.73        0.0006        0.0000        8.5914        8.5915       8.590872       0.12462
  25     40.54        0.0006        0.0001        8.5010        8.5011       8.500477       0.11215
  24     48.69        0.0006        0.0001        8.4044        8.4045       8.403887       0.09996
  23     57.69        0.0006        0.0001        8.3082        8.3082       8.307649       0.09021
  22     68.43        0.0006        0.0001        8.1998        8.1999       8.199287       0.08519
  21     81.20        0.0005        0.0001        8.0739        8.0740       8.073436       0.08316
  20     96.49        0.0005        0.0001        7.9273        7.9274       7.926902       0.08088
  19     114.6        0.0005        0.0001        7.7564        7.7565       7.756023       0.07979
  18     136.5        0.0005        0.0002        7.5680        7.5682       7.567694       0.07242
  17     162.9        0.0005        0.0002        7.3560        7.3561       7.355693       0.06776
  16     196.4        0.0004        0.0002        7.0720        7.0723       7.071847       0.07145
  15     218.7        0.0004        0.0002        6.8105        6.8107       6.810299       0.09930
  14     243.0        0.0004        0.0003        6.4650        6.4653       6.464934       0.11978
  13     269.0        0.0003        0.0003        6.0357        6.0359       6.035576       0.13928
  12     297.5        0.0003        0.0003        5.5371        5.5374       5.537092       0.14784
  11     328.5        0.0003        0.0003        5.0201        5.0204       5.020053       0.14058
  10     361.9        0.0003        0.0003        4.4896        4.4899       4.489579       0.13422
   9     398.1        0.0003        0.0003        3.9638        3.9640       3.963784       0.12250
   8     437.6        0.0002        0.0002        3.4637        3.4640       3.463712       0.10692
   7     480.5        0.0002        0.0002        3.0034        3.0036       3.003364       0.09041
   6     533.0        0.0002        0.0002        2.5173        2.5176       2.517340       0.07819
   5     589.8        0.0002        0.0002        2.0558        2.0560       2.055783       0.06851
   4     651.6        0.0002        0.0002        1.5860        1.5862       1.585960       0.06425
   3     718.7        0.0002        0.0001        1.1330        1.1331       1.132889       0.05694
   2     792.3        0.0003        0.0001        0.7206        0.7207       0.720376       0.04731
   1     891.5        0.0006        0.0001        0.3277        0.3278       0.327239       0.03345
   0    1013.0        0.0020        0.0000        0.0780        0.0780       0.075952       0.01745



 Wavenumbers:  4000. -  4650. cm-1, ATM      1
 LEVEL PRESSURE   UPWARD FLUX   DIFDOWN FLUX  DIRDOWN FLUX  DOWNWARD FLUX   NET FLUX    HEATING RATE
          mb          W/m2          W/m2          W/m2        W/m2          W/m2       degree/day
  51    .06700        1.2850        0.0000       10.7795       10.7795       9.494510       0.00000
  50    .07753        1.2850        0.0000       10.7795       10.7795       9.494509       0.00080
  49    .09103        1.2850        0.0000       10.7795       10.7795       9.494508       0.00079
  48    0.1069        1.2850        0.0000       10.7795       10.7795       9.494506       0.00077
  47    0.1255        1.2850        0.0000       10.7795       10.7795       9.494505       0.00075
  46    0.1487        1.2850        0.0000       10.7795       10.7795       9.494503       0.00076
  45    0.1794        1.2850        0.0000       10.7795       10.7795       9.494500       0.00078
  44    0.2165        1.2850        0.0000       10.7795       10.7795       9.494496       0.00077
  43    0.2613        1.2850        0.0000       10.7795       10.7795       9.494492       0.00075
  42    0.3336        1.2850        0.0000       10.7795       10.7795       9.494486       0.00077
  41    0.4307        1.2850        0.0000       10.7795       10.7795       9.494477       0.00078
  40    0.5894        1.2850        0.0000       10.7795       10.7795       9.494462       0.00080
  39     1.339        1.2850        0.0000       10.7794       10.7794       9.494372       0.00101
  38     1.782        1.2850        0.0000       10.7793       10.7793       9.494301       0.00134
  37     2.292        1.2850        0.0000       10.7792       10.7792       9.494207       0.00157
  36     2.964        1.2850        0.0000       10.7791       10.7791       9.494065       0.00177
  35     3.853        1.2850        0.0000       10.7789       10.7789       9.493856       0.00199
  34     5.035        1.2850        0.0000       10.7785       10.7786       9.493547       0.00221
  33     6.613        1.2850        0.0000       10.7781       10.7781       9.493093       0.00243
  32     8.786        1.2850        0.0000       10.7774       10.7774       9.492422       0.00261
  31     11.80        1.2850        0.0000       10.7763       10.7764       9.491368       0.00295
  30     15.07        1.2850        0.0001       10.7751       10.7751       9.490133       0.00319
  29     18.79        1.2850        0.0001       10.7735       10.7736       9.488639       0.00339
  28     23.16        1.2850        0.0001       10.7717       10.7718       9.486784       0.00359
  27     28.12        1.2850        0.0001       10.7694       10.7695       9.484540       0.00381
  26     33.73        1.2849        0.0001       10.7666       10.7667       9.481774       0.00416
  25     40.54        1.2849        0.0002       10.7628       10.7630       9.478025       0.00465
  24     48.69        1.2849        0.0002       10.7578       10.7579       9.473031       0.00517
  23     57.69        1.2849        0.0002       10.7518       10.7520       9.467114       0.00555
  22     68.43        1.2849        0.0003       10.7443       10.7446       9.459705       0.00582
  21     81.20        1.2849        0.0003       10.7352       10.7355       9.450590       0.00602
  20     96.49        1.2849        0.0004       10.7240       10.7244       9.439512       0.00611
  19     114.6        1.2849        0.0004       10.7104       10.7108       9.425891       0.00636
  18     136.5        1.2849        0.0005       10.6939       10.6944       9.409509       0.00630
  17     162.9        1.2850        0.0006       10.6740       10.6746       9.389585       0.00637
  16     196.4        1.2851        0.0007       10.6470       10.6478       9.362651       0.00678
  15     218.7        1.2853        0.0008       10.6275       10.6283       9.343019       0.00745
  14     243.0        1.2855        0.0009       10.6030       10.6039       9.318384       0.00854
  13     269.0        1.2859        0.0010       10.5711       10.5722       9.286290       0.01041
  12     297.5        1.2864        0.0011       10.5298       10.5310       9.244551       0.01238
  11     328.5        1.2872        0.0012       10.4795       10.4807       9.193561       0.01386
  10     361.9        1.2882        0.0013       10.4176       10.4189       9.130723       0.01590
   9     398.1        1.2895        0.0015       10.3389       10.3403       9.050777       0.01863
   8     437.6        1.2913        0.0016       10.2382       10.2398       8.948479       0.02187
   7     480.5        1.2934        0.0017       10.1143       10.1161       8.822622       0.02472
   6     533.0        1.2966        0.0019        9.9458        9.9477       8.651129       0.02759
   5     589.8        1.3008        0.0020        9.7503        9.7524       8.451567       0.02962
   4     651.6        1.3070        0.0022        9.5167        9.5189       8.211886       0.03278
   3     718.7        1.3161        0.0024        9.2325        9.2349       7.918787       0.03683
   2     792.3        1.3306        0.0025        8.8608        8.8634       7.532784       0.04427
   1     891.5        1.3622        0.0027        8.2859        8.2886       6.926356       0.05160
   0    1013.0        1.4340        0.0028        7.6297        7.6325       6.198454       0.05054



 Wavenumbers:  4650. -  5150. cm-1, ATM      1
 LEVEL PRESSURE   UPWARD FLUX   DIFDOWN FLUX  DIRDOWN FLUX  DOWNWARD FLUX   NET FLUX    HEATING RATE
          mb          W/m2          W/m2          W/m2        W/m2          W/m2       degree/day
  51    .06700        0.3275        0.0000       10.2033       10.2033       9.875861       0.00000
  50    .07753        0.3275        0.0000       10.2031       10.2031       9.875626       0.18815
  49    .09103        0.3275        0.0000       10.2028       10.2028       9.875333       0.18345
  48    0.1069        0.3275        0.0000       10.2025       10.2025       9.874997       0.17850
  47    0.1255        0.3275        0.0000       10.2021       10.2021       9.874615       0.17347
  46    0.1487        0.3275        0.0000       10.2016       10.2016       9.874136       0.17457
  45    0.1794        0.3275        0.0000       10.2010       10.2010       9.873489       0.17770
  44    0.2165        0.3275        0.0000       10.2002       10.2002       9.872733       0.17200
  43    0.2613        0.3275        0.0000       10.1993       10.1993       9.871851       0.16615
  42    0.3336        0.3275        0.0000       10.1979       10.1979       9.870425       0.16627
  41    0.4307        0.3275        0.0000       10.1961       10.1961       9.868593       0.15931
  40    0.5894        0.3275        0.0000       10.1932       10.1932       9.865731       0.15215
  39     1.339        0.3275        0.0000       10.1817       10.1817       9.854190       0.12993
  38     1.782        0.3275        0.0000       10.1761       10.1762       9.848685       0.10481
  37     2.292        0.3275        0.0000       10.1707       10.1707       9.843252       0.08999
  36     2.964        0.3275        0.0000       10.1648       10.1648       9.837354       0.07404
  35     3.853        0.3275        0.0000       10.1586       10.1586       9.831165       0.05873
  34     5.035        0.3275        0.0000       10.1523       10.1523       9.824855       0.04508
  33     6.613        0.3274        0.0000       10.1458       10.1459       9.818422       0.03439
  32     8.786        0.3274        0.0000       10.1388       10.1389       9.811437       0.02713
  31     11.80        0.3274        0.0001       10.1298       10.1298       9.802428       0.02522
  30     15.07        0.3274        0.0001       10.1199       10.1200       9.792585       0.02541
  29     18.79        0.3274        0.0001       10.1079       10.1080       9.780621       0.02713
  28     23.16        0.3274        0.0001       10.0926       10.0927       9.765374       0.02948
  27     28.12        0.3274        0.0002       10.0735       10.0737       9.746353       0.03233
  26     33.73        0.3273        0.0002       10.0505       10.0507       9.723350       0.03459
  25     40.54        0.3273        0.0002       10.0206       10.0209       9.693568       0.03695
  24     48.69        0.3273        0.0003        9.9826        9.9828       9.655557       0.03934
  23     57.69        0.3273        0.0003        9.9391        9.9395       9.612210       0.04063
  22     68.43        0.3272        0.0004        9.8866        9.8869       9.559722       0.04126
  21     81.20        0.3272        0.0004        9.8244        9.8248       9.497641       0.04102
  20     96.49        0.3272        0.0005        9.7529        9.7534       9.426213       0.03942
  19     114.6        0.3271        0.0006        9.6732        9.6738       9.346685       0.03713
  18     136.5        0.3271        0.0007        9.5873        9.5880       9.260901       0.03299
  17     162.9        0.3271        0.0009        9.4959        9.4967       9.169568       0.02919
  16     196.4        0.3272        0.0010        9.3905        9.3915       9.064364       0.02648
  15     218.7        0.3272        0.0011        9.3258        9.3270       8.999730       0.02454
  14     243.0        0.3273        0.0012        9.2565        9.2577       8.930408       0.02404
  13     269.0        0.3274        0.0014        9.1798        9.1811       8.853690       0.02489
  12     297.5        0.3276        0.0015        9.0917        9.0932       8.765566       0.02614
  11     328.5        0.3279        0.0016        8.9898        8.9915       8.663555       0.02774
  10     361.9        0.3283        0.0018        8.8712        8.8730       8.544628       0.03009
   9     398.1        0.3289        0.0019        8.7344        8.7363       8.407433       0.03196
   8     437.6        0.3296        0.0021        8.5749        8.5770       8.247357       0.03423
   7     480.5        0.3306        0.0022        8.3918        8.3940       8.063418       0.03612
   6     533.0        0.3321        0.0024        8.1512        8.1536       7.821484       0.03892
   5     589.8        0.3343        0.0026        7.8748        7.8774       7.543112       0.04132
   4     651.6        0.3373        0.0027        7.5530        7.5558       7.218436       0.04440
   3     718.7        0.3418        0.0029        7.1936        7.1965       6.854703       0.04571
   2     792.3        0.3484        0.0030        6.8020        6.8050       6.456561       0.04566
   1     891.5        0.3618        0.0032        6.2832        6.2864       5.924587       0.04527
   0    1013.0        0.3879        0.0033        5.7025        5.7057       5.317804       0.04213



 Wavenumbers:  5150. -  6150. cm-1, ATM      1
 LEVEL PRESSURE   UPWARD FLUX   DIFDOWN FLUX  DIRDOWN FLUX  DOWNWARD FLUX   NET FLUX    HEATING RATE
          mb          W/m2          W/m2          W/m2        W/m2          W/m2       degree/day
  51    .06700        2.6921        0.0000       25.5798       25.5798      22.887726       0.00000
  50    .07753        2.6921        0.0000       25.5798       25.5798      22.887703       0.01853
  49    .09103        2.6921        0.0000       25.5798       25.5798      22.887673       0.01881
  48    0.1069        2.6921        0.0000       25.5797       25.5797      22.887637       0.01911
  47    0.1255        2.6921        0.0000       25.5797       25.5797      22.887594       0.01940
  46    0.1487        2.6921        0.0000       25.5796       25.5796      22.887538       0.02044
  45    0.1794        2.6921        0.0000       25.5795       25.5796      22.887459       0.02176
  44    0.2165        2.6921        0.0000       25.5794       25.5795      22.887362       0.02209
  43    0.2613        2.6921        0.0000       25.5793       25.5793      22.887243       0.02244
  42    0.3336        2.6921        0.0000       25.5791       25.5791      22.887039       0.02371
  41    0.4307        2.6921        0.0000       25.5788       25.5788      22.886763       0.02405
  40    0.5894        2.6921        0.0000       25.5784       25.5784      22.886299       0.02466
  39     1.339        2.6921        0.0000       25.5761       25.5761      22.884055       0.02526
  38     1.782        2.6921        0.0000       25.5748       25.5748      22.882742       0.02501
  37     2.292        2.6920        0.0001       25.5732       25.5733      22.881248       0.02473
  36     2.964        2.6920        0.0001       25.5713       25.5714      22.879341       0.02394
  35     3.853        2.6920        0.0001       25.5688       25.5689      22.876901       0.02316
  34     5.035        2.6920        0.0001       25.5656       25.5657      22.873733       0.02263
  33     6.613        2.6920        0.0002       25.5614       25.5616      22.869580       0.02220
  32     8.786        2.6919        0.0002       25.5558       25.5561      22.864126       0.02118
  31     11.80        2.6919        0.0003       25.5482       25.5485      22.856615       0.02103
  30     15.07        2.6918        0.0004       25.5404       25.5408      22.848924       0.01986
  29     18.79        2.6918        0.0005       25.5320       25.5325      22.840708       0.01863
  28     23.16        2.6917        0.0006       25.5227       25.5234      22.831644       0.01753
  27     28.12        2.6916        0.0007       25.5128       25.5135      22.821866       0.01662
  26     33.73        2.6916        0.0009       25.5023       25.5032      22.811672       0.01533
  25     40.54        2.6915        0.0011       25.4906       25.4917      22.800240       0.01418
  24     48.69        2.6914        0.0013       25.4777       25.4790      22.787654       0.01302
  23     57.69        2.6913        0.0015       25.4646       25.4661      22.774816       0.01203
  22     68.43        2.6912        0.0018       25.4499       25.4517      22.760525       0.01123
  21     81.20        2.6911        0.0021       25.4334       25.4355      22.744441       0.01063
  20     96.49        2.6910        0.0025       25.4144       25.4169      22.725947       0.01021
  19     114.6        2.6908        0.0030       25.3922       25.3952      22.704392       0.01006
  18     136.5        2.6907        0.0036       25.3660       25.3696      22.678961       0.00978
  17     162.9        2.6905        0.0043       25.3274       25.3316      22.641150       0.01209
  16     196.4        2.6903        0.0051       25.2473       25.2524      22.562127       0.01989
  15     218.7        2.6902        0.0057       25.1341       25.1398      22.449605       0.04272
  14     243.0        2.6901        0.0063       24.9199       24.9262      22.236139       0.07404
  13     269.0        2.6900        0.0069       24.5246       24.5315      21.841473       0.12803
  12     297.5        2.6900        0.0074       23.9374       23.9449      21.254826       0.17399
  11     328.5        2.6902        0.0080       23.3177       23.3257      20.635526       0.16839
  10     361.9        2.6904        0.0086       22.6662       22.6748      19.984419       0.16474
   9     398.1        2.6908        0.0092       21.9107       21.9199      19.229070       0.17598
   8     437.6        2.6915        0.0097       21.0268       21.0366      18.345029       0.18901
   7     480.5        2.6926        0.0102       20.0762       20.0865      17.393909       0.18680
   6     533.0        2.6945        0.0108       18.9471       18.9578      16.263388       0.18186
   5     589.8        2.6976        0.0113       17.7919       17.8031      15.105525       0.17186
   4     651.6        2.7034        0.0117       16.6210       16.6327      13.929304       0.16085
   3     718.7        2.7137        0.0122       15.5909       15.6031      12.889423       0.13068
   2     792.3        2.7327        0.0127       14.7325       14.7452      12.012556       0.10057
   1     891.5        2.7809        0.0135       13.8396       13.8531      11.072279       0.08001
   0    1013.0        2.9072        0.0144       12.8693       12.8838       9.976594       0.07608



 Wavenumbers:  6150. -  7700. cm-1, ATM      1
 LEVEL PRESSURE   UPWARD FLUX   DIFDOWN FLUX  DIRDOWN FLUX  DOWNWARD FLUX   NET FLUX    HEATING RATE
          mb          W/m2          W/m2          W/m2        W/m2          W/m2       degree/day
  51    .06700        4.3923        0.0000       47.3109       47.3109      42.918565       0.00000
  50    .07753        4.3923        0.0000       47.3108       47.3108      42.918525       0.03202
  49    .09103        4.3923        0.0000       47.3108       47.3108      42.918473       0.03209
  48    0.1069        4.3923        0.0000       47.3107       47.3107      42.918413       0.03216
  47    0.1255        4.3923        0.0000       47.3106       47.3106      42.918342       0.03223
  46    0.1487        4.3923        0.0000       47.3105       47.3105      42.918250       0.03352
  45    0.1794        4.3923        0.0000       47.3104       47.3104      42.918121       0.03527
  44    0.2165        4.3923        0.0000       47.3102       47.3102      42.917966       0.03541
  43    0.2613        4.3923        0.0000       47.3100       47.3101      42.917777       0.03557
  42    0.3336        4.3923        0.0000       47.3097       47.3097      42.917458       0.03721
  41    0.4307        4.3923        0.0000       47.3092       47.3093      42.917027       0.03745
  40    0.5894        4.3922        0.0001       47.3085       47.3086      42.916310       0.03812
  39     1.339        4.3922        0.0001       47.3049       47.3050      42.912869       0.03874
  38     1.782        4.3921        0.0002       47.3028       47.3030      42.910857       0.03830
  37     2.292        4.3921        0.0002       47.3004       47.3006      42.908562       0.03801
  36     2.964        4.3920        0.0003       47.2973       47.2976      42.905612       0.03703
  35     3.853        4.3919        0.0004       47.2933       47.2937      42.901810       0.03609
  34     5.035        4.3918        0.0006       47.2881       47.2887      42.896849       0.03543
  33     6.613        4.3917        0.0007       47.2812       47.2820      42.890327       0.03487
  32     8.786        4.3914        0.0010       47.2722       47.2732      42.881719       0.03343
  31     11.80        4.3911        0.0013       47.2596       47.2609      42.869765       0.03347
  30     15.07        4.3908        0.0017       47.2465       47.2482      42.857391       0.03195
  29     18.79        4.3905        0.0021       47.2324       47.2344      42.843984       0.03040
  28     23.16        4.3900        0.0026       47.2164       47.2190      42.828984       0.02901
  27     28.12        4.3896        0.0031       47.1990       47.2021      42.812567       0.02791
  26     33.73        4.3890        0.0037       47.1804       47.1842      42.795171       0.02616
  25     40.54        4.3884        0.0045       47.1592       47.1637      42.775365       0.02457
  24     48.69        4.3876        0.0054       47.1353       47.1407      42.753135       0.02300
  23     57.69        4.3867        0.0064       47.1105       47.1169      42.730165       0.02153
  22     68.43        4.3857        0.0076       47.0824       47.0900      42.704320       0.02032
  21     81.20        4.3844        0.0090       47.0504       47.0594      42.675033       0.01935
  20     96.49        4.3829        0.0107       47.0136       47.0243      42.641372       0.01858
  19     114.6        4.3812        0.0127       46.9708       46.9835      42.602292       0.01825
  18     136.5        4.3791        0.0151       46.9205       46.9356      42.556498       0.01761
  17     162.9        4.3766        0.0179       46.8509       46.8688      42.492246       0.02054
  16     196.4        4.3734        0.0216       46.7177       46.7392      42.365840       0.03182
  15     218.7        4.3713        0.0239       46.5396       46.5635      42.192138       0.06595
  14     243.0        4.3691        0.0264       46.2225       46.2489      41.879747       0.10835
  13     269.0        4.3669        0.0290       45.6900       45.7189      41.352039       0.17119
  12     297.5        4.3647        0.0315       44.8342       44.8658      40.501072       0.25239
  11     328.5        4.3625        0.0341       43.7793       43.8133      39.450808       0.28556
  10     361.9        4.3606        0.0366       42.6186       42.6552      38.294662       0.29252
   9     398.1        4.3589        0.0392       41.3465       41.3857      37.026763       0.29539
   8     437.6        4.3579        0.0417       39.8705       39.9122      35.554315       0.31482
   7     480.5        4.3578        0.0440       38.1939       38.2379      33.880135       0.32880
   6     533.0        4.3595        0.0463       36.1027       36.1491      31.789575       0.33630
   5     589.8        4.3647        0.0484       33.8536       33.9020      29.537313       0.33431
   4     651.6        4.3773        0.0499       31.3563       31.4062      27.028866       0.34304
   3     718.7        4.4026        0.0510       28.8477       28.8987      24.496176       0.31829
   2     792.3        4.4517        0.0518       26.3809       26.4327      21.981041       0.28846
   1     891.5        4.5785        0.0525       23.5040       23.5565      18.977937       0.25555
   0    1013.0        4.9124        0.0534       20.7619       20.8153      15.902891       0.21352



 Wavenumbers:  7700. -  8050. cm-1, ATM      1
 LEVEL PRESSURE   UPWARD FLUX   DIFDOWN FLUX  DIRDOWN FLUX  DOWNWARD FLUX   NET FLUX    HEATING RATE
          mb          W/m2          W/m2          W/m2        W/m2          W/m2       degree/day
  51    .06700        5.6715        0.0000       11.1810       11.1810       5.509485       0.00000
  50    .07753        5.6715        0.0000       11.1809       11.1809       5.509464       0.01728
  49    .09103        5.6715        0.0000       11.1809       11.1809       5.509437       0.01694
  48    0.1069        5.6715        0.0000       11.1809       11.1809       5.509406       0.01658
  47    0.1255        5.6715        0.0000       11.1809       11.1809       5.509370       0.01623
  46    0.1487        5.6715        0.0000       11.1808       11.1808       5.509325       0.01646
  45    0.1794        5.6715        0.0000       11.1808       11.1808       5.509263       0.01694
  44    0.2165        5.6715        0.0000       11.1807       11.1807       5.509190       0.01662
  43    0.2613        5.6715        0.0000       11.1806       11.1806       5.509103       0.01631
  42    0.3336        5.6716        0.0000       11.1805       11.1805       5.508960       0.01669
  41    0.4307        5.6716        0.0000       11.1803       11.1804       5.508770       0.01650
  40    0.5894        5.6716        0.0000       11.1801       11.1801       5.508460       0.01649
  39     1.339        5.6719        0.0001       11.1788       11.1789       5.506994       0.01651
  38     1.782        5.6720        0.0001       11.1781       11.1782       5.506132       0.01640
  37     2.292        5.6722        0.0001       11.1772       11.1773       5.505135       0.01652
  36     2.964        5.6724        0.0002       11.1761       11.1762       5.503826       0.01644
  35     3.853        5.6727        0.0002       11.1746       11.1748       5.502096       0.01641
  34     5.035        5.6731        0.0003       11.1726       11.1729       5.499798       0.01641
  33     6.613        5.6736        0.0004       11.1700       11.1703       5.496730       0.01640
  32     8.786        5.6743        0.0005       11.1664       11.1669       5.492596       0.01605
  31     11.80        5.6753        0.0006       11.1613       11.1619       5.486687       0.01654
  30     15.07        5.6763        0.0008       11.1558       11.1567       5.480347       0.01637
  29     18.79        5.6775        0.0010       11.1497       11.1507       5.473194       0.01622
  28     23.16        5.6789        0.0013       11.1425       11.1438       5.464849       0.01614
  27     28.12        5.6805        0.0015       11.1343       11.1358       5.455322       0.01620
  26     33.73        5.6823        0.0018       11.1252       11.1270       5.444682       0.01600
  25     40.54        5.6845        0.0022       11.1142       11.1164       5.431857       0.01591
  24     48.69        5.6872        0.0026       11.1010       11.1036       5.416443       0.01595
  23     57.69        5.6901        0.0031       11.0866       11.0897       5.399570       0.01582
  22     68.43        5.6937        0.0037       11.0695       11.0732       5.379557       0.01573
  21     81.20        5.6979        0.0044       11.0493       11.0537       5.355833       0.01568
  20     96.49        5.7030        0.0052       11.0255       11.0307       5.327730       0.01551
  19     114.6        5.7091        0.0062       10.9975       11.0037       5.294597       0.01547
  18     136.5        5.7164        0.0073       10.9647       10.9721       5.255643       0.01498
  17     162.9        5.7253        0.0087       10.9262       10.9349       5.209684       0.01469
  16     196.4        5.7369        0.0105       10.8772       10.8877       5.150738       0.01484
  15     218.7        5.7447        0.0116       10.8455       10.8571       5.112382       0.01456
  14     243.0        5.7533        0.0129       10.8114       10.8243       5.070963       0.01437
  13     269.0        5.7628        0.0143       10.7749       10.7892       5.026340       0.01448
  12     297.5        5.7733        0.0157       10.7359       10.7516       4.978332       0.01424
  11     328.5        5.7848        0.0173       10.6942       10.7115       4.926651       0.01405
  10     361.9        5.7976        0.0190       10.6497       10.6687       4.871129       0.01405
   9     398.1        5.8117        0.0209       10.6022       10.6231       4.811369       0.01392
   8     437.6        5.8274        0.0228       10.5515       10.5743       4.746929       0.01378
   7     480.5        5.8449        0.0250       10.4972       10.5222       4.677312       0.01367
   6     533.0        5.8676        0.0275       10.4303       10.4578       4.590276       0.01400
   5     589.8        5.8936        0.0303       10.3574       10.3878       4.494201       0.01426
   4     651.6        5.9240        0.0333       10.2767       10.3101       4.386043       0.01479
   3     718.7        5.9603        0.0365       10.1863       10.2228       4.262568       0.01552
   2     792.3        6.0044        0.0399       10.0829       10.1228       4.118334       0.01654
   1     891.5        6.0752        0.0444        9.9298        9.9742       3.899044       0.01866
   0    1013.0        6.1805        0.0497        9.7243        9.7740       3.593550       0.02121



 Wavenumbers:  8050. - 12850. cm-1, ATM      1
 LEVEL PRESSURE   UPWARD FLUX   DIFDOWN FLUX  DIRDOWN FLUX  DOWNWARD FLUX   NET FLUX    HEATING RATE
          mb          W/m2          W/m2          W/m2        W/m2          W/m2       degree/day
  51    .06700       99.5792        0.0000      156.5418      156.5418      56.962512       0.00000
  50    .07753       99.5792        0.0000      156.5417      156.5417      56.962512      -0.00000
  49    .09103       99.5792        0.0001      156.5417      156.5417      56.962512       0.00000
  48    0.1069       99.5792        0.0001      156.5416      156.5417      56.962512      -0.00000
  47    0.1255       99.5792        0.0002      156.5415      156.5417      56.962512      -0.00000
  46    0.1487       99.5792        0.0002      156.5414      156.5417      56.962512       0.00000
  45    0.1794       99.5791        0.0003      156.5413      156.5416      56.962512      -0.00000
  44    0.2165       99.5791        0.0004      156.5412      156.5416      56.962512       0.00000
  43    0.2613       99.5790        0.0006      156.5410      156.5415      56.962512       0.00000
  42    0.3336       99.5790        0.0008      156.5407      156.5415      56.962512      -0.00000
  41    0.4307       99.5789        0.0011      156.5403      156.5414      56.962512       0.00000
  40    0.5894       99.5787        0.0015      156.5397      156.5412      56.962512      -0.00000
  39     1.339       99.5779        0.0037      156.5367      156.5404      56.962512      -0.00000
  38     1.782       99.5774        0.0049      156.5350      156.5399      56.962512       0.00000
  37     2.292       99.5769        0.0064      156.5330      156.5394      56.962512      -0.00000
  36     2.964       99.5762        0.0083      156.5303      156.5387      56.962512       0.00000
  35     3.853       99.5752        0.0109      156.5268      156.5377      56.962512       0.00000
  34     5.035       99.5740        0.0143      156.5222      156.5365      56.962512       0.00000
  33     6.613       99.5723        0.0188      156.5160      156.5348      56.962512      -0.00000
  32     8.786       99.5701        0.0249      156.5076      156.5326      56.962512       0.00000
  31     11.80       99.5669        0.0337      156.4957      156.5294      56.962512       0.00000
  30     15.07       99.5634        0.0431      156.4828      156.5259      56.962512       0.00000
  29     18.79       99.5595        0.0538      156.4682      156.5220      56.962512      -0.00000
  28     23.16       99.5549        0.0662      156.4512      156.5174      56.962512       0.00000
  27     28.12       99.5497        0.0805      156.4317      156.5122      56.962512      -0.00000
  26     33.73       99.5438        0.0964      156.4099      156.5063      56.962512       0.00000
  25     40.54       99.5367        0.1158      156.3834      156.4992      56.962512      -0.00000
  24     48.69       99.5281        0.1391      156.3515      156.4906      56.962512       0.00000
  23     57.69       99.5187        0.1648      156.3164      156.4812      56.962512      -0.00000
  22     68.43       99.5074        0.1954      156.2746      156.4699      56.962512       0.00000
  21     81.20       99.4940        0.2319      156.2246      156.4565      56.962512      -0.00000
  20     96.49       99.4779        0.2755      156.1649      156.4404      56.962512       0.00000
  19     114.6       99.4590        0.3274      156.0904      156.4178      56.958859       0.00171
  18     136.5       99.4364        0.3890      156.0018      156.3907      56.954319       0.00175
  17     162.9       99.4095        0.4625      155.8938      156.3563      56.946770       0.00241
  16     196.4       99.3747        0.5582      155.7438      156.3020      56.927326       0.00489
  15     218.7       99.3519        0.6211      155.6214      156.2425      56.890621       0.01394
  14     243.0       99.3275        0.6895      155.4398      156.1294      56.801840       0.03079
  13     269.0       99.3022        0.7637      155.1548      155.9185      56.616251       0.06020
  12     297.5       99.2770        0.8437      154.7300      155.5736      56.296663       0.09479
  11     328.5       99.2524        0.9300      154.2015      155.1315      55.879140       0.11352
  10     361.9       99.2299        1.0229      153.5745      154.5974      55.367439       0.12947
   9     398.1       99.2118        1.1225      152.8167      153.9393      54.727427       0.14911
   8     437.6       99.2023        1.2290      151.8632      153.0922      53.889878       0.17907
   7     480.5       99.2061        1.3423      150.6698      152.0121      52.805965       0.21288
   6     533.0       99.2373        1.4801      148.9591      150.4393      51.201997       0.25803
   5     589.8       99.3191        1.6259      146.7616      148.3876      49.068504       0.31668
   4     651.6       99.5075        1.7773      143.7775      145.5548      46.047261       0.41316
   3     718.7       99.8745        1.9332      140.0174      141.9506      42.076143       0.49906
   2     792.3      100.5763        2.0903      135.4232      137.5135      36.937208       0.58938
   1     891.5      102.3382        2.2859      128.6605      130.9464      28.608127       0.70876
   0    1013.0      106.5541        2.4998      120.4508      122.9506      16.396469       0.84792



 Wavenumbers: 12850. - 16000. cm-1, ATM      1
 LEVEL PRESSURE   UPWARD FLUX   DIFDOWN FLUX  DIRDOWN FLUX  DOWNWARD FLUX   NET FLUX    HEATING RATE
          mb          W/m2          W/m2          W/m2        W/m2          W/m2       degree/day
  51    .06700       81.5645        0.0000       98.0872       98.0872      16.522712       0.00000
  50    .07753       81.5645        0.0001       98.0864       98.0864      16.521919       0.63539
  49    .09103       81.5645        0.0002       98.0853       98.0855      16.520923       0.62244
  48    0.1069       81.5645        0.0003       98.0841       98.0843      16.519779       0.60925
  47    0.1255       81.5646        0.0004       98.0826       98.0830      16.518463       0.59638
  46    0.1487       81.5646        0.0005       98.0809       98.0814      16.516802       0.60542
  45    0.1794       81.5646        0.0007       98.0784       98.0792      16.514542       0.62054
  44    0.2165       81.5647        0.0010       98.0756       98.0766      16.511882       0.60517
  43    0.2613       81.5649        0.0013       98.0723       98.0736      16.508751       0.59006
  42    0.3336       81.5651        0.0017       98.0670       98.0688      16.503639       0.59611
  41    0.4307       81.5655        0.0024       98.0602       98.0626      16.497021       0.57536
  40    0.5894       81.5664        0.0034       98.0496       98.0530      16.486581       0.55519
  39     1.339       81.5735        0.0083       98.0043       98.0126      16.439068       0.53491
  38     1.782       81.5800        0.0111       97.9793       97.9904      16.410410       0.54560
  37     2.292       81.5896        0.0144       97.9498       97.9642      16.374625       0.59269
  36     2.964       81.6054        0.0188       97.9088       97.9276      16.322181       0.65833
  35     3.853       81.6309        0.0245       97.8503       97.8748      16.243978       0.74216
  34     5.035       81.6692        0.0321       97.7680       97.8001      16.130937       0.80752
  33     6.613       81.7226        0.0423       97.6562       97.6985      15.975843       0.82913
  32     8.786       81.7922        0.0560       97.5107       97.5666      15.774388       0.78238
  31     11.80       81.8830        0.0755       97.3179       97.3934      15.510408       0.73906
  30     15.07       81.9700        0.0965       97.1283       97.2248      15.254800       0.65993
  29     18.79       82.0590        0.1202       96.9300       97.0502      14.991141       0.59780
  28     23.16       82.1523        0.1478       96.7166       96.8644      14.712071       0.53963
  27     28.12       82.2464        0.1794       96.4935       96.6729      14.426476       0.48549
  26     33.73       82.3337        0.2147       96.2731       96.4878      14.154064       0.40958
  25     40.54       82.4185        0.2574       96.0408       96.2982      13.879685       0.34040
  24     48.69       82.5005        0.3089       95.7946       96.1035      13.602964       0.28636
  23     57.69       82.5710        0.3655       95.5573       95.9228      13.351716       0.23551
  22     68.43       82.6339        0.4329       95.3106       95.7435      13.109657       0.19029
  21     81.20       82.6796        0.5133       95.0644       95.5777      12.898039       0.13983
  20     96.49       82.7073        0.6093       94.8153       95.4246      12.717241       0.09979
  19     114.6       82.7392        0.7244       94.5411       95.2655      12.526292       0.08916
  18     136.5       82.7652        0.8608       94.2321       95.0929      12.327712       0.07636
  17     162.9       82.7854        1.0233       93.8756       94.8989      12.113469       0.06848
  16     196.4       82.7887        1.2340       93.4351       94.6691      11.880380       0.05867
  15     218.7       82.7827        1.3724       93.1522       94.5246      11.741901       0.05258
  14     243.0       82.7726        1.5228       92.8459       94.3687      11.596141       0.05055
  13     269.0       82.7581        1.6858       92.5155       94.2013      11.443192       0.04962
  12     297.5       82.7397        1.8619       92.1588       94.0207      11.281056       0.04809
  11     328.5       82.7191        2.0523       91.7723       93.8246      11.105442       0.04775
  10     361.9       82.6972        2.2572       91.3544       93.6116      10.914429       0.04833
   9     398.1       82.6746        2.4778       90.9021       93.3799      10.705319       0.04872
   8     437.6       82.6535        2.7146       90.4104       93.1250      10.471466       0.05000
   7     480.5       82.6357        2.9684       89.8751       92.8435      10.207853       0.05177
   6     533.0       82.6236        3.2808       89.1992       92.4800       9.856435       0.05653
   5     589.8       82.6292        3.6167       88.4410       92.0577       9.428475       0.06352
   4     651.6       82.6733        3.9767       87.5625       91.5393       8.865958       0.07693
   3     718.7       82.7804        4.3609       86.5361       90.8969       8.116486       0.09419
   2     792.3       82.9936        4.7665       85.3246       90.0911       7.097523       0.11686
   1     891.5       83.5000        5.3010       83.5124       88.8134       5.313413       0.15182
   0    1013.0       84.5406        5.9216       81.1577       87.0793       2.538677       0.19266



 Wavenumbers: 16000. - 22650. cm-1, ATM      1
 LEVEL PRESSURE   UPWARD FLUX   DIFDOWN FLUX  DIRDOWN FLUX  DOWNWARD FLUX   NET FLUX    HEATING RATE
          mb          W/m2          W/m2          W/m2        W/m2          W/m2       degree/day
  51    .06700      141.0448        0.0000      156.3892      156.3892      15.344446       0.00000
  50    .07753      141.0448        0.0004      156.3887      156.3891      15.344298       0.11845
  49    .09103      141.0448        0.0009      156.3879      156.3888      15.344083       0.13435
  48    0.1069      141.0448        0.0015      156.3871      156.3885      15.343795       0.15320
  47    0.1255      141.0448        0.0021      156.3861      156.3882      15.343410       0.17463
  46    0.1487      141.0448        0.0030      156.3847      156.3877      15.342843       0.20693
  45    0.1794      141.0450        0.0041      156.3828      156.3869      15.341955       0.24365
  44    0.2165      141.0452        0.0054      156.3805      156.3859      15.340751       0.27383
  43    0.2613      141.0455        0.0070      156.3776      156.3846      15.339118       0.30785
  42    0.3336      141.0463        0.0097      156.3726      156.3823      15.336013       0.36203
  41    0.4307      141.0475        0.0131      156.3657      156.3789      15.331332       0.40696
  40    0.5894      141.0501        0.0188      156.3537      156.3725      15.322406       0.47470
  39     1.339      141.0728        0.0458      156.2834      156.3293      15.256456       0.74248
  38     1.782      141.0938        0.0617      156.2324      156.2940      15.200274       1.06961
  37     2.292      141.1252        0.0800      156.1641      156.2441      15.118950       1.34693
  36     2.964      141.1774        0.1041      156.0605      156.1646      14.987204       1.65380
  35     3.853      141.2618        0.1359      155.9041      156.0399      14.778156       1.98391
  34     5.035      141.3891        0.1780      155.6774      155.8554      14.466271       2.22797
  33     6.613      141.5671        0.2343      155.3656      155.5999      14.032841       2.31712
  32     8.786      141.7988        0.3100      154.9577      155.2677      13.468847       2.19035
  31     11.80      142.1005        0.4182      154.4153      154.8335      12.732976       2.06021
  30     15.07      142.3895        0.5342      153.8804      154.4146      12.025088       1.82763
  29     18.79      142.6845        0.6650      153.3191      153.9841      11.299563       1.64499
  28     23.16      142.9929        0.8176      152.7126      153.5301      10.537218       1.47413
  27     28.12      143.3032        0.9918      152.0755      153.0672       9.764067       1.31430
  26     33.73      143.5896        1.1865      151.4409      152.6274       9.037841       1.09190
  25     40.54      143.8652        1.4216      150.7637      152.1853       8.320063       0.89048
  24     48.69      144.1291        1.7047      150.0338      151.7386       7.609448       0.73538
  23     57.69      144.3529        2.0154      149.3151      151.3305       6.977635       0.59223
  22     68.43      144.5480        2.3849      148.5476      150.9325       6.384525       0.46626
  21     81.20      144.6827        2.8249      147.7517      150.5766       5.893882       0.32421
  20     96.49      144.7525        3.3487      146.9127      150.2614       5.508848       0.21251
  19     114.6      144.7886        3.9689      145.9763      149.9452       5.156536       0.16450
  18     136.5      144.7999        4.7011      144.9088      149.6099       4.809955       0.13327
  17     162.9      144.7848        5.5690      143.6786      149.2476       4.462789       0.11097
  16     196.4      144.7033        6.6888      142.1651      148.8539       4.150585       0.07859
  15     218.7      144.6272        7.4206      141.2035      148.6241       3.996854       0.05837
  14     243.0      144.5341        8.2126      140.1757      148.3883       3.854226       0.04947
  13     269.0      144.4222        9.0671      139.0804      148.1475       3.725270       0.04183
  12     297.5      144.2910        9.9859      137.9156      147.9015       3.610597       0.03401
  11     328.5      144.1443       10.9736      136.6704      147.6440       3.499651       0.03017
  10     361.9      143.9819       12.0309      135.3438      147.3747       3.392793       0.02704
   9     398.1      143.8032       13.1619      133.9309      147.0927       3.289499       0.02407
   8     437.6      143.6089       14.3685      132.4276      146.7961       3.187202       0.02187
   7     480.5      143.3985       15.6530      130.8317      146.4847       3.086189       0.01984
   6     533.0      143.1383       17.2217      128.8861      146.1078       2.969465       0.01878
   5     589.8      142.8598       18.8978      126.8076      145.7054       2.845560       0.01839
   4     651.6      142.5672       20.6826      124.5888      145.2714       2.704211       0.01933
   3     718.7      142.2641       22.5780      122.2225      144.8005       2.536375       0.02109
   2     792.3      141.9611       24.5820      119.6995      144.2815       2.320409       0.02477
   1     891.5      141.6031       27.2433      116.2999      143.5432       1.940039       0.03237
   0    1013.0      141.2552       30.3719      112.2357      142.6076       1.352399       0.04080



 Wavenumbers: 22650. - 29000. cm-1, ATM      1
 LEVEL PRESSURE   UPWARD FLUX   DIFDOWN FLUX  DIRDOWN FLUX  DOWNWARD FLUX   NET FLUX    HEATING RATE
          mb          W/m2          W/m2          W/m2        W/m2          W/m2       degree/day
  51    .06700       58.6820        0.0000       59.0156       59.0156       0.333639       0.00000
  50    .07753       58.6819        0.0005       59.0151       59.0155       0.333639      -0.00000
  49    .09103       58.6818        0.0010       59.0144       59.0154       0.333639      -0.00000
  48    0.1069       58.6816        0.0017       59.0136       59.0153       0.333639       0.00000
  47    0.1255       58.6815        0.0025       59.0127       59.0151       0.333639      -0.00000
  46    0.1487       58.6813        0.0035       59.0115       59.0149       0.333639       0.00000
  45    0.1794       58.6811        0.0048       59.0099       59.0147       0.333639       0.00000
  44    0.2165       58.6807        0.0063       59.0080       59.0144       0.333639       0.00000
  43    0.2613       58.6804        0.0082       59.0058       59.0140       0.333639      -0.00000
  42    0.3336       58.6798        0.0113       59.0022       59.0134       0.333639       0.00000
  41    0.4307       58.6790        0.0154       58.9973       59.0127       0.333639       0.00000
  40    0.5894       58.6777        0.0220       58.9894       59.0114       0.333639       0.00000
  39     1.339       58.6717        0.0535       58.9518       59.0053       0.333639       0.00000
  38     1.782       58.6681        0.0720       58.9297       59.0017       0.333639       0.00000
  37     2.292       58.6640        0.0934       58.9042       58.9976       0.333639      -0.00000
  36     2.964       58.6586        0.1216       58.8706       58.9922       0.333639       0.00000
  35     3.853       58.6514        0.1587       58.8264       58.9851       0.333639      -0.00000
  34     5.035       58.6419        0.2080       58.7676       58.9756       0.333639       0.00000
  33     6.613       58.6293        0.2738       58.6891       58.9629       0.333639       0.00000
  32     8.786       58.6122        0.3624       58.5834       58.9458       0.333639       0.00000
  31     11.80       58.5878        0.4890       58.4324       58.9215       0.333639      -0.00000
  30     15.07       58.5617        0.6247       58.2706       58.8953       0.333639       0.00000
  29     18.79       58.5322        0.7776       58.0882       58.8659       0.333639      -0.00000
  28     23.16       58.4979        0.9559       57.8757       58.8316       0.333639      -0.00000
  27     28.12       58.4588        1.1591       57.6333       58.7924       0.333639       0.00000
  26     33.73       58.4151        1.3857       57.3631       58.7488       0.333639       0.00000
  25     40.54       58.3626        1.6584       57.0379       58.6963       0.333639      -0.00000
  24     48.69       58.2996        1.9854       56.6479       58.6333       0.333639       0.00000
  23     57.69       58.2309        2.3424       56.2221       58.5645       0.333639       0.00000
  22     68.43       58.1495        2.7646       55.7186       58.4832       0.333639      -0.00000
  21     81.20       58.0534        3.2632       55.1239       58.3871       0.333639       0.00000
  20     96.49       57.9401        3.8510       54.4228       58.2738       0.333639       0.00000
  19     114.6       57.8073        4.5400       53.6010       58.1410       0.333639       0.00000
  18     136.5       57.6522        5.3441       52.6418       57.9859       0.333639       0.00000
  17     162.9       57.4709        6.2842       51.5204       57.8045       0.333639      -0.00000
  16     196.4       57.2410        7.4752       50.0995       57.5747       0.333639       0.00000
  15     218.7       57.0933        8.2406       49.1863       57.4269       0.333639       0.00000
  14     243.0       56.9354        9.0577       48.2113       57.2691       0.333639      -0.00000
  13     269.0       56.7676        9.9262       47.1750       57.1013       0.333639       0.00000
  12     297.5       56.5900       10.8451       46.0785       56.9236       0.333639       0.00000
  11     328.5       56.4022       11.8159       44.9199       56.7359       0.333639       0.00000
  10     361.9       56.2048       12.8360       43.7025       56.5385       0.333639       0.00000
   9     398.1       55.9978       13.9054       42.4260       56.3314       0.333639       0.00000
   8     437.6       55.7814       15.0219       41.0931       56.1150       0.333639       0.00000
   7     480.5       55.5562       16.1832       39.7067       55.8899       0.333639       0.00000
   6     533.0       55.2881       17.5645       38.0573       55.6218       0.333639      -0.00000
   5     589.8       55.0102       18.9948       36.3490       55.3439       0.333639      -0.00000
   4     651.6       54.7233       20.4699       34.5870       55.0569       0.333639       0.00000
   3     718.7       54.4288       21.9816       32.7809       54.7624       0.333639       0.00000
   2     792.3       54.1285       23.5204       30.9418       54.4621       0.333639      -0.00000
   1     891.5       53.7460       25.4764       28.6033       54.0797       0.333639       0.00000
   0    1013.0       53.3198       27.6496       26.0039       53.6535       0.333639      -0.00000



 Wavenumbers: 29000. - 38000. cm-1, ATM      1
 LEVEL PRESSURE   UPWARD FLUX   DIFDOWN FLUX  DIRDOWN FLUX  DOWNWARD FLUX   NET FLUX    HEATING RATE
          mb          W/m2          W/m2          W/m2        W/m2          W/m2       degree/day
  51    .06700        8.7676        0.0000       20.8114       20.8114      12.043753       0.00000
  50    .07753        8.7674        0.0003       20.8070       20.8074      12.039946       3.05155
  49    .09103        8.7672        0.0007       20.8009       20.8016      12.034409       3.46085
  48    0.1069        8.7669        0.0012       20.7928       20.7939      12.026999       3.94429
  47    0.1255        8.7667        0.0017       20.7820       20.7837      12.017094       4.49034
  46    0.1487        8.7663        0.0024       20.7665       20.7688      12.002531       5.30844
  45    0.1794        8.7658        0.0033       20.7424       20.7457      11.979866       6.22204
  44    0.2165        8.7653        0.0044       20.7103       20.7147      11.949344       6.94340
  43    0.2613        8.7648        0.0056       20.6675       20.6731      11.908349       7.72732
  42    0.3336        8.7639        0.0077       20.5880       20.5957      11.831788       8.92625
  41    0.4307        8.7628        0.0104       20.4722       20.4826      11.719835       9.73402
  40    0.5894        8.7612        0.0147       20.2637       20.2784      11.517152      10.77846
  39     1.339        8.7578        0.0331       19.0984       19.1315      10.373675      12.87348
  38     1.782        8.7583        0.0427       18.4394       18.4821       9.723750      12.37351
  37     2.292        8.7610        0.0530       17.7714       17.8244       9.063405      10.93703
  36     2.964        8.7676        0.0657       17.0421       17.1078       8.340282       9.07739
  35     3.853        8.7804        0.0816       16.2679       16.3495       7.569103       7.31863
  34     5.035        8.8015        0.1018       15.4803       15.5821       6.780609       5.63267
  33     6.613        8.8322        0.1276       14.7157       14.8433       6.011027       4.11419
  32     8.786        8.8729        0.1614       13.9936       14.1549       5.282080       2.83097
  31     11.80        8.9259        0.2084       13.2835       13.4920       4.566121       2.00446
  30     15.07        8.9770        0.2573       12.7394       12.9966       4.019650       1.41088
  29     18.79        9.0298        0.3114       12.2666       12.5780       3.548207       1.06891
  28     23.16        9.0859        0.3729       11.8300       12.2029       3.117070       0.83368
  27     28.12        9.1433        0.4418       11.4279       11.8697       2.726378       0.66415
  26     33.73        9.1964        0.5178       11.0695       11.5872       2.390872       0.50444
  25     40.54        9.2467        0.6085       10.7209       11.3294       2.082704       0.38232
  24     48.69        9.2942        0.7162       10.3742       11.0904       1.796145       0.29654
  23     57.69        9.3333        0.8328       10.0549       10.8877       1.554381       0.22662
  22     68.43        9.3649        0.9695        9.7327       10.7022       1.337339       0.17062
  21     81.20        9.3801        1.1309        9.4134       10.5443       1.164267       0.11436
  20     96.49        9.3769        1.3207        9.0887       10.4095       1.032518       0.07272
  19     114.6        9.3635        1.5400        8.7388       10.2788       0.915243       0.05476
  18     136.5        9.3429        1.7907        8.3549       10.1456       0.802714       0.04327
  17     162.9        9.3151        2.0765        7.9311       10.0076       0.692533       0.03522
  16     196.4        9.2683        2.4305        7.4333        9.8638       0.595551       0.02441
  15     218.7        9.2345        2.6532        7.1296        9.7828       0.548249       0.01796
  14     243.0        9.1975        2.8860        6.8161        9.7021       0.504571       0.01515
  13     269.0        9.1571        3.1281        6.4944        9.6224       0.465350       0.01272
  12     297.5        9.1133        3.3783        6.1658        9.5441       0.430776       0.01025
  11     328.5        9.0676        3.6357        5.8295        9.4652       0.397672       0.00900
  10     361.9        9.0204        3.8978        5.4888        9.3866       0.366188       0.00797
   9     398.1        8.9719        4.1641        5.1441        9.3082       0.336351       0.00695
   8     437.6        8.9226        4.4330        4.7972        9.2302       0.307590       0.00615
   7     480.5        8.8728        4.7025        4.4506        9.1531       0.280285       0.00536
   6     533.0        8.8158        5.0094        4.0570        9.0663       0.250526       0.00479
   5     589.8        8.7597        5.3116        3.6698        8.9814       0.221705       0.00428
   4     651.6        8.7053        5.6065        3.2923        8.8988       0.193507       0.00386
   3     718.7        8.6533        5.8913        2.9279        8.8192       0.165887       0.00347
   2     792.3        8.6043        6.1640        2.5791        8.7431       0.138847       0.00310
   1     891.5        8.5483        6.4838        2.1699        8.6537       0.105460       0.00284
   0    1013.0        8.4948        6.8053        1.7581        8.5634       0.068615       0.00256



 Wavenumbers: 38000. - 50000. cm-1, ATM      1
 LEVEL PRESSURE   UPWARD FLUX   DIFDOWN FLUX  DIRDOWN FLUX  DOWNWARD FLUX   NET FLUX    HEATING RATE
          mb          W/m2          W/m2          W/m2        W/m2          W/m2       degree/day
  51    .06700        0.0061        0.0000        1.2836        1.2836       1.277518       0.00000
  50    .07753        0.0061        0.0001        1.2812        1.2812       1.275183       1.87150
  49    .09103        0.0060        0.0002        1.2777        1.2778       1.271851       2.08247
  48    0.1069        0.0059        0.0002        1.2731        1.2734       1.267473       2.33059
  47    0.1255        0.0058        0.0004        1.2672        1.2675       1.261717       2.60908
  46    0.1487        0.0057        0.0005        1.2586        1.2591       1.253391       3.03499
  45    0.1794        0.0055        0.0007        1.2455        1.2462       1.240623       3.50520
  44    0.2165        0.0054        0.0009        1.2282        1.2291       1.223697       3.85037
  43    0.2613        0.0052        0.0011        1.2054        1.2065       1.201348       4.21261
  42    0.3336        0.0049        0.0015        1.1639        1.1654       1.160524       4.75970
  41    0.4307        0.0045        0.0020        1.1051        1.1070       1.102565       5.03943
  40    0.5894        0.0039        0.0026        1.0039        1.0064       1.002524       5.32007
  39     1.339        0.0022        0.0035        0.5438        0.5473       0.545105       5.14971
  38     1.782        0.0016        0.0032        0.3635        0.3666       0.365006       3.42879
  37     2.292        0.0012        0.0027        0.2356        0.2383       0.237058       2.11916
  36     2.964        0.0009        0.0022        0.1455        0.1477       0.146786       1.13318
  35     3.853        0.0006        0.0017        0.0858        0.0875       0.086906       0.56828
  34     5.035        0.0004        0.0013        0.0488        0.0501       0.049701       0.26578
  33     6.613        0.0003        0.0010        0.0273        0.0282       0.027974       0.11615
  32     8.786        0.0002        0.0007        0.0144        0.0151       0.014928       0.05067
  31     11.80        0.0001        0.0004        0.0065        0.0070       0.006903       0.02247
  30     15.07        0.0000        0.0003        0.0031        0.0034       0.003329       0.00923
  29     18.79        0.0000        0.0002        0.0014        0.0016       0.001583       0.00396
  28     23.16        0.0000        0.0001        0.0006        0.0007       0.000720       0.00167
  27     28.12        0.0000        0.0001        0.0003        0.0003       0.000317       0.00069
  26     33.73        0.0000        0.0000        0.0001        0.0001       0.000140       0.00027
  25     40.54        0.0000        0.0000        0.0000        0.0001       0.000057       0.00010
  24     48.69        0.0000        0.0000        0.0000        0.0000       0.000021       0.00004
  23     57.69        0.0000        0.0000        0.0000        0.0000       0.000008       0.00001
  22     68.43        0.0000        0.0000        0.0000        0.0000       0.000003       0.00000
  21     81.20        0.0000        0.0000        0.0000        0.0000       0.000001       0.00000
  20     96.49        0.0000        0.0000        0.0000        0.0000       0.000000       0.00000
  19     114.6        0.0000        0.0000        0.0000        0.0000       0.000000       0.00000
  18     136.5        0.0000        0.0000        0.0000        0.0000       0.000000       0.00000
  17     162.9        0.0000        0.0000        0.0000        0.0000       0.000000       0.00000
  16     196.4        0.0000        0.0000        0.0000        0.0000       0.000000       0.00000
  15     218.7        0.0000        0.0000        0.0000        0.0000       0.000000       0.00000
  14     243.0        0.0000        0.0000        0.0000        0.0000       0.000000       0.00000
  13     269.0        0.0000        0.0000        0.0000        0.0000       0.000000       0.00000
  12     297.5        0.0000        0.0000        0.0000        0.0000       0.000000       0.00000
  11     328.5        0.0000        0.0000        0.0000        0.0000       0.000000       0.00000
  10     361.9        0.0000        0.0000        0.0000        0.0000       0.000000       0.00000
   9     398.1        0.0000        0.0000        0.0000        0.0000       0.000000       0.00000
   8     437.6        0.0000        0.0000        0.0000        0.0000       0.000000       0.00000
   7     480.5        0.0000        0.0000        0.0000        0.0000       0.000000       0.00000
   6     533.0        0.0000        0.0000        0.0000        0.0000       0.000000       0.00000
   5     589.8        0.0000        0.0000        0.0000        0.0000       0.000000       0.00000
   4     651.6        0.0000        0.0000        0.0000        0.0000       0.000000       0.00000
   3     718.7        0.0000        0.0000        0.0000        0.0000       0.000000       0.00000
   2     792.3        0.0000        0.0000        0.0000        0.0000       0.000000       0.00000
   1     891.5        0.0000        0.0000        0.0000        0.0000       0.000000       0.00000
   0    1013.0        0.0000        0.0000        0.0000        0.0000       0.000000       0.00000



 Wavenumbers:   820. -  2600. cm-1, ATM      1
 LEVEL PRESSURE   UPWARD FLUX   DIFDOWN FLUX  DIRDOWN FLUX  DOWNWARD FLUX   NET FLUX    HEATING RATE
          mb          W/m2          W/m2          W/m2        W/m2          W/m2       degree/day
  51    .06700        0.0183        0.0000        6.0047        6.0047       5.986389       0.00000
  50    .07753        0.0183        0.0000        6.0008        6.0008       5.982566       3.06375
  49    .09103        0.0183        0.0000        6.0000        6.0000       5.981720       0.52872
  48    0.1069        0.0183        0.0000        5.9990        5.9990       5.980779       0.50125
  47    0.1255        0.0183        0.0000        5.9980        5.9980       5.979718       0.48081
  46    0.1487        0.0183        0.0000        5.9967        5.9967       5.978436       0.46749
  45    0.1794        0.0183        0.0000        5.9951        5.9951       5.976821       0.44316
  44    0.2165        0.0183        0.0000        5.9934        5.9934       5.975108       0.38982
  43    0.2613        0.0183        0.0000        5.9916        5.9916       5.973306       0.33959
  42    0.3336        0.0183        0.0000        5.9890        5.9890       5.970697       0.30417
  41    0.4307        0.0183        0.0000        5.9859        5.9859       5.967593       0.26989
  40    0.5894        0.0183        0.0000        5.9810        5.9810       5.962698       0.26032
  39     1.339        0.0183        0.0000        5.9584        5.9584       5.940092       0.25450
  38     1.782        0.0183        0.0000        5.9458        5.9458       5.927558       0.23862
  37     2.292        0.0183        0.0000        5.9318        5.9318       5.913553       0.23197
  36     2.964        0.0183        0.0000        5.9141        5.9141       5.895873       0.22194
  35     3.853        0.0183        0.0000        5.8919        5.8919       5.873641       0.21098
  34     5.035        0.0183        0.0000        5.8641        5.8641       5.845807       0.19884
  33     6.613        0.0183        0.0000        5.8289        5.8289       5.810629       0.18806
  32     8.786        0.0183        0.0000        5.7837        5.7837       5.765414       0.17560
  31     11.80        0.0183        0.0000        5.7260        5.7260       5.707702       0.16157
  30     15.07        0.0183        0.0000        5.6763        5.6763       5.658048       0.12820
  29     18.79        0.0183        0.0000        5.6354        5.6354       5.617156       0.09271
  28     23.16        0.0183        0.0000        5.6031        5.6031       5.584821       0.06253
  27     28.12        0.0183        0.0000        5.5778        5.5778       5.559516       0.04302
  26     33.73        0.0183        0.0000        5.5559        5.5559       5.537631       0.03290
  25     40.54        0.0183        0.0000        5.5323        5.5323       5.514090       0.02921
  24     48.69        0.0183        0.0000        5.5050        5.5050       5.486774       0.02827
  23     57.69        0.0183        0.0000        5.4753        5.4753       5.457042       0.02787
  22     68.43        0.0183        0.0000        5.4402        5.4402       5.421928       0.02760
  21     81.20        0.0183        0.0000        5.3995        5.3995       5.381259       0.02687
  20     96.49        0.0183        0.0000        5.3523        5.3523       5.334053       0.02605
  19     114.6        0.0183        0.0000        5.2981        5.2981       5.279850       0.02531
  18     136.5        0.0183        0.0000        5.2369        5.2369       5.218642       0.02354
  17     162.9        0.0183        0.0000        5.1636        5.1636       5.145394       0.02341
  16     196.4        0.0183        0.0000        5.0599        5.0599       5.041690       0.02610
  15     218.7        0.0183        0.0000        4.9714        4.9714       4.953148       0.03362
  14     243.0        0.0183        0.0000        4.8450        4.8450       4.826777       0.04383
  13     269.0        0.0183        0.0000        4.6873        4.6873       4.669052       0.05117
  12     297.5        0.0183        0.0000        4.5137        4.5137       4.495462       0.05148
  11     328.5        0.0183        0.0000        4.3460        4.3460       4.327693       0.04562
  10     361.9        0.0183        0.0000        4.1552        4.1552       4.136916       0.04827
   9     398.1        0.0183        0.0000        3.9297        3.9297       3.911372       0.05255
   8     437.6        0.0184        0.0000        3.6818        3.6819       3.663520       0.05299
   7     480.5        0.0184        0.0000        3.4536        3.4536       3.435232       0.04483
   6     533.0        0.0185        0.0000        3.2527        3.2528       3.234305       0.03232
   5     589.8        0.0186        0.0000        3.1073        3.1073       3.088781       0.02160
   4     651.6        0.0187        0.0000        2.9608        2.9609       2.942172       0.02005
   3     718.7        0.0189        0.0000        2.7841        2.7841       2.765163       0.02225
   2     792.3        0.0194        0.0000        2.5761        2.5761       2.556745       0.02390
   1     891.5        0.0204        0.0000        2.3018        2.3018       2.281439       0.02343
   0    1013.0        0.0227        0.0000        1.9893        1.9893       1.966643       0.02186

  Modules and versions used in this calculation:

       rrtmg_sw.1col.f90:  $Revision$                    rrtmg_sw_init.f90:  $Revision$        
     rrtmgsw_cldprop.f90:  $Revision$                  rrtmgsw_cldprmc.f90:  NOT USED          
     rrtmg_sw_reftra.f90:  $Revision$                  rrtmg_sw_spcvrt.f90:  NOT USED          
     rrtmg_sw_spcvmc.f90:  NOT USED                    rrtmgsw_setcoef.f90:  NOT USED          
     rrtmg_sw_taumol.f90:  $Revision$                  rrtmg_sw_vrtqdr.f90:  NOT USED          
                rrtatm.f:  NOT USED                             util_xxx.f:  NOT USED          
                 extra.f:  NOT USED                       rrtmg_sw_k_g.f90:  $Revision$        

