

 Wavenumbers:   820. - 50000. cm-1, ATM      1
 LEVEL PRESSURE   UPWARD FLUX   DIFDOWN FLUX  DIRDOWN FLUX  DOWNWARD FLUX   NET FLUX    HEATING RATE
          mb          W/m2          W/m2          W/m2        W/m2          W/m2       degree/day
  51    .06700      409.1891        0.0000      617.8126      617.8126     208.623483       0.00000
  50    .07753      409.1887        0.0013      617.7949      617.7963     208.607534      12.78367
  49    .09103      409.1883        0.0030      617.7782      617.7812     208.592955       9.11218
  48    0.1069      409.1878        0.0050      617.7588      617.7637     208.575950       9.05215
  47    0.1255      409.1873        0.0072      617.7349      617.7422     208.554890       9.54736
  46    0.1487      409.1867        0.0100      617.7022      617.7122     208.525561      10.69080
  45    0.1794      409.1859        0.0139      617.6539      617.6678     208.481804      12.01217
  44    0.2165      409.1852        0.0184      617.5918      617.6102     208.425037      12.91350
  43    0.2613      409.1845        0.0238      617.5119      617.5357     208.351185      13.92086
  42    0.3336      409.1836        0.0326      617.3682      617.4008     208.217214      15.61977
  41    0.4307      409.1829        0.0442      617.1648      617.2089     208.026087      16.61798
  40    0.5894      409.1826        0.0629      616.8086      616.8715     207.688860      17.93331
  39     1.339      409.1998        0.1476      614.9629      615.1106     205.910801      20.01772
  38     1.782      409.2225        0.1953      613.9911      614.1864     204.963960      18.02632
  37     2.292      409.2602        0.2495      613.0358      613.2854     204.025165      15.54889
  36     2.964      409.3270        0.3200      611.9947      612.3148     202.987776      13.02237
  35     3.853      409.4392        0.4125      610.8482      611.2607     201.821430      11.06884
  34     5.035      409.6120        0.5344      609.5893      610.1237     200.511713       9.35607
  33     6.613      409.8554        0.6963      608.2160      608.9124     199.056994       7.77693
  32     8.786      410.1724        0.9136      606.7099      607.6234     197.451037       6.23696
  31     11.80      410.5828        1.2228      604.9515      606.1743     195.591504       5.20610
  30     15.07      410.9732        1.5528      603.3628      604.9157     193.942477       4.25747
  29     18.79      411.3693        1.9241      601.7860      603.7101     192.340768       3.63157
  28     23.16      411.7803        2.3555      600.1448      602.5004     190.720047       3.13395
  27     28.12      412.1898        2.8466      598.4588      601.3054     189.115601       2.72745
  26     33.73      412.5595        3.3940      596.7847      600.1787     187.619165       2.24993
  25     40.54      412.9030        4.0531      594.9823      599.0354     186.132406       1.84449
  24     48.69      413.2172        4.8440      593.0174      597.8613     184.644111       1.54015
  23     57.69      413.4654        5.7085      591.0479      596.7563     183.290903       1.26843
  22     68.43      413.6559        6.7326      588.8944      595.6270     181.971128       1.03752
  21     81.20      413.7366        7.9469      586.5697      594.5165     180.779926       0.78713
  20     96.49      413.6973        9.3845      584.0239      593.4084     179.711115       0.58991
  19     114.6      413.5940       11.0757      581.1375      592.2133     178.619280       0.50981
  18     136.5      413.4274       13.0560      577.8471      590.9031     177.475703       0.43973
  17     162.9      413.1913       15.3798      574.0473      589.4271     176.235818       0.39632
  16     196.4      412.7982       18.3433      569.2491      587.5924     174.794220       0.36287
  15     218.7      412.5112       20.2593      565.9599      586.2192     173.708030       0.41239
  14     243.0      412.1896       22.3144      562.1263      584.4407     172.251113       0.50531
  13     269.0      411.8326       24.5101      557.6076      582.1178     170.285198       0.63773
  12     297.5      411.4418       26.8471      552.2503      579.0974     167.655677       0.77989
  11     328.5      411.0250       29.3316      546.3152      575.6468     164.621833       0.82489
  10     361.9      410.5856       31.9600      539.8840      571.8440     161.258413       0.85098
   9     398.1      410.1273       34.7370      532.8943      567.6313     157.503981       0.87470
   8     437.6      409.6591       37.6616      525.1871      562.8487     153.189597       0.92244
   7     480.5      409.1887       40.7320      516.7775      557.5095     148.320771       0.95622
   6     533.0      408.6666       44.4240      506.3129      550.7369     142.070266       1.00551
   5     589.8      408.2027       48.2977      494.8811      543.1788     134.976074       1.05301
   4     651.6      407.8915       52.3448      482.0046      534.3494     126.457831       1.16489
   3     718.7      407.8512       56.5576      468.0204      524.5780     116.726781       1.22292
   2     792.3      408.3358       60.9152      452.8979      513.8131     105.477323       1.29019
   1     891.5      410.3010       66.5581      432.8366      499.3948      89.093820       1.39416
   0    1013.0      415.9266       72.9949      409.9261      482.9210      66.994402       1.53448



 Wavenumbers:  2600. -  3250. cm-1, ATM      1
 LEVEL PRESSURE   UPWARD FLUX   DIFDOWN FLUX  DIRDOWN FLUX  DOWNWARD FLUX   NET FLUX    HEATING RATE
          mb          W/m2          W/m2          W/m2        W/m2          W/m2       degree/day
  51    .06700        1.5121        0.0000        5.4450        5.4450       3.932890       0.00000
  50    .07753        1.5121        0.0000        5.4450        5.4450       3.932882       0.00640
  49    .09103        1.5121        0.0000        5.4450        5.4450       3.932872       0.00627
  48    0.1069        1.5121        0.0000        5.4450        5.4450       3.932861       0.00613
  47    0.1255        1.5121        0.0000        5.4450        5.4450       3.932847       0.00599
  46    0.1487        1.5121        0.0000        5.4450        5.4450       3.932831       0.00608
  45    0.1794        1.5121        0.0000        5.4450        5.4450       3.932808       0.00625
  44    0.2165        1.5121        0.0000        5.4449        5.4449       3.932781       0.00612
  43    0.2613        1.5121        0.0000        5.4449        5.4449       3.932749       0.00600
  42    0.3336        1.5121        0.0000        5.4448        5.4448       3.932696       0.00617
  41    0.4307        1.5121        0.0000        5.4448        5.4448       3.932625       0.00620
  40    0.5894        1.5121        0.0000        5.4446        5.4446       3.932505       0.00637
  39     1.339        1.5121        0.0000        5.4439        5.4439       3.931798       0.00797
  38     1.782        1.5121        0.0000        5.4434        5.4434       3.931255       0.01034
  37     2.292        1.5121        0.0000        5.4427        5.4427       3.930539       0.01186
  36     2.964        1.5121        0.0000        5.4416        5.4416       3.929500       0.01304
  35     3.853        1.5121        0.0000        5.4402        5.4402       3.928023       0.01402
  34     5.035        1.5121        0.0000        5.4381        5.4381       3.925967       0.01468
  33     6.613        1.5121        0.0000        5.4353        5.4353       3.923186       0.01487
  32     8.786        1.5121        0.0000        5.4317        5.4317       3.919553       0.01411
  31     11.80        1.5121        0.0000        5.4269        5.4269       3.914772       0.01339
  30     15.07        1.5121        0.0000        5.4224        5.4224       3.910244       0.01169
  29     18.79        1.5121        0.0000        5.4180        5.4180       3.905829       0.01001
  28     23.16        1.5121        0.0000        5.4135        5.4135       3.901340       0.00868
  27     28.12        1.5122        0.0000        5.4088        5.4088       3.896687       0.00791
  26     33.73        1.5122        0.0000        5.4036        5.4036       3.891439       0.00789
  25     40.54        1.5122        0.0000        5.3966        5.3967       3.884486       0.00863
  24     48.69        1.5122        0.0000        5.3872        5.3872       3.874992       0.00983
  23     57.69        1.5122        0.0000        5.3754        5.3754       3.863183       0.01107
  22     68.43        1.5123        0.0000        5.3599        5.3599       3.847659       0.01220
  21     81.20        1.5123        0.0000        5.3401        5.3401       3.827775       0.01314
  20     96.49        1.5124        0.0000        5.3155        5.3155       3.803135       0.01360
  19     114.6        1.5125        0.0000        5.2858        5.2858       3.773327       0.01392
  18     136.5        1.5127        0.0001        5.2513        5.2514       3.738710       0.01331
  17     162.9        1.5129        0.0001        5.2126        5.2127       3.699778       0.01244
  16     196.4        1.5133        0.0001        5.1670        5.1671       3.653834       0.01156
  15     218.7        1.5136        0.0001        5.1388        5.1389       3.625348       0.01082
  14     243.0        1.5141        0.0001        5.1079        5.1080       3.593979       0.01088
  13     269.0        1.5149        0.0001        5.0718        5.0719       3.557069       0.01197
  12     297.5        1.5160        0.0001        5.0296        5.0297       3.513733       0.01285
  11     328.5        1.5175        0.0001        4.9816        4.9817       3.464174       0.01347
  10     361.9        1.5196        0.0001        4.9257        4.9258       3.406260       0.01465
   9     398.1        1.5223        0.0002        4.8582        4.8583       3.335995       0.01637
   8     437.6        1.5260        0.0002        4.7728        4.7730       3.246948       0.01904
   7     480.5        1.5309        0.0002        4.6663        4.6665       3.135623       0.02186
   6     533.0        1.5386        0.0002        4.5137        4.5139       2.975302       0.02579
   5     589.8        1.5495        0.0002        4.3238        4.3240       2.774449       0.02981
   4     651.6        1.5665        0.0002        4.0869        4.0871       2.520619       0.03471
   3     718.7        1.5927        0.0002        3.8190        3.8193       2.226538       0.03696
   2     792.3        1.6347        0.0002        3.5271        3.5273       1.892606       0.03830
   1     891.5        1.7251        0.0003        3.1370        3.1372       1.412076       0.04089
   0    1013.0        1.9263        0.0003        2.6822        2.6824       0.756155       0.04554



 Wavenumbers:  3250. -  4000. cm-1, ATM      1
 LEVEL PRESSURE   UPWARD FLUX   DIFDOWN FLUX  DIRDOWN FLUX  DOWNWARD FLUX   NET FLUX    HEATING RATE
          mb          W/m2          W/m2          W/m2        W/m2          W/m2       degree/day
  51    .06700        0.0173        0.0000        9.1795        9.1795       9.162216       0.00000
  50    .07753        0.0173        0.0000        9.1748        9.1748       9.157475       3.79958
  49    .09103        0.0173        0.0000        9.1715        9.1715       9.154203       2.04517
  48    0.1069        0.0173        0.0000        9.1691        9.1691       9.151797       1.28092
  47    0.1255        0.0173        0.0000        9.1670        9.1670       9.149659       0.96911
  46    0.1487        0.0173        0.0000        9.1647        9.1647       9.147360       0.83809
  45    0.1794        0.0173        0.0000        9.1620        9.1620       9.144654       0.74291
  44    0.2165        0.0173        0.0000        9.1592        9.1592       9.141917       0.62251
  43    0.2613        0.0173        0.0000        9.1565        9.1565       9.139151       0.52145
  42    0.3336        0.0173        0.0000        9.1526        9.1526       9.135311       0.44764
  41    0.4307        0.0173        0.0000        9.1483        9.1483       9.130991       0.37568
  40    0.5894        0.0173        0.0000        9.1420        9.1420       9.124695       0.33477
  39     1.339        0.0173        0.0000        9.1176        9.1176       9.100306       0.27459
  38     1.782        0.0173        0.0000        9.1067        9.1067       9.089409       0.20746
  37     2.292        0.0173        0.0000        9.0962        9.0962       9.078925       0.17363
  36     2.964        0.0173        0.0000        9.0844        9.0844       9.067133       0.14802
  35     3.853        0.0173        0.0000        9.0705        9.0705       9.053181       0.13241
  34     5.035        0.0173        0.0000        9.0530        9.0530       9.035653       0.12522
  33     6.613        0.0173        0.0000        9.0297        9.0297       9.012376       0.12443
  32     8.786        0.0173        0.0000        8.9972        8.9972       8.979909       0.12609
  31     11.80        0.0173        0.0000        8.9487        8.9487       8.931405       0.13580
  30     15.07        0.0173        0.0000        8.8948        8.8948       8.877516       0.13913
  29     18.79        0.0173        0.0000        8.8327        8.8328       8.815469       0.14068
  28     23.16        0.0173        0.0000        8.7607        8.7607       8.743412       0.13933
  27     28.12        0.0173        0.0000        8.6812        8.6812       8.663969       0.13505
  26     33.73        0.0173        0.0000        8.5985        8.5986       8.581323       0.12426
  25     40.54        0.0173        0.0001        8.5082        8.5083       8.491018       0.11203
  24     48.69        0.0172        0.0001        8.4118        8.4118       8.394587       0.09979
  23     57.69        0.0172        0.0001        8.3159        8.3160       8.298715       0.08987
  22     68.43        0.0172        0.0001        8.2084        8.2085       8.191243       0.08449
  21     81.20        0.0172        0.0001        8.0838        8.0839       8.066695       0.08230
  20     96.49        0.0172        0.0001        7.9387        7.9388       7.921625       0.08007
  19     114.6        0.0172        0.0001        7.7704        7.7705       7.753349       0.07857
  18     136.5        0.0171        0.0002        7.5853        7.5854       7.568293       0.07116
  17     162.9        0.0171        0.0002        7.3790        7.3792       7.362117       0.06590
  16     196.4        0.0171        0.0002        7.1112        7.1114       7.094371       0.06739
  15     218.7        0.0171        0.0002        6.8785        6.8787       6.861692       0.08834
  14     243.0        0.0170        0.0003        6.5594        6.5596       6.542612       0.11067
  13     269.0        0.0170        0.0003        6.1650        6.1653       6.148257       0.12793
  12     297.5        0.0170        0.0003        5.7075        5.7078       5.690768       0.13569
  11     328.5        0.0170        0.0003        5.2335        5.2338       5.216771       0.12888
  10     361.9        0.0170        0.0003        4.7356        4.7359       4.718873       0.12597
   9     398.1        0.0171        0.0003        4.2270        4.2273       4.210184       0.11851
   8     437.6        0.0172        0.0003        3.7265        3.7268       3.709598       0.10703
   7     480.5        0.0174        0.0003        3.2616        3.2618       3.244438       0.09136
   6     533.0        0.0177        0.0002        2.7673        2.7675       2.749793       0.07957
   5     589.8        0.0184        0.0002        2.2966        2.2969       2.278478       0.06996
   4     651.6        0.0197        0.0002        1.8190        1.8192       1.799536       0.06550
   3     718.7        0.0221        0.0002        1.3595        1.3596       1.337477       0.05807
   2     792.3        0.0274        0.0001        0.9216        0.9217       0.894377       0.05082
   1     891.5        0.0442        0.0001        0.4801        0.4801       0.435905       0.03901
   0    1013.0        0.1161        0.0000        0.1616        0.1616       0.045566       0.02710



 Wavenumbers:  4000. -  4650. cm-1, ATM      1
 LEVEL PRESSURE   UPWARD FLUX   DIFDOWN FLUX  DIRDOWN FLUX  DOWNWARD FLUX   NET FLUX    HEATING RATE
          mb          W/m2          W/m2          W/m2        W/m2          W/m2       degree/day
  51    .06700        5.1011        0.0000       10.7795       10.7795       5.678431       0.00000
  50    .07753        5.1011        0.0000       10.7795       10.7795       5.678430       0.00081
  49    .09103        5.1011        0.0000       10.7795       10.7795       5.678429       0.00079
  48    0.1069        5.1011        0.0000       10.7795       10.7795       5.678427       0.00077
  47    0.1255        5.1011        0.0000       10.7795       10.7795       5.678425       0.00076
  46    0.1487        5.1011        0.0000       10.7795       10.7795       5.678423       0.00077
  45    0.1794        5.1011        0.0000       10.7795       10.7795       5.678420       0.00079
  44    0.2165        5.1011        0.0000       10.7795       10.7795       5.678417       0.00077
  43    0.2613        5.1011        0.0000       10.7795       10.7795       5.678413       0.00076
  42    0.3336        5.1011        0.0000       10.7795       10.7795       5.678406       0.00078
  41    0.4307        5.1011        0.0000       10.7795       10.7795       5.678397       0.00078
  40    0.5894        5.1011        0.0000       10.7795       10.7795       5.678382       0.00080
  39     1.339        5.1011        0.0000       10.7794       10.7794       5.678292       0.00102
  38     1.782        5.1011        0.0000       10.7793       10.7793       5.678221       0.00135
  37     2.292        5.1011        0.0000       10.7792       10.7792       5.678126       0.00157
  36     2.964        5.1011        0.0000       10.7791       10.7791       5.677984       0.00178
  35     3.853        5.1011        0.0000       10.7789       10.7789       5.677774       0.00200
  34     5.035        5.1011        0.0000       10.7785       10.7786       5.677464       0.00222
  33     6.613        5.1011        0.0000       10.7781       10.7781       5.677007       0.00244
  32     8.786        5.1011        0.0000       10.7774       10.7774       5.676332       0.00262
  31     11.80        5.1011        0.0001       10.7763       10.7764       5.675273       0.00297
  30     15.07        5.1011        0.0001       10.7750       10.7751       5.674029       0.00321
  29     18.79        5.1011        0.0001       10.7735       10.7736       5.672524       0.00341
  28     23.16        5.1011        0.0001       10.7716       10.7717       5.670655       0.00361
  27     28.12        5.1011        0.0001       10.7694       10.7695       5.668392       0.00385
  26     33.73        5.1011        0.0002       10.7665       10.7667       5.665599       0.00420
  25     40.54        5.1011        0.0002       10.7627       10.7629       5.661808       0.00470
  24     48.69        5.1012        0.0002       10.7577       10.7579       5.656752       0.00523
  23     57.69        5.1012        0.0003       10.7517       10.7520       5.650754       0.00562
  22     68.43        5.1013        0.0003       10.7442       10.7445       5.643228       0.00592
  21     81.20        5.1014        0.0004       10.7350       10.7354       5.633949       0.00613
  20     96.49        5.1016        0.0004       10.7238       10.7243       5.622644       0.00624
  19     114.6        5.1019        0.0005       10.7102       10.7107       5.608786       0.00647
  18     136.5        5.1023        0.0006       10.6938       10.6944       5.592066       0.00643
  17     162.9        5.1029        0.0008       10.6739       10.6746       5.571697       0.00651
  16     196.4        5.1039        0.0009       10.6472       10.6481       5.544217       0.00692
  15     218.7        5.1048        0.0010       10.6282       10.6292       5.524395       0.00753
  14     243.0        5.1060        0.0011       10.6048       10.6059       5.499950       0.00848
  13     269.0        5.1077        0.0012       10.5751       10.5763       5.468607       0.01017
  12     297.5        5.1102        0.0014       10.5371       10.5385       5.428241       0.01197
  11     328.5        5.1135        0.0015       10.4912       10.4927       5.379160       0.01334
  10     361.9        5.1178        0.0016       10.4357       10.4374       5.319524       0.01509
   9     398.1        5.1235        0.0018       10.3670       10.3688       5.245345       0.01728
   8     437.6        5.1309        0.0020       10.2792       10.2812       5.150294       0.02032
   7     480.5        5.1401        0.0021       10.1701       10.1723       5.032114       0.02321
   6     533.0        5.1534        0.0023       10.0178       10.0202       4.866706       0.02661
   5     589.8        5.1709        0.0026        9.8358        9.8383       4.667382       0.02959
   4     651.6        5.1955        0.0028        9.6166        9.6194       4.423825       0.03331
   3     718.7        5.2312        0.0030        9.3613        9.3643       4.133161       0.03653
   2     792.3        5.2861        0.0032        9.0383        9.0416       3.755506       0.04331
   1     891.5        5.4044        0.0035        8.5218        8.5253       3.120838       0.05401
   0    1013.0        5.6720        0.0037        7.8945        7.8982       2.226222       0.06212



 Wavenumbers:  4650. -  5150. cm-1, ATM      1
 LEVEL PRESSURE   UPWARD FLUX   DIFDOWN FLUX  DIRDOWN FLUX  DOWNWARD FLUX   NET FLUX    HEATING RATE
          mb          W/m2          W/m2          W/m2        W/m2          W/m2       degree/day
  51    .06700        3.5561        0.0000       10.2033       10.2033       6.647200       0.00000
  50    .07753        3.5561        0.0000       10.2031       10.2031       6.646967       0.18690
  49    .09103        3.5561        0.0000       10.2028       10.2028       6.646675       0.18223
  48    0.1069        3.5561        0.0000       10.2025       10.2025       6.646342       0.17732
  47    0.1255        3.5561        0.0000       10.2021       10.2021       6.645962       0.17233
  46    0.1487        3.5561        0.0000       10.2016       10.2016       6.645486       0.17343
  45    0.1794        3.5561        0.0000       10.2010       10.2010       6.644843       0.17655
  44    0.2165        3.5561        0.0000       10.2002       10.2002       6.644092       0.17089
  43    0.2613        3.5561        0.0000       10.1994       10.1994       6.643216       0.16509
  42    0.3336        3.5561        0.0000       10.1979       10.1979       6.641799       0.16522
  41    0.4307        3.5561        0.0000       10.1961       10.1961       6.639978       0.15831
  40    0.5894        3.5561        0.0000       10.1933       10.1933       6.637135       0.15121
  39     1.339        3.5561        0.0000       10.1818       10.1818       6.625663       0.12915
  38     1.782        3.5561        0.0000       10.1763       10.1763       6.620190       0.10421
  37     2.292        3.5561        0.0000       10.1709       10.1709       6.614786       0.08949
  36     2.964        3.5561        0.0000       10.1650       10.1650       6.608919       0.07366
  35     3.853        3.5561        0.0000       10.1589       10.1589       6.602759       0.05846
  34     5.035        3.5561        0.0000       10.1526       10.1526       6.596473       0.04491
  33     6.613        3.5561        0.0000       10.1461       10.1462       6.590057       0.03430
  32     8.786        3.5561        0.0001       10.1391       10.1392       6.583079       0.02710
  31     11.80        3.5561        0.0001       10.1301       10.1302       6.574066       0.02523
  30     15.07        3.5561        0.0001       10.1203       10.1204       6.564209       0.02545
  29     18.79        3.5562        0.0001       10.1083       10.1084       6.552223       0.02718
  28     23.16        3.5562        0.0002       10.0930       10.0931       6.536942       0.02955
  27     28.12        3.5562        0.0002       10.0739       10.0741       6.517874       0.03241
  26     33.73        3.5563        0.0002       10.0509       10.0511       6.494806       0.03468
  25     40.54        3.5564        0.0003       10.0211       10.0213       6.464931       0.03706
  24     48.69        3.5566        0.0003        9.9830        9.9833       6.426784       0.03948
  23     57.69        3.5568        0.0004        9.9396        9.9400       6.383259       0.04080
  22     68.43        3.5570        0.0005        9.8871        9.8875       6.330520       0.04146
  21     81.20        3.5574        0.0005        9.8250        9.8255       6.268085       0.04126
  20     96.49        3.5580        0.0006        9.7535        9.7541       6.196158       0.03970
  19     114.6        3.5587        0.0007        9.6739        9.6747       6.115947       0.03745
  18     136.5        3.5598        0.0009        9.5881        9.5890       6.029207       0.03335
  17     162.9        3.5612        0.0010        9.4967        9.4978       5.936537       0.02962
  16     196.4        3.5635        0.0012        9.3915        9.3928       5.829317       0.02699
  15     218.7        3.5652        0.0014        9.3271        9.3285       5.763250       0.02508
  14     243.0        3.5674        0.0015        9.2583        9.2598       5.692395       0.02458
  13     269.0        3.5702        0.0017        9.1829        9.1845       5.614300       0.02533
  12     297.5        3.5739        0.0018        9.0974        9.0993       5.525327       0.02639
  11     328.5        3.5787        0.0020        8.9998        9.0018       5.423089       0.02780
  10     361.9        3.5849        0.0022        8.8867        8.8889       5.304054       0.03012
   9     398.1        3.5929        0.0024        8.7557        8.7581       5.165183       0.03235
   8     437.6        3.6031        0.0026        8.6050        8.6076       5.004587       0.03434
   7     480.5        3.6160        0.0028        8.4325        8.4353       4.819340       0.03638
   6     533.0        3.6352        0.0031        8.2062        8.2092       4.574043       0.03946
   5     589.8        3.6609        0.0033        7.9468        7.9501       4.289187       0.04228
   4     651.6        3.6968        0.0035        7.6459        7.6494       3.952651       0.04602
   3     718.7        3.7472        0.0038        7.3084        7.3122       3.565001       0.04872
   2     792.3        3.8203        0.0040        6.9365        6.9405       3.120173       0.05102
   1     891.5        3.9625        0.0042        6.4435        6.4477       2.485212       0.05403
   0    1013.0        4.2327        0.0045        5.8893        5.8938       1.661121       0.05722



 Wavenumbers:  5150. -  6150. cm-1, ATM      1
 LEVEL PRESSURE   UPWARD FLUX   DIFDOWN FLUX  DIRDOWN FLUX  DOWNWARD FLUX   NET FLUX    HEATING RATE
          mb          W/m2          W/m2          W/m2        W/m2          W/m2       degree/day
  51    .06700        8.8294        0.0000       25.5798       25.5798      16.750438       0.00000
  50    .07753        8.8294        0.0000       25.5798       25.5798      16.750420       0.01398
  49    .09103        8.8294        0.0000       25.5798       25.5798      16.750398       0.01419
  48    0.1069        8.8294        0.0000       25.5798       25.5798      16.750371       0.01442
  47    0.1255        8.8294        0.0000       25.5797       25.5797      16.750338       0.01463
  46    0.1487        8.8294        0.0000       25.5797       25.5797      16.750296       0.01542
  45    0.1794        8.8294        0.0000       25.5796       25.5796      16.750236       0.01641
  44    0.2165        8.8294        0.0000       25.5795       25.5795      16.750163       0.01666
  43    0.2613        8.8294        0.0000       25.5794       25.5795      16.750073       0.01691
  42    0.3336        8.8294        0.0000       25.5793       25.5793      16.749920       0.01788
  41    0.4307        8.8294        0.0000       25.5791       25.5791      16.749711       0.01813
  40    0.5894        8.8294        0.0000       25.5787       25.5787      16.749362       0.01860
  39     1.339        8.8294        0.0000       25.5770       25.5770      16.747665       0.01910
  38     1.782        8.8294        0.0001       25.5760       25.5760      16.746668       0.01898
  37     2.292        8.8294        0.0001       25.5748       25.5749      16.745532       0.01882
  36     2.964        8.8294        0.0001       25.5733       25.5734      16.744077       0.01827
  35     3.853        8.8294        0.0001       25.5714       25.5716      16.742208       0.01773
  34     5.035        8.8294        0.0002       25.5690       25.5691      16.739773       0.01740
  33     6.613        8.8294        0.0002       25.5657       25.5659      16.736564       0.01715
  32     8.786        8.8294        0.0003       25.5614       25.5617      16.732324       0.01647
  31     11.80        8.8294        0.0004       25.5554       25.5558      16.726438       0.01648
  30     15.07        8.8294        0.0005       25.5493       25.5497      16.720353       0.01571
  29     18.79        8.8294        0.0006       25.5426       25.5432      16.713789       0.01488
  28     23.16        8.8295        0.0007       25.5352       25.5359      16.706473       0.01415
  27     28.12        8.8295        0.0009       25.5271       25.5280      16.698491       0.01357
  26     33.73        8.8296        0.0010       25.5186       25.5197      16.690057       0.01268
  25     40.54        8.8297        0.0012       25.5089       25.5102      16.680451       0.01192
  24     48.69        8.8299        0.0015       25.4981       25.4996      16.669692       0.01113
  23     57.69        8.8302        0.0018       25.4869       25.4887      16.658537       0.01046
  22     68.43        8.8305        0.0021       25.4743       25.4764      16.645931       0.00991
  21     81.20        8.8309        0.0025       25.4599       25.4624      16.631527       0.00952
  20     96.49        8.8314        0.0029       25.4432       25.4462      16.614734       0.00927
  19     114.6        8.8321        0.0035       25.4235       25.4270      16.594930       0.00925
  18     136.5        8.8329        0.0042       25.4000       25.4042      16.571335       0.00907
  17     162.9        8.8339        0.0049       25.3651       25.3701      16.536196       0.01123
  16     196.4        8.8352        0.0059       25.2920       25.2980      16.462751       0.01849
  15     218.7        8.8362        0.0066       25.1887       25.1953      16.359167       0.03933
  14     243.0        8.8373        0.0073       25.0044       25.0117      16.174410       0.06408
  13     269.0        8.8386        0.0080       24.6789       24.6869      15.848246       0.10581
  12     297.5        8.8403        0.0087       24.1673       24.1760      15.335687       0.15202
  11     328.5        8.8424        0.0094       23.5944       23.6038      14.761393       0.15615
  10     361.9        8.8450        0.0102       22.9996       23.0098      14.164831       0.15094
   9     398.1        8.8483        0.0110       22.3318       22.3428      13.494529       0.15617
   8     437.6        8.8525        0.0117       21.5342       21.5459      12.693465       0.17127
   7     480.5        8.8579        0.0124       20.6442       20.6566      11.798719       0.17572
   6     533.0        8.8666        0.0132       19.5600       19.5733      10.706662       0.17568
   5     589.8        8.8797        0.0140       18.4173       18.4313       9.551642       0.17144
   4     651.6        8.9017        0.0147       17.2064       17.2211       8.319423       0.16851
   3     718.7        8.9389        0.0154       16.0967       16.1121       7.173276       0.14404
   2     792.3        9.0051        0.0162       15.1472       15.1634       6.158273       0.11641
   1     891.5        9.1663        0.0174       14.2088       14.2262       5.059827       0.09347
   0    1013.0        9.5624        0.0188       13.2955       13.3143       3.751884       0.09082



 Wavenumbers:  6150. -  7700. cm-1, ATM      1
 LEVEL PRESSURE   UPWARD FLUX   DIFDOWN FLUX  DIRDOWN FLUX  DOWNWARD FLUX   NET FLUX    HEATING RATE
          mb          W/m2          W/m2          W/m2        W/m2          W/m2       degree/day
  51    .06700       14.0193        0.0000       47.3109       47.3109      33.291601       0.00000
  50    .07753       14.0193        0.0000       47.3108       47.3108      33.291567       0.02727
  49    .09103       14.0193        0.0000       47.3108       47.3108      33.291523       0.02726
  48    0.1069       14.0193        0.0000       47.3107       47.3107      33.291472       0.02724
  47    0.1255       14.0193        0.0000       47.3107       47.3107      33.291412       0.02723
  46    0.1487       14.0192        0.0000       47.3106       47.3106      33.291334       0.02824
  45    0.1794       14.0192        0.0000       47.3105       47.3105      33.291226       0.02965
  44    0.2165       14.0192        0.0000       47.3103       47.3103      33.291096       0.02969
  43    0.2613       14.0192        0.0000       47.3102       47.3102      33.290938       0.02975
  42    0.3336       14.0192        0.0000       47.3099       47.3099      33.290671       0.03105
  41    0.4307       14.0192        0.0000       47.3095       47.3095      33.290313       0.03120
  40    0.5894       14.0192        0.0001       47.3089       47.3089      33.289717       0.03170
  39     1.339       14.0192        0.0002       47.3058       47.3060      33.286858       0.03218
  38     1.782       14.0191        0.0002       47.3041       47.3043      33.285186       0.03184
  37     2.292       14.0191        0.0003       47.3021       47.3023      33.283275       0.03165
  36     2.964       14.0190        0.0004       47.2995       47.2998      33.280812       0.03091
  35     3.853       14.0189        0.0005       47.2961       47.2966      33.277628       0.03021
  34     5.035       14.0188        0.0006       47.2917       47.2923      33.273466       0.02974
  33     6.613       14.0187        0.0008       47.2859       47.2867      33.267980       0.02933
  32     8.786       14.0185        0.0011       47.2782       47.2793      33.260717       0.02821
  31     11.80       14.0183        0.0015       47.2674       47.2689      33.250589       0.02835
  30     15.07       14.0180        0.0019       47.2562       47.2581      33.240051       0.02721
  29     18.79       14.0177        0.0024       47.2439       47.2463      33.228569       0.02603
  28     23.16       14.0173        0.0029       47.2301       47.2330      33.215645       0.02499
  27     28.12       14.0169        0.0035       47.2148       47.2183      33.201414       0.02419
  26     33.73       14.0165        0.0042       47.1985       47.2027      33.186224       0.02284
  25     40.54       14.0159        0.0051       47.1796       47.1847      33.168792       0.02163
  24     48.69       14.0152        0.0061       47.1582       47.1643      33.149045       0.02043
  23     57.69       14.0145        0.0072       47.1357       47.1430      33.128485       0.01927
  22     68.43       14.0136        0.0086       47.1102       47.1188      33.105193       0.01831
  21     81.20       14.0126        0.0102       47.0810       47.0912      33.078636       0.01755
  20     96.49       14.0113        0.0121       47.0472       47.0593      33.047971       0.01692
  19     114.6       14.0098        0.0144       47.0078       47.0222      33.012357       0.01663
  18     136.5       14.0081        0.0171       46.9616       46.9787      32.970583       0.01606
  17     162.9       14.0060        0.0203       46.8988       46.9191      32.913071       0.01838
  16     196.4       14.0034        0.0244       46.7816       46.8060      32.802647       0.02779
  15     218.7       14.0017        0.0271       46.6257       46.6528      32.651067       0.05755
  14     243.0       14.0001        0.0300       46.3477       46.3777      32.377578       0.09486
  13     269.0       13.9986        0.0330       45.8987       45.9317      31.933086       0.14419
  12     297.5       13.9975        0.0360       45.1884       45.2245      31.226940       0.20944
  11     328.5       13.9970        0.0392       44.2717       44.3108      30.313855       0.24827
  10     361.9       13.9972        0.0423       43.2169       43.2592      29.261971       0.26614
   9     398.1       13.9988        0.0456       42.0558       42.1013      28.102510       0.27013
   8     437.6       14.0026        0.0488       40.7345       40.7833      26.780662       0.28262
   7     480.5       14.0096        0.0520       39.2214       39.2734      25.263841       0.29790
   6     533.0       14.0237        0.0554       37.2709       37.3263      23.302605       0.31550
   5     589.8       14.0492        0.0585       35.1189       35.1774      21.128229       0.32275
   4     651.6       14.0983        0.0611       32.6784       32.7396      18.641227       0.34010
   3     718.7       14.1874        0.0634       30.1728       30.2362      16.048850       0.32579
   2     792.3       14.3518        0.0653       27.6796       27.7449      13.393126       0.30458
   1     891.5       14.7626        0.0675       24.7571       24.8246      10.061972       0.28347
   0    1013.0       15.8181        0.0700       21.9504       22.0204       6.202227       0.26800



 Wavenumbers:  7700. -  8050. cm-1, ATM      1
 LEVEL PRESSURE   UPWARD FLUX   DIFDOWN FLUX  DIRDOWN FLUX  DOWNWARD FLUX   NET FLUX    HEATING RATE
          mb          W/m2          W/m2          W/m2        W/m2          W/m2       degree/day
  51    .06700        6.4862        0.0000       11.1810       11.1810       4.694742       0.00000
  50    .07753        6.4862        0.0000       11.1809       11.1809       4.694720       0.01776
  49    .09103        6.4862        0.0000       11.1809       11.1809       4.694692       0.01740
  48    0.1069        6.4862        0.0000       11.1809       11.1809       4.694660       0.01704
  47    0.1255        6.4862        0.0000       11.1809       11.1809       4.694623       0.01667
  46    0.1487        6.4863        0.0000       11.1808       11.1808       4.694577       0.01692
  45    0.1794        6.4863        0.0000       11.1808       11.1808       4.694513       0.01741
  44    0.2165        6.4863        0.0000       11.1807       11.1807       4.694438       0.01708
  43    0.2613        6.4863        0.0000       11.1806       11.1806       4.694349       0.01676
  42    0.3336        6.4863        0.0000       11.1805       11.1805       4.694202       0.01715
  41    0.4307        6.4864        0.0000       11.1804       11.1804       4.694007       0.01696
  40    0.5894        6.4864        0.0000       11.1801       11.1801       4.693688       0.01694
  39     1.339        6.4867        0.0001       11.1788       11.1789       4.692181       0.01697
  38     1.782        6.4869        0.0001       11.1781       11.1782       4.691296       0.01686
  37     2.292        6.4871        0.0001       11.1772       11.1773       4.690271       0.01697
  36     2.964        6.4873        0.0002       11.1761       11.1762       4.688925       0.01689
  35     3.853        6.4877        0.0002       11.1746       11.1748       4.687148       0.01687
  34     5.035        6.4881        0.0003       11.1726       11.1729       4.684786       0.01687
  33     6.613        6.4887        0.0004       11.1700       11.1703       4.681632       0.01686
  32     8.786        6.4895        0.0005       11.1664       11.1669       4.677383       0.01650
  31     11.80        6.4906        0.0007       11.1613       11.1620       4.671309       0.01701
  30     15.07        6.4919        0.0009       11.1558       11.1567       4.664792       0.01683
  29     18.79        6.4933        0.0011       11.1497       11.1507       4.657436       0.01668
  28     23.16        6.4949        0.0013       11.1425       11.1438       4.648856       0.01659
  27     28.12        6.4968        0.0016       11.1343       11.1359       4.639058       0.01666
  26     33.73        6.4990        0.0019       11.1252       11.1271       4.628113       0.01646
  25     40.54        6.5015        0.0023       11.1142       11.1165       4.614919       0.01637
  24     48.69        6.5047        0.0027       11.1010       11.1037       4.599057       0.01642
  23     57.69        6.5081        0.0032       11.0866       11.0898       4.581690       0.01628
  22     68.43        6.5122        0.0038       11.0695       11.0733       4.561084       0.01620
  21     81.20        6.5172        0.0046       11.0493       11.0539       4.536648       0.01615
  20     96.49        6.5232        0.0054       11.0255       11.0309       4.507690       0.01598
  19     114.6        6.5303        0.0064       10.9975       11.0039       4.473531       0.01595
  18     136.5        6.5389        0.0076       10.9647       10.9723       4.433346       0.01545
  17     162.9        6.5493        0.0090       10.9262       10.9352       4.385900       0.01517
  16     196.4        6.5630        0.0109       10.8771       10.8880       4.324993       0.01533
  15     218.7        6.5722        0.0121       10.8454       10.8575       4.285331       0.01506
  14     243.0        6.5823        0.0134       10.8114       10.8247       4.242480       0.01486
  13     269.0        6.5934        0.0148       10.7749       10.7897       4.196298       0.01498
  12     297.5        6.6056        0.0163       10.7359       10.7522       4.146608       0.01474
  11     328.5        6.6191        0.0180       10.6942       10.7122       4.093115       0.01454
  10     361.9        6.6340        0.0198       10.6499       10.6696       4.035658       0.01454
   9     398.1        6.6504        0.0217       10.6026       10.6243       3.973855       0.01440
   8     437.6        6.6686        0.0237       10.5522       10.5760       3.907302       0.01423
   7     480.5        6.6889        0.0259       10.4985       10.5244       3.835548       0.01409
   6     533.0        6.7149        0.0286       10.4325       10.4611       3.746126       0.01439
   5     589.8        6.7447        0.0315       10.3608       10.3924       3.647612       0.01462
   4     651.6        6.7792        0.0347       10.2824       10.3170       3.537764       0.01502
   3     718.7        6.8198        0.0380       10.1953       10.2333       3.413490       0.01562
   2     792.3        6.8683        0.0415       10.0972       10.1387       3.270486       0.01640
   1     891.5        6.9442        0.0463        9.9544       10.0007       3.056483       0.01821
   0    1013.0        7.0544        0.0519        9.7663        9.8182       2.763801       0.02032



 Wavenumbers:  8050. - 12850. cm-1, ATM      1
 LEVEL PRESSURE   UPWARD FLUX   DIFDOWN FLUX  DIRDOWN FLUX  DOWNWARD FLUX   NET FLUX    HEATING RATE
          mb          W/m2          W/m2          W/m2        W/m2          W/m2       degree/day
  51    .06700       85.8957        0.0000      156.5418      156.5418      70.646021       0.00000
  50    .07753       85.8957        0.0000      156.5417      156.5417      70.646021       0.00000
  49    .09103       85.8957        0.0001      156.5417      156.5417      70.646021      -0.00000
  48    0.1069       85.8957        0.0001      156.5416      156.5417      70.646021      -0.00000
  47    0.1255       85.8957        0.0002      156.5415      156.5417      70.646021      -0.00000
  46    0.1487       85.8956        0.0002      156.5414      156.5417      70.646021       0.00000
  45    0.1794       85.8956        0.0003      156.5413      156.5416      70.646021       0.00000
  44    0.2165       85.8955        0.0004      156.5412      156.5416      70.646021      -0.00000
  43    0.2613       85.8955        0.0005      156.5410      156.5415      70.646021      -0.00000
  42    0.3336       85.8954        0.0007      156.5407      156.5414      70.646021       0.00000
  41    0.4307       85.8953        0.0010      156.5403      156.5413      70.646021      -0.00000
  40    0.5894       85.8951        0.0014      156.5397      156.5411      70.646021      -0.00000
  39     1.339       85.8942        0.0035      156.5367      156.5402      70.646021       0.00000
  38     1.782       85.8937        0.0047      156.5350      156.5397      70.646021      -0.00000
  37     2.292       85.8931        0.0061      156.5330      156.5391      70.646021       0.00000
  36     2.964       85.8923        0.0080      156.5303      156.5383      70.646021       0.00000
  35     3.853       85.8912        0.0104      156.5268      156.5373      70.646021      -0.00000
  34     5.035       85.8898        0.0136      156.5222      156.5359      70.646021       0.00000
  33     6.613       85.8880        0.0180      156.5160      156.5340      70.646021      -0.00000
  32     8.786       85.8854        0.0238      156.5076      156.5315      70.646021       0.00000
  31     11.80       85.8818        0.0322      156.4957      156.5278      70.646021      -0.00000
  30     15.07       85.8779        0.0412      156.4828      156.5240      70.646021       0.00000
  29     18.79       85.8735        0.0513      156.4682      156.5196      70.646021       0.00000
  28     23.16       85.8684        0.0632      156.4512      156.5144      70.646021      -0.00000
  27     28.12       85.8625        0.0768      156.4317      156.5085      70.646021      -0.00000
  26     33.73       85.8559        0.0921      156.4099      156.5020      70.646021      -0.00000
  25     40.54       85.8480        0.1105      156.3834      156.4940      70.646021       0.00000
  24     48.69       85.8383        0.1328      156.3515      156.4843      70.646021      -0.00000
  23     57.69       85.8277        0.1573      156.3164      156.4738      70.646021       0.00000
  22     68.43       85.8151        0.1866      156.2746      156.4611      70.646021       0.00000
  21     81.20       85.8000        0.2214      156.2246      156.4460      70.646021      -0.00000
  20     96.49       85.7820        0.2631      156.1649      156.4280      70.646021       0.00000
  19     114.6       85.7606        0.3126      156.0913      156.4039      70.643288       0.00128
  18     136.5       85.7353        0.3714      156.0037      156.3752      70.639890       0.00131
  17     162.9       85.7050        0.4416      155.8976      156.3392      70.634228       0.00181
  16     196.4       85.6657        0.5330      155.7523      156.2853      70.619601       0.00368
  15     218.7       85.6399        0.5930      155.6387      156.2318      70.591831       0.01054
  14     243.0       85.6123        0.6584      155.4780      156.1364      70.524085       0.02350
  13     269.0       85.5832        0.7293      155.2334      155.9627      70.379482       0.04691
  12     297.5       85.5534        0.8058      154.8702      155.6760      70.122571       0.07620
  11     328.5       85.5235        0.8884      154.4102      155.2986      69.775136       0.09447
  10     361.9       85.4944        0.9772      153.8581      154.8353      69.340887       0.10987
   9     398.1       85.4680        1.0726      153.1963      154.2689      68.800908       0.12580
   8     437.6       85.4477        1.1747      152.3785      153.5533      68.105581       0.14867
   7     480.5       85.4372        1.2836      151.3643      152.6479      67.210635       0.17576
   6     533.0       85.4457        1.4163      149.8997      151.3160      65.870302       0.21562
   5     589.8       85.4937        1.5570      148.0052      149.5622      64.068490       0.26745
   4     651.6       85.6262        1.7039      145.4144      147.1184      61.492193       0.35232
   3     718.7       85.9006        1.8555      142.0893      143.9448      58.044221       0.43331
   2     792.3       86.4408        2.0089      137.9362      139.9451      53.504293       0.52068
   1     891.5       87.8127        2.2015      131.7555      133.9571      46.144338       0.62630
   0    1013.0       91.0787        2.4136      124.1641      126.5778      35.499073       0.73916



 Wavenumbers: 12850. - 16000. cm-1, ATM      1
 LEVEL PRESSURE   UPWARD FLUX   DIFDOWN FLUX  DIRDOWN FLUX  DOWNWARD FLUX   NET FLUX    HEATING RATE
          mb          W/m2          W/m2          W/m2        W/m2          W/m2       degree/day
  51    .06700       74.3099        0.0000       98.0872       98.0872      23.777360       0.00000
  50    .07753       74.3099        0.0001       98.0864       98.0864      23.776569       0.63423
  49    .09103       74.3099        0.0002       98.0853       98.0854      23.775575       0.62113
  48    0.1069       74.3099        0.0003       98.0841       98.0843      23.774434       0.60776
  47    0.1255       74.3099        0.0004       98.0826       98.0830      23.773122       0.59468
  46    0.1487       74.3099        0.0005       98.0809       98.0814      23.771466       0.60340
  45    0.1794       74.3099        0.0007       98.0784       98.0792      23.769215       0.61816
  44    0.2165       74.3100        0.0009       98.0756       98.0766      23.766566       0.60250
  43    0.2613       74.3101        0.0012       98.0723       98.0736      23.763452       0.58706
  42    0.3336       74.3103        0.0017       98.0670       98.0687      23.758369       0.59258
  41    0.4307       74.3107        0.0023       98.0602       98.0625      23.751797       0.57139
  40    0.5894       74.3114        0.0033       98.0496       98.0529      23.741444       0.55056
  39     1.339       74.3178        0.0080       98.0043       98.0124      23.694575       0.52766
  38     1.782       74.3236        0.0108       97.9793       97.9901      23.666466       0.53515
  37     2.292       74.3323        0.0140       97.9498       97.9638      23.631477       0.57952
  36     2.964       74.3467        0.0182       97.9088       97.9270      23.580321       0.64216
  35     3.853       74.3699        0.0238       97.8503       97.8741      23.504163       0.72275
  34     5.035       74.4049        0.0311       97.7680       97.7991      23.394177       0.78569
  33     6.613       74.4538        0.0410       97.6562       97.6972      23.243336       0.80640
  32     8.786       74.5175        0.0542       97.5107       97.5649      23.047431       0.76083
  31     11.80       74.6003        0.0732       97.3179       97.3911      22.790719       0.71871
  30     15.07       74.6797        0.0935       97.1283       97.2219      22.542133       0.64180
  29     18.79       74.7608        0.1165       96.9300       97.0465      22.285701       0.58141
  28     23.16       74.8455        0.1432       96.7166       96.8598      22.014261       0.52488
  27     28.12       74.9309        0.1738       96.4935       96.6673      21.736442       0.47227
  26     33.73       75.0098        0.2081       96.2731       96.4812      21.471376       0.39853
  25     40.54       75.0859        0.2494       96.0408       96.2902      21.204297       0.33134
  24     48.69       75.1591        0.2993       95.7946       96.0939      20.934840       0.27885
  23     57.69       75.2213        0.3541       95.5573       95.9114      20.690070       0.22944
  22     68.43       75.2760        0.4194       95.3106       95.7300      20.454092       0.18551
  21     81.20       75.3142        0.4973       95.0644       95.5617      20.247482       0.13652
  20     96.49       75.3350        0.5903       94.8153       95.4055      20.070569       0.09764
  19     114.6       75.3577        0.7016       94.5411       95.2427      19.885048       0.08663
  18     136.5       75.3740        0.8336       94.2322       95.0657      19.691740       0.07433
  17     162.9       75.3837        0.9906       93.8757       94.8663      19.482685       0.06682
  16     196.4       75.3756        1.1944       93.4353       94.6297      19.254080       0.05754
  15     218.7       75.3629        1.3282       93.1525       94.4807      19.117781       0.05175
  14     243.0       75.3459        1.4736       92.8466       94.3202      18.974312       0.04976
  13     269.0       75.3243        1.6312       92.5170       94.1482      18.823878       0.04880
  12     297.5       75.2984        1.8014       92.1620       93.9634      18.664989       0.04712
  11     328.5       75.2697        1.9853       91.7782       93.7634      18.493712       0.04657
  10     361.9       75.2388        2.1832       91.3642       93.5475      18.308616       0.04683
   9     398.1       75.2063        2.3963       90.9178       93.3141      18.107746       0.04680
   8     437.6       75.1738        2.6250       90.4346       93.0595      17.885748       0.04746
   7     480.5       75.1425        2.8700       89.9114       92.7814      17.638863       0.04849
   6     533.0       75.1116        3.1714       89.2558       92.4272      17.315619       0.05200
   5     589.8       75.0925        3.4959       88.5268       92.0227      16.930177       0.05721
   4     651.6       75.1008        3.8436       87.6952       91.5388      16.438066       0.06730
   3     718.7       75.1546        4.2150       86.7376       90.9526      15.798031       0.08043
   2     792.3       75.2929        4.6083       85.6128       90.2211      14.928167       0.09976
   1     891.5       75.6494        5.1288       83.9448       89.0736      13.424262       0.12798
   0    1013.0       76.4009        5.7371       81.7910       87.5281      11.127210       0.15950



 Wavenumbers: 16000. - 22650. cm-1, ATM      1
 LEVEL PRESSURE   UPWARD FLUX   DIFDOWN FLUX  DIRDOWN FLUX  DOWNWARD FLUX   NET FLUX    HEATING RATE
          mb          W/m2          W/m2          W/m2        W/m2          W/m2       degree/day
  51    .06700      141.0303        0.0000      156.3892      156.3892      15.358937       0.00000
  50    .07753      141.0303        0.0004      156.3887      156.3891      15.358789       0.11854
  49    .09103      141.0303        0.0009      156.3879      156.3888      15.358574       0.13445
  48    0.1069      141.0303        0.0015      156.3871      156.3885      15.358286       0.15332
  47    0.1255      141.0303        0.0021      156.3861      156.3882      15.357900       0.17477
  46    0.1487      141.0303        0.0030      156.3847      156.3877      15.357332       0.20709
  45    0.1794      141.0305        0.0041      156.3828      156.3869      15.356444       0.24384
  44    0.2165      141.0307        0.0054      156.3805      156.3859      15.355239       0.27405
  43    0.2613      141.0310        0.0070      156.3776      156.3846      15.353605       0.30810
  42    0.3336      141.0318        0.0097      156.3726      156.3823      15.350497       0.36232
  41    0.4307      141.0330        0.0131      156.3657      156.3789      15.345813       0.40728
  40    0.5894      141.0356        0.0188      156.3537      156.3725      15.336879       0.47508
  39     1.339      141.0584        0.0458      156.2834      156.3292      15.270877       0.74307
  38     1.782      141.0794        0.0617      156.2324      156.2940      15.214651       1.07046
  37     2.292      141.1108        0.0800      156.1641      156.2441      15.133263       1.34800
  36     2.964      141.1631        0.1041      156.0605      156.1646      15.001413       1.65511
  35     3.853      141.2477        0.1358      155.9041      156.0399      14.792199       1.98548
  34     5.035      141.3753        0.1780      155.6774      155.8553      14.480067       2.22974
  33     6.613      141.5536        0.2342      155.3656      155.5999      14.046291       2.31897
  32     8.786      141.7858        0.3099      154.9577      155.2676      13.481845       2.19210
  31     11.80      142.0880        0.4181      154.4153      154.8334      12.745381       2.06187
  30     15.07      142.3775        0.5340      153.8804      154.4144      12.036917       1.82912
  29     18.79      142.6731        0.6648      153.3191      153.9839      11.310799       1.64633
  28     23.16      142.9821        0.8173      152.7126      153.5299      10.547825       1.47534
  27     28.12      143.2930        0.9915      152.0755      153.0670       9.774031       1.31540
  26     33.73      143.5799        1.1862      151.4409      152.6271       9.047197       1.09281
  25     40.54      143.8561        1.4213      150.7637      152.1849       8.328813       0.89124
  24     48.69      144.1206        1.7043      150.0338      151.7382       7.617592       0.73600
  23     57.69      144.3448        2.0149      149.3151      151.3300       6.985237       0.59274
  22     68.43      144.5403        2.3843      148.5476      150.9319       6.391615       0.46667
  21     81.20      144.6754        2.8242      147.7517      150.5759       5.900545       0.32449
  20     96.49      144.7454        3.3479      146.9127      150.2605       5.515174       0.21270
  19     114.6      144.7815        3.9679      145.9763      149.9442       5.162671       0.16459
  18     136.5      144.7928        4.6999      144.9088      149.6087       4.815902       0.13334
  17     162.9      144.7776        5.5676      143.6786      149.2462       4.468549       0.11103
  16     196.4      144.6961        6.6871      142.1651      148.8523       4.156189       0.07862
  15     218.7      144.6198        7.4187      141.2035      148.6222       4.002409       0.05838
  14     243.0      144.5265        8.2105      140.1758      148.3863       3.859791       0.04946
  13     269.0      144.4144        9.0647      139.0807      148.1454       3.730960       0.04179
  12     297.5      144.2829        9.9833      137.9161      147.8995       3.616613       0.03391
  11     328.5      144.1358       10.9707      136.6714      147.6421       3.506220       0.03002
  10     361.9      143.9729       12.0276      135.3455      147.3731       3.400224       0.02682
   9     398.1      143.7935       13.1583      133.9335      147.0917       3.298237       0.02376
   8     437.6      143.5982       14.3645      132.4316      146.7961       3.197899       0.02145
   7     480.5      143.3864       15.6485      130.8377      146.4862       3.099713       0.01928
   6     533.0      143.1242       17.2166      128.8953      146.1119       2.987702       0.01802
   5     589.8      142.8426       18.8919      126.8217      145.7136       2.870970       0.01733
   4     651.6      142.5450       20.6759      124.6105      145.2864       2.741405       0.01772
   3     718.7      142.2343       22.5704      122.2560      144.8263       2.592001       0.01878
   2     792.3      141.9186       24.5734      119.7514      144.3247       2.406168       0.02131
   1     891.5      141.5325       27.2336      116.3884      143.6220       2.089508       0.02695
   0    1013.0      141.1331       30.3618      112.3818      142.7436       1.610557       0.03326



 Wavenumbers: 22650. - 29000. cm-1, ATM      1
 LEVEL PRESSURE   UPWARD FLUX   DIFDOWN FLUX  DIRDOWN FLUX  DOWNWARD FLUX   NET FLUX    HEATING RATE
          mb          W/m2          W/m2          W/m2        W/m2          W/m2       degree/day
  51    .06700       58.3821        0.0000       59.0156       59.0156       0.633498       0.00000
  50    .07753       58.3820        0.0005       59.0151       59.0155       0.633498      -0.00000
  49    .09103       58.3819        0.0010       59.0144       59.0154       0.633498       0.00000
  48    0.1069       58.3818        0.0017       59.0136       59.0153       0.633498       0.00000
  47    0.1255       58.3816        0.0025       59.0127       59.0151       0.633498       0.00000
  46    0.1487       58.3814        0.0034       59.0115       59.0149       0.633498      -0.00000
  45    0.1794       58.3812        0.0048       59.0099       59.0147       0.633498       0.00000
  44    0.2165       58.3809        0.0063       59.0080       59.0144       0.633498       0.00000
  43    0.2613       58.3805        0.0082       59.0058       59.0140       0.633498      -0.00000
  42    0.3336       58.3799        0.0113       59.0022       59.0134       0.633498      -0.00000
  41    0.4307       58.3791        0.0153       58.9973       59.0126       0.633498       0.00000
  40    0.5894       58.3778        0.0220       58.9894       59.0113       0.633498       0.00000
  39     1.339       58.3717        0.0534       58.9518       59.0052       0.633498      -0.00000
  38     1.782       58.3681        0.0719       58.9297       59.0016       0.633498       0.00000
  37     2.292       58.3639        0.0933       58.9042       58.9974       0.633498      -0.00000
  36     2.964       58.3585        0.1213       58.8706       58.9920       0.633498       0.00000
  35     3.853       58.3512        0.1584       58.8264       58.9847       0.633498      -0.00000
  34     5.035       58.3416        0.2076       58.7676       58.9751       0.633498       0.00000
  33     6.613       58.3288        0.2732       58.6891       58.9623       0.633498       0.00000
  32     8.786       58.3116        0.3617       58.5834       58.9451       0.633498      -0.00000
  31     11.80       58.2870        0.4880       58.4324       58.9204       0.633498       0.00000
  30     15.07       58.2605        0.6234       58.2706       58.8940       0.633498       0.00000
  29     18.79       58.2308        0.7760       58.0882       58.8643       0.633498      -0.00000
  28     23.16       58.1961        0.9539       57.8757       58.8296       0.633498       0.00000
  27     28.12       58.1565        1.1567       57.6333       58.7900       0.633498       0.00000
  26     33.73       58.1124        1.3828       57.3631       58.7459       0.633498       0.00000
  25     40.54       58.0593        1.6549       57.0379       58.6928       0.633498      -0.00000
  24     48.69       57.9956        1.9812       56.6479       58.6291       0.633498       0.00000
  23     57.69       57.9261        2.3375       56.2221       58.5596       0.633498      -0.00000
  22     68.43       57.8438        2.7587       55.7186       58.4773       0.633498       0.00000
  21     81.20       57.7466        3.2562       55.1239       58.3801       0.633498       0.00000
  20     96.49       57.6320        3.8427       54.4228       58.2655       0.633498      -0.00000
  19     114.6       57.4976        4.5301       53.6010       58.1311       0.633498       0.00000
  18     136.5       57.3407        5.3324       52.6418       57.9742       0.633498       0.00000
  17     162.9       57.1571        6.2703       51.5204       57.7906       0.633498       0.00000
  16     196.4       56.9244        7.4584       50.0995       57.5579       0.633498      -0.00000
  15     218.7       56.7747        8.2219       49.1863       57.4082       0.633498       0.00000
  14     243.0       56.6148        9.0370       48.2113       57.2483       0.633498      -0.00000
  13     269.0       56.4447        9.9031       47.1751       57.0782       0.633498       0.00000
  12     297.5       56.2646       10.8196       46.0786       56.8981       0.633498      -0.00000
  11     328.5       56.0742       11.7877       44.9201       56.7077       0.633498      -0.00000
  10     361.9       55.8740       12.8048       43.7027       56.5075       0.633498       0.00000
   9     398.1       55.6638       13.8710       42.4263       56.2973       0.633498       0.00000
   8     437.6       55.4442       14.9841       41.0936       56.0777       0.633498      -0.00000
   7     480.5       55.2154       16.1415       39.7074       55.8489       0.633498       0.00000
   6     533.0       54.9429       17.5180       38.0584       55.5764       0.633498       0.00000
   5     589.8       54.6602       18.9432       36.3504       55.2937       0.633498      -0.00000
   4     651.6       54.3683       20.4111       34.5907       55.0018       0.633498       0.00000
   3     718.7       54.0682       21.9164       32.7853       54.7017       0.633498      -0.00000
   2     792.3       53.7621       23.4473       30.9483       54.3956       0.633498       0.00000
   1     891.5       53.3719       25.3911       28.6142       54.0054       0.633498       0.00000
   0    1013.0       52.9359       27.5513       26.0181       53.5694       0.633498       0.00000



 Wavenumbers: 29000. - 38000. cm-1, ATM      1
 LEVEL PRESSURE   UPWARD FLUX   DIFDOWN FLUX  DIRDOWN FLUX  DOWNWARD FLUX   NET FLUX    HEATING RATE
          mb          W/m2          W/m2          W/m2        W/m2          W/m2       degree/day
  51    .06700        8.7365        0.0000       20.8114       20.8114      12.074849       0.00000
  50    .07753        8.7363        0.0003       20.8070       20.8074      12.071042       3.05152
  49    .09103        8.7361        0.0007       20.8009       20.8016      12.065505       3.46081
  48    0.1069        8.7358        0.0012       20.7928       20.7939      12.058095       3.94425
  47    0.1255        8.7356        0.0017       20.7820       20.7837      12.048191       4.49029
  46    0.1487        8.7352        0.0024       20.7665       20.7688      12.033628       5.30838
  45    0.1794        8.7347        0.0033       20.7424       20.7457      12.010963       6.22197
  44    0.2165        8.7342        0.0044       20.7103       20.7147      11.980441       6.94332
  43    0.2613        8.7337        0.0056       20.6675       20.6731      11.939447       7.72723
  42    0.3336        8.7328        0.0077       20.5880       20.5956      11.862887       8.92614
  41    0.4307        8.7317        0.0104       20.4722       20.4826      11.750936       9.73389
  40    0.5894        8.7301        0.0147       20.2637       20.2784      11.548255      10.77831
  39     1.339        8.7267        0.0331       19.0984       19.1315      10.404800      12.87322
  38     1.782        8.7271        0.0427       18.4394       18.4820       9.754895      12.37315
  37     2.292        8.7298        0.0530       17.7714       17.8244       9.094577      10.93659
  36     2.964        8.7363        0.0656       17.0421       17.1078       8.371495       9.07686
  35     3.853        8.7490        0.0816       16.2679       16.3494       7.600383       7.31800
  34     5.035        8.7700        0.1017       15.4803       15.5820       6.811988       5.63197
  33     6.613        8.8006        0.1275       14.7157       14.8432       6.042542       4.11346
  32     8.786        8.8410        0.1612       13.9936       14.1548       5.313773       2.83028
  31     11.80        8.8937        0.2082       13.2835       13.4918       4.598047       2.00381
  30     15.07        8.9445        0.2570       12.7394       12.9963       4.051805       1.41029
  29     18.79        8.9970        0.3110       12.2666       12.5776       3.580600       1.06837
  28     23.16        9.0528        0.3725       11.8300       12.2025       3.149721       0.83318
  27     28.12        9.1099        0.4413       11.4279       11.8692       2.759298       0.66369
  26     33.73        9.1626        0.5172       11.0695       11.5866       2.424053       0.50405
  25     40.54        9.2125        0.6078       10.7209       11.3287       2.116150       0.38199
  24     48.69        9.2596        0.7153       10.3742       11.0895       1.829865       0.29626
  23     57.69        9.2982        0.8317       10.0549       10.8866       1.588353       0.22638
  22     68.43        9.3294        0.9682        9.7327       10.7009       1.371556       0.17043
  21     81.20        9.3441        1.1294        9.4134       10.5428       1.198695       0.11422
  20     96.49        9.3405        1.3189        9.0887       10.4076       1.067117       0.07262
  19     114.6        9.3266        1.5378        8.7388       10.2766       0.950005       0.05468
  18     136.5        9.3053        1.7881        8.3549       10.1430       0.837642       0.04321
  17     162.9        9.2769        2.0733        7.9311       10.0045       0.727636       0.03516
  16     196.4        9.2292        2.4267        7.4333        9.8600       0.630819       0.02437
  15     218.7        9.1949        2.6489        7.1296        9.7785       0.583604       0.01793
  14     243.0        9.1573        2.8812        6.8161        9.6973       0.540009       0.01512
  13     269.0        9.1162        3.1227        6.4944        9.6171       0.500866       0.01270
  12     297.5        9.0718        3.3723        6.1658        9.5381       0.466364       0.01023
  11     328.5        9.0253        3.6291        5.8296        9.4587       0.433334       0.00898
  10     361.9        8.9774        3.8905        5.4888        9.3793       0.401923       0.00795
   9     398.1        8.9281        4.1560        5.1442        9.3002       0.372158       0.00693
   8     437.6        8.8779        4.4241        4.7972        9.2213       0.343471       0.00613
   7     480.5        8.8271        4.6927        4.4506        9.1434       0.316240       0.00535
   6     533.0        8.7689        4.9985        4.0570        9.0555       0.286566       0.00477
   5     589.8        8.7116        5.2992        3.6702        8.9695       0.257838       0.00426
   4     651.6        8.6559        5.5929        3.2927        8.8856       0.229732       0.00384
   3     718.7        8.6024        5.8763        2.9283        8.8046       0.202208       0.00346
   2     792.3        8.5518        6.1466        2.5805        8.7271       0.175271       0.00309
   1     891.5        8.4937        6.4638        2.1719        8.6357       0.142019       0.00283
   0    1013.0        8.4377        6.7819        1.7611        8.5430       0.105326       0.00255



 Wavenumbers: 38000. - 50000. cm-1, ATM      1
 LEVEL PRESSURE   UPWARD FLUX   DIFDOWN FLUX  DIRDOWN FLUX  DOWNWARD FLUX   NET FLUX    HEATING RATE
          mb          W/m2          W/m2          W/m2        W/m2          W/m2       degree/day
  51    .06700        0.0061        0.0000        1.2836        1.2836       1.277518       0.00000
  50    .07753        0.0061        0.0001        1.2812        1.2812       1.275183       1.87150
  49    .09103        0.0060        0.0002        1.2777        1.2778       1.271851       2.08247
  48    0.1069        0.0059        0.0002        1.2731        1.2734       1.267473       2.33059
  47    0.1255        0.0058        0.0004        1.2672        1.2675       1.261717       2.60908
  46    0.1487        0.0057        0.0005        1.2586        1.2591       1.253391       3.03499
  45    0.1794        0.0055        0.0007        1.2455        1.2462       1.240623       3.50520
  44    0.2165        0.0054        0.0009        1.2282        1.2291       1.223697       3.85037
  43    0.2613        0.0052        0.0011        1.2054        1.2065       1.201348       4.21261
  42    0.3336        0.0049        0.0015        1.1639        1.1654       1.160524       4.75970
  41    0.4307        0.0045        0.0020        1.1051        1.1070       1.102565       5.03943
  40    0.5894        0.0039        0.0026        1.0039        1.0064       1.002524       5.32007
  39     1.339        0.0022        0.0035        0.5438        0.5473       0.545105       5.14971
  38     1.782        0.0016        0.0032        0.3635        0.3666       0.365006       3.42879
  37     2.292        0.0012        0.0027        0.2356        0.2383       0.237058       2.11916
  36     2.964        0.0009        0.0022        0.1455        0.1477       0.146786       1.13318
  35     3.853        0.0006        0.0017        0.0858        0.0875       0.086906       0.56828
  34     5.035        0.0004        0.0013        0.0488        0.0501       0.049701       0.26578
  33     6.613        0.0003        0.0010        0.0273        0.0282       0.027974       0.11615
  32     8.786        0.0002        0.0007        0.0144        0.0151       0.014928       0.05067
  31     11.80        0.0001        0.0004        0.0065        0.0070       0.006903       0.02247
  30     15.07        0.0000        0.0003        0.0031        0.0034       0.003329       0.00923
  29     18.79        0.0000        0.0002        0.0014        0.0016       0.001583       0.00396
  28     23.16        0.0000        0.0001        0.0006        0.0007       0.000720       0.00167
  27     28.12        0.0000        0.0001        0.0003        0.0003       0.000317       0.00069
  26     33.73        0.0000        0.0000        0.0001        0.0001       0.000140       0.00027
  25     40.54        0.0000        0.0000        0.0000        0.0001       0.000057       0.00010
  24     48.69        0.0000        0.0000        0.0000        0.0000       0.000021       0.00004
  23     57.69        0.0000        0.0000        0.0000        0.0000       0.000008       0.00001
  22     68.43        0.0000        0.0000        0.0000        0.0000       0.000003       0.00000
  21     81.20        0.0000        0.0000        0.0000        0.0000       0.000001       0.00000
  20     96.49        0.0000        0.0000        0.0000        0.0000       0.000000       0.00000
  19     114.6        0.0000        0.0000        0.0000        0.0000       0.000000       0.00000
  18     136.5        0.0000        0.0000        0.0000        0.0000       0.000000       0.00000
  17     162.9        0.0000        0.0000        0.0000        0.0000       0.000000       0.00000
  16     196.4        0.0000        0.0000        0.0000        0.0000       0.000000       0.00000
  15     218.7        0.0000        0.0000        0.0000        0.0000       0.000000       0.00000
  14     243.0        0.0000        0.0000        0.0000        0.0000       0.000000       0.00000
  13     269.0        0.0000        0.0000        0.0000        0.0000       0.000000       0.00000
  12     297.5        0.0000        0.0000        0.0000        0.0000       0.000000       0.00000
  11     328.5        0.0000        0.0000        0.0000        0.0000       0.000000       0.00000
  10     361.9        0.0000        0.0000        0.0000        0.0000       0.000000       0.00000
   9     398.1        0.0000        0.0000        0.0000        0.0000       0.000000       0.00000
   8     437.6        0.0000        0.0000        0.0000        0.0000       0.000000       0.00000
   7     480.5        0.0000        0.0000        0.0000        0.0000       0.000000       0.00000
   6     533.0        0.0000        0.0000        0.0000        0.0000       0.000000       0.00000
   5     589.8        0.0000        0.0000        0.0000        0.0000       0.000000       0.00000
   4     651.6        0.0000        0.0000        0.0000        0.0000       0.000000       0.00000
   3     718.7        0.0000        0.0000        0.0000        0.0000       0.000000       0.00000
   2     792.3        0.0000        0.0000        0.0000        0.0000       0.000000       0.00000
   1     891.5        0.0000        0.0000        0.0000        0.0000       0.000000       0.00000
   0    1013.0        0.0000        0.0000        0.0000        0.0000       0.000000       0.00000



 Wavenumbers:   820. -  2600. cm-1, ATM      1
 LEVEL PRESSURE   UPWARD FLUX   DIFDOWN FLUX  DIRDOWN FLUX  DOWNWARD FLUX   NET FLUX    HEATING RATE
          mb          W/m2          W/m2          W/m2        W/m2          W/m2       degree/day
  51    .06700        1.3069        0.0000        6.0047        6.0047       4.697783       0.00000
  50    .07753        1.3069        0.0000        6.0008        6.0008       4.693971       3.05518
  49    .09103        1.3069        0.0000        6.0000        6.0000       4.693139       0.52001
  48    0.1069        1.3069        0.0000        5.9991        5.9991       4.692214       0.49239
  47    0.1255        1.3069        0.0000        5.9980        5.9980       4.691173       0.47181
  46    0.1487        1.3069        0.0000        5.9968        5.9968       4.689917       0.45800
  45    0.1794        1.3069        0.0000        5.9952        5.9952       4.688339       0.43305
  44    0.2165        1.3069        0.0000        5.9935        5.9935       4.686671       0.37955
  43    0.2613        1.3069        0.0000        5.9918        5.9918       4.684925       0.32916
  42    0.3336        1.3069        0.0000        5.9893        5.9893       4.682410       0.29315
  41    0.4307        1.3069        0.0000        5.9863        5.9863       4.679435       0.25873
  40    0.5894        1.3069        0.0000        5.9816        5.9816       4.674754       0.24891
  39     1.339        1.3069        0.0000        5.9600        5.9600       4.653162       0.24309
  38     1.782        1.3069        0.0000        5.9481        5.9481       4.641199       0.22775
  37     2.292        1.3069        0.0000        5.9347        5.9347       4.627818       0.22163
  36     2.964        1.3069        0.0000        5.9178        5.9178       4.610890       0.21249
  35     3.853        1.3069        0.0000        5.8964        5.8964       4.589538       0.20264
  34     5.035        1.3069        0.0000        5.8696        5.8696       4.562681       0.19186
  33     6.613        1.3069        0.0000        5.8354        5.8354       4.528529       0.18257
  32     8.786        1.3069        0.0000        5.7911        5.7911       4.484243       0.17199
  31     11.80        1.3069        0.0000        5.7340        5.7340       4.427084       0.16003
  30     15.07        1.3069        0.0000        5.6845        5.6845       4.377581       0.12781
  29     18.79        1.3069        0.0000        5.6437        5.6437       4.336725       0.09263
  28     23.16        1.3070        0.0000        5.6116        5.6116       4.304677       0.06197
  27     28.12        1.3070        0.0000        5.5871        5.5871       4.280108       0.04177
  26     33.73        1.3070        0.0000        5.5663        5.5663       4.259320       0.03126
  25     40.54        1.3070        0.0000        5.5442        5.5442       4.237164       0.02749
  24     48.69        1.3071        0.0000        5.5184        5.5184       4.211363       0.02670
  23     57.69        1.3071        0.0000        5.4902        5.4902       4.183094       0.02650
  22     68.43        1.3072        0.0000        5.4566        5.4567       4.149484       0.02642
  21     81.20        1.3072        0.0000        5.4176        5.4176       4.110368       0.02585
  20     96.49        1.3073        0.0000        5.3721        5.3721       4.064777       0.02516
  19     114.6        1.3074        0.0000        5.3200        5.3200       4.012542       0.02439
  18     136.5        1.3076        0.0000        5.2610        5.2611       3.953492       0.02271
  17     162.9        1.3077        0.0000        5.1916        5.1917       3.883925       0.02224
  16     196.4        1.3080        0.0000        5.0959        5.0959       3.787900       0.02417
  15     218.7        1.3083        0.0000        5.0169        5.0169       3.708655       0.03009
  14     243.0        1.3086        0.0000        4.9046        4.9047       3.596015       0.03907
  13     269.0        1.3092        0.0000        4.7598        4.7598       3.450652       0.04716
  12     297.5        1.3100        0.0000        4.5943        4.5944       3.284340       0.04933
  11     328.5        1.3111        0.0000        4.4394        4.4395       3.128376       0.04241
  10     361.9        1.3125        0.0000        4.2746        4.2746       2.962092       0.04207
   9     398.1        1.3143        0.0000        4.0781        4.0781       2.763833       0.04619
   8     437.6        1.3165        0.0000        3.8470        3.8471       2.530543       0.04988
   7     480.5        1.3192        0.0000        3.6114        3.6114       2.292198       0.04681
   6     533.0        1.3231        0.0000        3.3784        3.3785       2.055341       0.03810
   5     589.8        1.3286        0.0001        3.2067        3.2068       1.878124       0.02630
   4     651.6        1.3376        0.0001        3.0655        3.0655       1.727892       0.02054
   3     718.7        1.3519        0.0001        2.9109        2.9109       1.559029       0.02122
   2     792.3        1.3760        0.0001        2.7213        2.7214       1.345379       0.02450
   1     891.5        1.4314        0.0001        2.4592        2.4593       1.027883       0.02702
   0    1013.0        1.5584        0.0001        2.1701        2.1702       0.611760       0.02889

  Modules and versions used in this calculation:

       rrtmg_sw.1col.f90:  $Revision$                    rrtmg_sw_init.f90:  $Revision$        
     rrtmgsw_cldprop.f90:  $Revision$                  rrtmgsw_cldprmc.f90:  NOT USED          
     rrtmg_sw_reftra.f90:  $Revision$                  rrtmg_sw_spcvrt.f90:  NOT USED          
     rrtmg_sw_spcvmc.f90:  NOT USED                    rrtmgsw_setcoef.f90:  NOT USED          
     rrtmg_sw_taumol.f90:  $Revision$                  rrtmg_sw_vrtqdr.f90:  NOT USED          
                rrtatm.f:  NOT USED                             util_xxx.f:  NOT USED          
                 extra.f:  NOT USED                       rrtmg_sw_k_g.f90:  $Revision$        

