

 Wavenumbers:   820. - 50000. cm-1, ATM      1
 LEVEL PRESSURE   UPWARD FLUX   DIFDOWN FLUX  DIRDOWN FLUX  DOWNWARD FLUX   NET FLUX    HEATING RATE
          mb          W/m2          W/m2          W/m2        W/m2          W/m2       degree/day
  51    .06700      427.2678        0.0000      617.8126      617.8126     190.544812       0.00000
  50    .07753      427.2674        0.0014      617.7950      617.7964     190.528964      12.70299
  49    .09103      427.2670        0.0031      617.7784      617.7815     190.514507       9.03551
  48    0.1069      427.2665        0.0050      617.7591      617.7641     190.497641       8.97816
  47    0.1255      427.2660        0.0073      617.7355      617.7427     190.476734       9.47830
  46    0.1487      427.2654        0.0101      617.7029      617.7130     190.447591      10.62282
  45    0.1794      427.2648        0.0140      617.6549      617.6688     190.404078      11.94525
  44    0.2165      427.2641        0.0185      617.5931      617.6117     190.347592      12.84957
  43    0.2613      427.2634        0.0239      617.5136      617.5375     190.274070      13.85875
  42    0.3336      427.2627        0.0328      617.3705      617.4033     190.140643      15.55621
  41    0.4307      427.2621        0.0444      617.1679      617.2124     189.950242      16.55495
  40    0.5894      427.2622        0.0633      616.8131      616.8764     189.614180      17.87136
  39     1.339      427.2816        0.1486      614.9735      615.1220     187.840425      19.96926
  38     1.782      427.3061        0.1965      614.0048      614.2013     186.895230      17.99498
  37     2.292      427.3463        0.2511      613.0528      613.3040     185.957641      15.52892
  36     2.964      427.4171        0.3221      612.0158      612.3379     184.920856      13.01478
  35     3.853      427.5354        0.4152      610.8743      611.2894     183.754001      11.07368
  34     5.035      427.7173        0.5380      609.6216      610.1596     182.442306       9.37020
  33     6.613      427.9732        0.7010      608.2560      608.9570     180.983771       7.79733
  32     8.786      428.3067        0.9197      606.7589      607.6786     179.371894       6.25995
  31     11.80      428.7388        1.2312      605.0114      606.2426     177.503755       5.23020
  30     15.07      429.1504        1.5635      603.4327      604.9962     175.845761       4.28062
  29     18.79      429.5686        1.9374      601.8659      603.8033     174.234668       3.65284
  28     23.16      430.0032        2.3720      600.2359      602.6079     172.604663       3.15190
  27     28.12      430.4371        2.8666      598.5624      601.4290     170.991884       2.74162
  26     33.73      430.8304        3.4180      596.9014      600.3194     169.488988       2.25964
  25     40.54      431.1981        4.0819      595.1136      599.1955     167.997410       1.85047
  24     48.69      431.5374        4.8786      593.1646      598.0431     166.505761       1.54362
  23     57.69      431.8091        5.7495      591.2114      596.9609     165.151799       1.26914
  22     68.43      432.0232        6.7813      589.0761      595.8574     163.834254       1.03577
  21     81.20      432.1262        8.0048      586.7718      594.7766     162.650412       0.78226
  20     96.49      432.1079        9.4534      584.2494      593.7028     161.594858       0.58259
  19     114.6      432.0255       11.1577      581.3946      592.5522     160.526698       0.49876
  18     136.5      431.8821       13.1534      578.1415      591.2949     159.412855       0.42830
  17     162.9      431.6720       15.4958      574.4024      589.8982     158.226148       0.37932
  16     196.4      431.3093       18.4834      569.7515      588.2349     156.925578       0.32737
  15     218.7      431.0408       20.4154      566.6996      587.1150     156.074228       0.32323
  14     243.0      430.7382       22.4881      563.2755      585.7636     155.025351       0.36379
  13     269.0      430.4000       24.7030      559.3963      584.0993     153.699351       0.43015
  12     297.5      430.0268       27.0611      555.0561      582.1172     152.090438       0.47719
  11     328.5      429.6264       29.5688      550.2867      579.8554     150.229089       0.50610
  10     361.9      429.2011       32.2224      545.0419      577.2643     148.063171       0.54800
   9     398.1      428.7530       35.0269      539.2736      574.3005     145.547454       0.58611
   8     437.6      428.2888       37.9817      532.9434      570.9251     142.636259       0.62243
   7     480.5      427.8136       41.0853      526.0906      567.1760     139.362340       0.64299
   6     533.0      427.2693       44.8189      517.5397      562.3586     135.089332       0.68739
   5     589.8      426.7510       48.7402      508.0459      556.7861     130.035067       0.75022
   4     651.6      426.3187       52.8421      497.2030      550.0451     123.726416       0.86273
   3     718.7      426.0447       57.1178      485.2780      542.3958     116.351157       0.92687
   2     792.3      426.0804       61.5498      472.2946      533.8444     107.763999       0.98485
   1     891.5      426.9257       67.3012      454.9103      522.2116      95.285875       1.06183
   0    1013.0      429.7861       73.8872      435.0494      508.9366      79.150527       1.12036



 Wavenumbers:  2600. -  3250. cm-1, ATM      1
 LEVEL PRESSURE   UPWARD FLUX   DIFDOWN FLUX  DIRDOWN FLUX  DOWNWARD FLUX   NET FLUX    HEATING RATE
          mb          W/m2          W/m2          W/m2        W/m2          W/m2       degree/day
  51    .06700        0.0453        0.0000        5.4450        5.4450       5.399715       0.00000
  50    .07753        0.0453        0.0000        5.4450        5.4450       5.399707       0.00640
  49    .09103        0.0453        0.0000        5.4450        5.4450       5.399697       0.00627
  48    0.1069        0.0453        0.0000        5.4450        5.4450       5.399686       0.00613
  47    0.1255        0.0453        0.0000        5.4450        5.4450       5.399672       0.00599
  46    0.1487        0.0453        0.0000        5.4450        5.4450       5.399656       0.00608
  45    0.1794        0.0453        0.0000        5.4450        5.4450       5.399633       0.00625
  44    0.2165        0.0453        0.0000        5.4449        5.4449       5.399606       0.00612
  43    0.2613        0.0453        0.0000        5.4449        5.4449       5.399574       0.00600
  42    0.3336        0.0453        0.0000        5.4448        5.4448       5.399521       0.00617
  41    0.4307        0.0453        0.0000        5.4448        5.4448       5.399450       0.00620
  40    0.5894        0.0453        0.0000        5.4446        5.4446       5.399330       0.00637
  39     1.339        0.0453        0.0000        5.4439        5.4439       5.398623       0.00797
  38     1.782        0.0453        0.0000        5.4434        5.4434       5.398080       0.01034
  37     2.292        0.0453        0.0000        5.4427        5.4427       5.397364       0.01186
  36     2.964        0.0453        0.0000        5.4416        5.4416       5.396325       0.01304
  35     3.853        0.0453        0.0000        5.4402        5.4402       5.394848       0.01402
  34     5.035        0.0453        0.0000        5.4381        5.4381       5.392793       0.01468
  33     6.613        0.0453        0.0000        5.4353        5.4353       5.390012       0.01487
  32     8.786        0.0453        0.0000        5.4317        5.4317       5.386380       0.01411
  31     11.80        0.0453        0.0000        5.4269        5.4269       5.381600       0.01338
  30     15.07        0.0453        0.0000        5.4224        5.4224       5.377073       0.01169
  29     18.79        0.0453        0.0000        5.4180        5.4180       5.372662       0.01000
  28     23.16        0.0453        0.0000        5.4135        5.4135       5.368176       0.00867
  27     28.12        0.0453        0.0000        5.4088        5.4088       5.363530       0.00790
  26     33.73        0.0453        0.0000        5.4036        5.4036       5.358290       0.00788
  25     40.54        0.0453        0.0000        5.3966        5.3967       5.351351       0.00861
  24     48.69        0.0453        0.0000        5.3872        5.3872       5.341876       0.00980
  23     57.69        0.0453        0.0000        5.3754        5.3754       5.330096       0.01104
  22     68.43        0.0453        0.0000        5.3599        5.3599       5.314613       0.01217
  21     81.20        0.0453        0.0000        5.3401        5.3401       5.294787       0.01310
  20     96.49        0.0453        0.0000        5.3155        5.3155       5.270231       0.01355
  19     114.6        0.0453        0.0000        5.2860        5.2860       5.240744       0.01377
  18     136.5        0.0453        0.0000        5.2518        5.2518       5.206540       0.01315
  17     162.9        0.0453        0.0001        5.2134        5.2135       5.168149       0.01227
  16     196.4        0.0453        0.0001        5.1686        5.1687       5.123377       0.01127
  15     218.7        0.0453        0.0001        5.1420        5.1421       5.096737       0.01011
  14     243.0        0.0453        0.0001        5.1148        5.1149       5.069539       0.00943
  13     269.0        0.0453        0.0001        5.0864        5.0865       5.041123       0.00922
  12     297.5        0.0454        0.0001        5.0555        5.0556       5.010199       0.00917
  11     328.5        0.0454        0.0001        5.0214        5.0216       4.976159       0.00926
  10     361.9        0.0454        0.0001        4.9835        4.9836       4.938137       0.00962
   9     398.1        0.0455        0.0001        4.9403        4.9405       4.894951       0.01006
   8     437.6        0.0456        0.0001        4.8889        4.8890       4.843434       0.01101
   7     480.5        0.0457        0.0002        4.8268        4.8270       4.781279       0.01221
   6     533.0        0.0459        0.0002        4.7387        4.7389       4.693014       0.01420
   5     589.8        0.0462        0.0002        4.6264        4.6265       4.580383       0.01672
   4     651.6        0.0466        0.0002        4.4775        4.4777       4.431176       0.02040
   3     718.7        0.0471        0.0002        4.2914        4.2916       4.244437       0.02347
   2     792.3        0.0480        0.0002        4.0694        4.0696       4.021574       0.02556
   1     891.5        0.0498        0.0002        3.7598        3.7600       3.710183       0.02650
   0    1013.0        0.0535        0.0002        3.4062        3.4064       3.352957       0.02480



 Wavenumbers:  3250. -  4000. cm-1, ATM      1
 LEVEL PRESSURE   UPWARD FLUX   DIFDOWN FLUX  DIRDOWN FLUX  DOWNWARD FLUX   NET FLUX    HEATING RATE
          mb          W/m2          W/m2          W/m2        W/m2          W/m2       degree/day
  51    .06700        0.0114        0.0000        9.1795        9.1795       9.168131       0.00000
  50    .07753        0.0114        0.0000        9.1748        9.1748       9.163444       3.75641
  49    .09103        0.0114        0.0000        9.1716        9.1716       9.160234       2.00613
  48    0.1069        0.0114        0.0000        9.1693        9.1693       9.157896       1.24463
  47    0.1255        0.0114        0.0000        9.1672        9.1672       9.155828       0.93773
  46    0.1487        0.0114        0.0000        9.1650        9.1650       9.153608       0.80912
  45    0.1794        0.0114        0.0000        9.1624        9.1624       9.150997       0.71680
  44    0.2165        0.0114        0.0000        9.1598        9.1598       9.148363       0.59922
  43    0.2613        0.0114        0.0000        9.1571        9.1571       9.145712       0.49972
  42    0.3336        0.0114        0.0000        9.1535        9.1535       9.142061       0.42565
  41    0.4307        0.0114        0.0000        9.1494        9.1494       9.137994       0.35359
  40    0.5894        0.0114        0.0000        9.1435        9.1435       9.132107       0.31309
  39     1.339        0.0114        0.0000        9.1204        9.1204       9.109040       0.25969
  38     1.782        0.0114        0.0000        9.1100        9.1100       9.098574       0.19925
  37     2.292        0.0114        0.0000        9.0998        9.0998       9.088434       0.16795
  36     2.964        0.0114        0.0000        9.0884        9.0884       9.077004       0.14348
  35     3.853        0.0114        0.0000        9.0749        9.0749       9.063502       0.12814
  34     5.035        0.0114        0.0000        9.0580        9.0580       9.046621       0.12059
  33     6.613        0.0114        0.0000        9.0357        9.0357       9.024285       0.11941
  32     8.786        0.0114        0.0000        9.0045        9.0045       8.993102       0.12110
  31     11.80        0.0114        0.0000        8.9577        8.9578       8.946370       0.13083
  30     15.07        0.0114        0.0000        8.9055        8.9055       8.894151       0.13482
  29     18.79        0.0114        0.0000        8.8450        8.8450       8.833673       0.13712
  28     23.16        0.0114        0.0000        8.7743        8.7743       8.762982       0.13669
  27     28.12        0.0114        0.0000        8.6959        8.6959       8.684581       0.13328
  26     33.73        0.0114        0.0000        8.6138        8.6139       8.602516       0.12339
  25     40.54        0.0113        0.0001        8.5238        8.5239       8.512509       0.11166
  24     48.69        0.0113        0.0001        8.4278        8.4278       8.416497       0.09936
  23     57.69        0.0113        0.0001        8.3329        8.3330       8.321667       0.08889
  22     68.43        0.0113        0.0001        8.2272        8.2273       8.215993       0.08307
  21     81.20        0.0113        0.0001        8.1052        8.1053       8.094003       0.08061
  20     96.49        0.0113        0.0001        7.9633        7.9634       7.952136       0.07830
  19     114.6        0.0113        0.0001        7.8011        7.8013       7.790013       0.07570
  18     136.5        0.0112        0.0002        7.6230        7.6232       7.611959       0.06847
  17     162.9        0.0112        0.0002        7.4291        7.4292       7.418052       0.06198
  16     196.4        0.0112        0.0002        7.1966        7.1968       7.185689       0.05849
  15     218.7        0.0111        0.0002        7.0331        7.0334       7.022240       0.06206
  14     243.0        0.0111        0.0003        6.8230        6.8232       6.812125       0.07288
  13     269.0        0.0111        0.0003        6.5413        6.5415       6.530462       0.09137
  12     297.5        0.0111        0.0003        6.2248        6.2251       6.214010       0.09386
  11     328.5        0.0110        0.0003        5.8996        5.8999       5.888865       0.08841
  10     361.9        0.0110        0.0003        5.5606        5.5610       5.549934       0.08575
   9     398.1        0.0110        0.0003        5.1883        5.1886       5.177576       0.08675
   8     437.6        0.0110        0.0003        4.7712        4.7716       4.760552       0.08916
   7     480.5        0.0110        0.0003        4.3336        4.3340       4.322915       0.08595
   6     533.0        0.0111        0.0003        3.8334        3.8338       3.822666       0.08047
   5     589.8        0.0112        0.0003        3.3421        3.3424       3.331190       0.07295
   4     651.6        0.0114        0.0003        2.8359        2.8362       2.824820       0.06925
   3     718.7        0.0118        0.0003        2.3447        2.3450       2.333128       0.06179
   2     792.3        0.0127        0.0002        1.8697        1.8699       1.857291       0.05457
   1     891.5        0.0148        0.0002        1.3212        1.3214       1.306631       0.04686
   0    1013.0        0.0210        0.0001        0.8094        0.8096       0.788589       0.03597



 Wavenumbers:  4000. -  4650. cm-1, ATM      1
 LEVEL PRESSURE   UPWARD FLUX   DIFDOWN FLUX  DIRDOWN FLUX  DOWNWARD FLUX   NET FLUX    HEATING RATE
          mb          W/m2          W/m2          W/m2        W/m2          W/m2       degree/day
  51    .06700        1.5141        0.0000       10.7795       10.7795       9.265474       0.00000
  50    .07753        1.5141        0.0000       10.7795       10.7795       9.265473       0.00082
  49    .09103        1.5141        0.0000       10.7795       10.7795       9.265471       0.00080
  48    0.1069        1.5141        0.0000       10.7795       10.7795       9.265470       0.00079
  47    0.1255        1.5141        0.0000       10.7795       10.7795       9.265468       0.00077
  46    0.1487        1.5141        0.0000       10.7795       10.7795       9.265466       0.00078
  45    0.1794        1.5141        0.0000       10.7795       10.7795       9.265463       0.00080
  44    0.2165        1.5141        0.0000       10.7795       10.7795       9.265460       0.00079
  43    0.2613        1.5141        0.0000       10.7795       10.7795       9.265455       0.00077
  42    0.3336        1.5141        0.0000       10.7795       10.7795       9.265449       0.00079
  41    0.4307        1.5141        0.0000       10.7795       10.7795       9.265439       0.00080
  40    0.5894        1.5141        0.0000       10.7795       10.7795       9.265424       0.00082
  39     1.339        1.5141        0.0000       10.7794       10.7794       9.265332       0.00104
  38     1.782        1.5141        0.0000       10.7793       10.7793       9.265260       0.00137
  37     2.292        1.5141        0.0000       10.7792       10.7792       9.265163       0.00161
  36     2.964        1.5141        0.0000       10.7791       10.7791       9.265018       0.00182
  35     3.853        1.5141        0.0000       10.7788       10.7789       9.264803       0.00204
  34     5.035        1.5141        0.0000       10.7785       10.7785       9.264487       0.00226
  33     6.613        1.5141        0.0000       10.7780       10.7781       9.264021       0.00249
  32     8.786        1.5140        0.0000       10.7773       10.7774       9.263334       0.00267
  31     11.80        1.5140        0.0000       10.7762       10.7763       9.262255       0.00302
  30     15.07        1.5140        0.0001       10.7750       10.7750       9.260988       0.00327
  29     18.79        1.5140        0.0001       10.7734       10.7735       9.259456       0.00347
  28     23.16        1.5140        0.0001       10.7715       10.7716       9.257553       0.00368
  27     28.12        1.5140        0.0001       10.7692       10.7693       9.255250       0.00392
  26     33.73        1.5140        0.0001       10.7663       10.7664       9.252408       0.00427
  25     40.54        1.5140        0.0002       10.7624       10.7626       9.248553       0.00478
  24     48.69        1.5140        0.0002       10.7573       10.7575       9.243414       0.00532
  23     57.69        1.5141        0.0002       10.7512       10.7514       9.237320       0.00571
  22     68.43        1.5141        0.0003       10.7435       10.7438       9.229680       0.00601
  21     81.20        1.5142        0.0003       10.7341       10.7345       9.220269       0.00622
  20     96.49        1.5143        0.0004       10.7227       10.7231       9.208818       0.00632
  19     114.6        1.5144        0.0004       10.7090       10.7094       9.194963       0.00647
  18     136.5        1.5147        0.0005       10.6924       10.6929       9.178274       0.00642
  17     162.9        1.5150        0.0006       10.6724       10.6730       9.158075       0.00646
  16     196.4        1.5154        0.0007       10.6460       10.6468       9.131340       0.00673
  15     218.7        1.5158        0.0008       10.6281       10.6289       9.113085       0.00693
  14     243.0        1.5163        0.0009       10.6073       10.6083       9.091948       0.00733
  13     269.0        1.5170        0.0010       10.5830       10.5840       9.067011       0.00809
  12     297.5        1.5178        0.0011       10.5538       10.5549       9.037098       0.00887
  11     328.5        1.5189        0.0012       10.5196       10.5208       9.001937       0.00956
  10     361.9        1.5203        0.0014       10.4799       10.4813       8.960988       0.01036
   9     398.1        1.5220        0.0015       10.4337       10.4352       8.913162       0.01114
   8     437.6        1.5242        0.0016       10.3790       10.3806       8.856396       0.01214
   7     480.5        1.5270        0.0018       10.3138       10.3156       8.788628       0.01331
   6     533.0        1.5310        0.0020       10.2227       10.2246       8.693590       0.01529
   5     589.8        1.5365        0.0021       10.1072       10.1093       8.572844       0.01792
   4     651.6        1.5441        0.0023        9.9543        9.9567       8.412556       0.02192
   3     718.7        1.5544        0.0025        9.7665        9.7690       8.214601       0.02488
   2     792.3        1.5692        0.0027        9.5454        9.5481       7.978943       0.02703
   1     891.5        1.5983        0.0030        9.2274        9.2303       7.632084       0.02952
   0    1013.0        1.6555        0.0032        8.8080        8.8112       7.155709       0.03308



 Wavenumbers:  4650. -  5150. cm-1, ATM      1
 LEVEL PRESSURE   UPWARD FLUX   DIFDOWN FLUX  DIRDOWN FLUX  DOWNWARD FLUX   NET FLUX    HEATING RATE
          mb          W/m2          W/m2          W/m2        W/m2          W/m2       degree/day
  51    .06700        0.3830        0.0000       10.2033       10.2033       9.820365       0.00000
  50    .07753        0.3830        0.0000       10.2031       10.2031       9.820135       0.18423
  49    .09103        0.3830        0.0000       10.2028       10.2028       9.819847       0.17964
  48    0.1069        0.3830        0.0000       10.2025       10.2025       9.819519       0.17480
  47    0.1255        0.3830        0.0000       10.2021       10.2021       9.819144       0.16989
  46    0.1487        0.3830        0.0000       10.2017       10.2017       9.818675       0.17098
  45    0.1794        0.3830        0.0000       10.2010       10.2010       9.818041       0.17407
  44    0.2165        0.3830        0.0000       10.2003       10.2003       9.817300       0.16849
  43    0.2613        0.3830        0.0000       10.1994       10.1994       9.816437       0.16278
  42    0.3336        0.3830        0.0000       10.1980       10.1980       9.815039       0.16292
  41    0.4307        0.3830        0.0000       10.1962       10.1962       9.813244       0.15613
  40    0.5894        0.3830        0.0000       10.1934       10.1934       9.810439       0.14914
  39     1.339        0.3830        0.0000       10.1821       10.1821       9.799121       0.12743
  38     1.782        0.3830        0.0000       10.1767       10.1767       9.793719       0.10284
  37     2.292        0.3830        0.0000       10.1713       10.1714       9.788385       0.08834
  36     2.964        0.3830        0.0000       10.1655       10.1656       9.782591       0.07273
  35     3.853        0.3830        0.0000       10.1594       10.1595       9.776505       0.05776
  34     5.035        0.3830        0.0000       10.1532       10.1532       9.770288       0.04440
  33     6.613        0.3829        0.0000       10.1468       10.1469       9.763937       0.03396
  32     8.786        0.3829        0.0000       10.1399       10.1400       9.757019       0.02687
  31     11.80        0.3829        0.0001       10.1309       10.1310       9.748075       0.02504
  30     15.07        0.3829        0.0001       10.1211       10.1212       9.738291       0.02526
  29     18.79        0.3829        0.0001       10.1092       10.1093       9.726394       0.02697
  28     23.16        0.3829        0.0001       10.0940       10.0941       9.711230       0.02932
  27     28.12        0.3829        0.0002       10.0750       10.0752       9.692312       0.03216
  26     33.73        0.3829        0.0002       10.0521       10.0523       9.669432       0.03440
  25     40.54        0.3828        0.0002       10.0224       10.0226       9.639807       0.03675
  24     48.69        0.3828        0.0003        9.9845        9.9848       9.601994       0.03913
  23     57.69        0.3828        0.0003        9.9414        9.9417       9.558867       0.04042
  22     68.43        0.3828        0.0004        9.8891        9.8895       9.506641       0.04106
  21     81.20        0.3828        0.0004        9.8272        9.8277       9.444858       0.04082
  20     96.49        0.3828        0.0005        9.7561        9.7566       9.373758       0.03924
  19     114.6        0.3829        0.0006        9.6769        9.6776       9.294685       0.03692
  18     136.5        0.3829        0.0007        9.5915        9.5922       9.209259       0.03285
  17     162.9        0.3831        0.0009        9.5005        9.5014       9.118331       0.02906
  16     196.4        0.3833        0.0010        9.3959        9.3969       9.013635       0.02635
  15     218.7        0.3834        0.0011        9.3320        9.3331       8.949709       0.02427
  14     243.0        0.3837        0.0012        9.2645        9.2657       8.882069       0.02346
  13     269.0        0.3840        0.0014        9.1918        9.1932       8.809235       0.02363
  12     297.5        0.3843        0.0015        9.1119        9.1134       8.729075       0.02377
  11     328.5        0.3848        0.0016        9.0232        9.0249       8.640032       0.02421
  10     361.9        0.3854        0.0018        8.9239        8.9257       8.540283       0.02524
   9     398.1        0.3862        0.0020        8.8123        8.8142       8.428002       0.02616
   8     437.6        0.3872        0.0021        8.6862        8.6883       8.301059       0.02714
   7     480.5        0.3885        0.0023        8.5445        8.5468       8.158321       0.02803
   6     533.0        0.3904        0.0025        8.3606        8.3631       7.972681       0.02986
   5     589.8        0.3930        0.0027        8.1520        8.1547       7.761635       0.03133
   4     651.6        0.3965        0.0029        7.9157        7.9185       7.522034       0.03277
   3     718.7        0.4013        0.0031        7.6501        7.6532       7.251866       0.03395
   2     792.3        0.4079        0.0033        7.3568        7.3600       6.952114       0.03438
   1     891.5        0.4201        0.0035        6.9580        6.9615       6.541374       0.03495
   0    1013.0        0.4419        0.0037        6.4963        6.5000       6.058089       0.03356



 Wavenumbers:  5150. -  6150. cm-1, ATM      1
 LEVEL PRESSURE   UPWARD FLUX   DIFDOWN FLUX  DIRDOWN FLUX  DOWNWARD FLUX   NET FLUX    HEATING RATE
          mb          W/m2          W/m2          W/m2        W/m2          W/m2       degree/day
  51    .06700        3.1606        0.0000       25.5798       25.5798      22.419183       0.00000
  50    .07753        3.1606        0.0000       25.5798       25.5798      22.419177       0.00433
  49    .09103        3.1606        0.0000       25.5798       25.5798      22.419170       0.00439
  48    0.1069        3.1606        0.0000       25.5798       25.5798      22.419162       0.00445
  47    0.1255        3.1606        0.0000       25.5798       25.5798      22.419152       0.00451
  46    0.1487        3.1606        0.0000       25.5798       25.5798      22.419139       0.00475
  45    0.1794        3.1606        0.0000       25.5798       25.5798      22.419121       0.00505
  44    0.2165        3.1606        0.0000       25.5797       25.5797      22.419098       0.00513
  43    0.2613        3.1606        0.0000       25.5797       25.5797      22.419070       0.00520
  42    0.3336        3.1606        0.0000       25.5796       25.5797      22.419023       0.00550
  41    0.4307        3.1606        0.0000       25.5796       25.5796      22.418959       0.00558
  40    0.5894        3.1606        0.0000       25.5795       25.5795      22.418851       0.00573
  39     1.339        3.1606        0.0000       25.5789       25.5789      22.418325       0.00593
  38     1.782        3.1606        0.0000       25.5786       25.5786      22.418012       0.00596
  37     2.292        3.1606        0.0001       25.5782       25.5782      22.417651       0.00597
  36     2.964        3.1606        0.0001       25.5777       25.5778      22.417185       0.00585
  35     3.853        3.1606        0.0001       25.5770       25.5772      22.416580       0.00575
  34     5.035        3.1606        0.0001       25.5762       25.5763      22.415781       0.00571
  33     6.613        3.1605        0.0002       25.5751       25.5752      22.414713       0.00571
  32     8.786        3.1605        0.0002       25.5736       25.5738      22.413280       0.00557
  31     11.80        3.1605        0.0003       25.5714       25.5717      22.411247       0.00569
  30     15.07        3.1604        0.0004       25.5691       25.5695      22.409094       0.00556
  29     18.79        3.1604        0.0005       25.5666       25.5671      22.406714       0.00540
  28     23.16        3.1604        0.0006       25.5637       25.5644      22.403992       0.00526
  27     28.12        3.1603        0.0008       25.5605       25.5613      22.400939       0.00519
  26     33.73        3.1603        0.0009       25.5570       25.5579      22.397597       0.00502
  25     40.54        3.1603        0.0011       25.5528       25.5539      22.393630       0.00492
  24     48.69        3.1602        0.0013       25.5479       25.5492      22.388981       0.00481
  23     57.69        3.1602        0.0015       25.5426       25.5442      22.383957       0.00471
  22     68.43        3.1602        0.0018       25.5365       25.5383      22.378062       0.00463
  21     81.20        3.1603        0.0022       25.5292       25.5314      22.371095       0.00460
  20     96.49        3.1603        0.0026       25.5205       25.5231      22.362747       0.00461
  19     114.6        3.1604        0.0031       25.5099       25.5130      22.352635       0.00472
  18     136.5        3.1605        0.0037       25.4971       25.5007      22.340257       0.00476
  17     162.9        3.1606        0.0043       25.4782       25.4825      22.321899       0.00587
  16     196.4        3.1608        0.0052       25.4384       25.4436      22.282812       0.00984
  15     218.7        3.1610        0.0058       25.3784       25.3843      22.223294       0.02260
  14     243.0        3.1611        0.0064       25.2634       25.2699      22.108715       0.03974
  13     269.0        3.1614        0.0071       25.0877       25.0948      21.933379       0.05688
  12     297.5        3.1617        0.0078       24.8437       24.8515      21.689714       0.07227
  11     328.5        3.1622        0.0085       24.5237       24.5322      21.370035       0.08692
  10     361.9        3.1628        0.0092       24.1240       24.1332      20.970434       0.10110
   9     398.1        3.1635        0.0100       23.6642       23.6741      20.510608       0.10713
   8     437.6        3.1646        0.0107       23.1549       23.1656      20.001074       0.10894
   7     480.5        3.1660        0.0115       22.5903       22.6018      19.435854       0.11101
   6     533.0        3.1682        0.0124       21.8293       21.8417      18.673452       0.12265
   5     589.8        3.1717        0.0132       20.9138       20.9270      17.755249       0.13629
   4     651.6        3.1777        0.0139       19.8060       19.8199      16.642185       0.15221
   3     718.7        3.1878        0.0145       18.6107       18.6252      15.437459       0.15140
   2     792.3        3.2057        0.0150       17.3896       17.4047      14.198999       0.14204
   1     891.5        3.2495        0.0157       16.0291       16.0448      12.795332       0.11945
   0    1013.0        3.3655        0.0167       14.8983       14.9150      11.549478       0.08651



 Wavenumbers:  6150. -  7700. cm-1, ATM      1
 LEVEL PRESSURE   UPWARD FLUX   DIFDOWN FLUX  DIRDOWN FLUX  DOWNWARD FLUX   NET FLUX    HEATING RATE
          mb          W/m2          W/m2          W/m2        W/m2          W/m2       degree/day
  51    .06700        5.8401        0.0000       47.3108       47.3108      41.470784       0.00000
  50    .07753        5.8401        0.0000       47.3108       47.3108      41.470762       0.01730
  49    .09103        5.8401        0.0000       47.3108       47.3108      41.470735       0.01712
  48    0.1069        5.8401        0.0000       47.3108       47.3108      41.470703       0.01692
  47    0.1255        5.8401        0.0000       47.3107       47.3107      41.470666       0.01673
  46    0.1487        5.8401        0.0000       47.3107       47.3107      41.470619       0.01716
  45    0.1794        5.8401        0.0000       47.3106       47.3106      41.470554       0.01783
  44    0.2165        5.8400        0.0000       47.3105       47.3105      41.470476       0.01767
  43    0.2613        5.8400        0.0000       47.3104       47.3104      41.470383       0.01752
  42    0.3336        5.8400        0.0000       47.3102       47.3103      41.470228       0.01811
  41    0.4307        5.8400        0.0000       47.3100       47.3100      41.470020       0.01806
  40    0.5894        5.8400        0.0001       47.3096       47.3097      41.469678       0.01820
  39     1.339        5.8399        0.0001       47.3078       47.3080      41.468048       0.01835
  38     1.782        5.8399        0.0002       47.3068       47.3070      41.467093       0.01819
  37     2.292        5.8398        0.0003       47.3056       47.3058      41.465994       0.01820
  36     2.964        5.8398        0.0003       47.3040       47.3044      41.464566       0.01793
  35     3.853        5.8397        0.0004       47.3020       47.3024      41.462700       0.01771
  34     5.035        5.8396        0.0006       47.2993       47.2998      41.460241       0.01756
  33     6.613        5.8394        0.0007       47.2957       47.2964      41.456980       0.01743
  32     8.786        5.8392        0.0010       47.2909       47.2919      41.452628       0.01690
  31     11.80        5.8389        0.0013       47.2841       47.2854      41.446488       0.01719
  30     15.07        5.8386        0.0017       47.2769       47.2786      41.440008       0.01673
  29     18.79        5.8383        0.0021       47.2690       47.2711      41.432829       0.01628
  28     23.16        5.8379        0.0026       47.2598       47.2625      41.424614       0.01589
  27     28.12        5.8374        0.0032       47.2496       47.2528      41.415417       0.01563
  26     33.73        5.8368        0.0038       47.2384       47.2422      41.405391       0.01507
  25     40.54        5.8362        0.0046       47.2252       47.2298      41.393624       0.01460
  24     48.69        5.8354        0.0055       47.2098       47.2154      41.379930       0.01417
  23     57.69        5.8346        0.0065       47.1934       47.1999      41.365359       0.01366
  22     68.43        5.8336        0.0077       47.1743       47.1821      41.348538       0.01322
  21     81.20        5.8323        0.0092       47.1522       47.1614      41.329090       0.01285
  20     96.49        5.8309        0.0109       47.1265       47.1374      41.306516       0.01246
  19     114.6        5.8292        0.0130       47.0965       47.1094      41.280265       0.01226
  18     136.5        5.8271        0.0154       47.0614       47.0768      41.249692       0.01176
  17     162.9        5.8247        0.0183       47.0174       47.0357      41.211007       0.01237
  16     196.4        5.8215        0.0221       46.9470       46.9691      41.147559       0.01597
  15     218.7        5.8195        0.0245       46.8677       46.8922      41.072673       0.02843
  14     243.0        5.8174        0.0272       46.7217       46.7489      40.931496       0.04896
  13     269.0        5.8153        0.0300       46.4780       46.5080      40.692688       0.07747
  12     297.5        5.8132        0.0330       46.1284       46.1614      40.348183       0.10218
  11     328.5        5.8112        0.0361       45.6907       45.7268      39.915615       0.11761
  10     361.9        5.8093        0.0394       45.1265       45.1658      39.356505       0.14146
   9     398.1        5.8079        0.0427       44.4083       44.4510      38.643095       0.16621
   8     437.6        5.8072        0.0461       43.5333       43.5793      37.772128       0.18622
   7     480.5        5.8076        0.0495       42.5427       42.5922      36.784586       0.19395
   6     533.0        5.8103        0.0534       41.2665       41.3200      35.509659       0.20510
   5     589.8        5.8172        0.0572       39.7500       39.8072      33.989977       0.22557
   4     651.6        5.8329        0.0604       37.8220       37.8824      32.049580       0.26535
   3     718.7        5.8634        0.0632       35.6210       35.6842      29.820873       0.28009
   2     792.3        5.9216        0.0654       33.2326       33.2980      27.376365       0.28036
   1     891.5        6.0690        0.0676       30.2337       30.3013      24.232360       0.26754
   0    1013.0        6.4450        0.0700       27.2393       27.3093      20.864292       0.23386



 Wavenumbers:  7700. -  8050. cm-1, ATM      1
 LEVEL PRESSURE   UPWARD FLUX   DIFDOWN FLUX  DIRDOWN FLUX  DOWNWARD FLUX   NET FLUX    HEATING RATE
          mb          W/m2          W/m2          W/m2        W/m2          W/m2       degree/day
  51    .06700        5.8075        0.0000       11.1810       11.1810       5.373515       0.00000
  50    .07753        5.8075        0.0000       11.1809       11.1809       5.373494       0.01747
  49    .09103        5.8075        0.0000       11.1809       11.1809       5.373466       0.01712
  48    0.1069        5.8075        0.0000       11.1809       11.1809       5.373435       0.01676
  47    0.1255        5.8075        0.0000       11.1809       11.1809       5.373399       0.01640
  46    0.1487        5.8075        0.0000       11.1808       11.1808       5.373353       0.01664
  45    0.1794        5.8075        0.0000       11.1808       11.1808       5.373291       0.01712
  44    0.2165        5.8075        0.0000       11.1807       11.1807       5.373217       0.01680
  43    0.2613        5.8075        0.0000       11.1806       11.1806       5.373129       0.01648
  42    0.3336        5.8075        0.0000       11.1805       11.1805       5.372985       0.01687
  41    0.4307        5.8076        0.0000       11.1803       11.1804       5.372793       0.01668
  40    0.5894        5.8076        0.0000       11.1801       11.1801       5.372479       0.01666
  39     1.339        5.8079        0.0001       11.1788       11.1789       5.370997       0.01669
  38     1.782        5.8080        0.0001       11.1781       11.1782       5.370126       0.01658
  37     2.292        5.8082        0.0001       11.1772       11.1773       5.369118       0.01669
  36     2.964        5.8084        0.0002       11.1761       11.1762       5.367795       0.01661
  35     3.853        5.8087        0.0002       11.1746       11.1748       5.366046       0.01659
  34     5.035        5.8091        0.0003       11.1726       11.1729       5.363724       0.01659
  33     6.613        5.8097        0.0004       11.1699       11.1703       5.360622       0.01658
  32     8.786        5.8104        0.0005       11.1664       11.1668       5.356444       0.01623
  31     11.80        5.8114        0.0006       11.1613       11.1619       5.350470       0.01672
  30     15.07        5.8126        0.0008       11.1558       11.1566       5.344062       0.01655
  29     18.79        5.8138        0.0010       11.1496       11.1507       5.336830       0.01640
  28     23.16        5.8153        0.0013       11.1424       11.1437       5.328393       0.01631
  27     28.12        5.8170        0.0015       11.1342       11.1358       5.318761       0.01637
  26     33.73        5.8189        0.0018       11.1251       11.1269       5.308003       0.01618
  25     40.54        5.8213        0.0022       11.1141       11.1163       5.295034       0.01609
  24     48.69        5.8241        0.0027       11.1009       11.1035       5.279445       0.01613
  23     57.69        5.8272        0.0031       11.0864       11.0896       5.262380       0.01600
  22     68.43        5.8309        0.0037       11.0693       11.0731       5.242136       0.01591
  21     81.20        5.8354        0.0044       11.0491       11.0536       5.218134       0.01586
  20     96.49        5.8408        0.0052       11.0253       11.0305       5.189697       0.01570
  19     114.6        5.8473        0.0062       10.9972       11.0035       5.156164       0.01566
  18     136.5        5.8551        0.0074       10.9644       10.9718       5.116728       0.01516
  17     162.9        5.8645        0.0088       10.9259       10.9346       5.070188       0.01488
  16     196.4        5.8769        0.0105       10.8768       10.8873       5.010475       0.01503
  15     218.7        5.8851        0.0117       10.8451       10.8568       4.971616       0.01475
  14     243.0        5.8943        0.0130       10.8110       10.8239       4.929667       0.01455
  13     269.0        5.9043        0.0143       10.7745       10.7888       4.884516       0.01465
  12     297.5        5.9154        0.0158       10.7356       10.7514       4.836035       0.01438
  11     328.5        5.9276        0.0174       10.6941       10.7115       4.783964       0.01416
  10     361.9        5.9409        0.0191       10.6500       10.6691       4.728202       0.01411
   9     398.1        5.9557        0.0210       10.6031       10.6241       4.668468       0.01392
   8     437.6        5.9719        0.0230       10.5534       10.5764       4.604521       0.01367
   7     480.5        5.9898        0.0251       10.5008       10.5259       4.536096       0.01344
   6     533.0        6.0126        0.0277       10.4366       10.4644       4.451821       0.01356
   5     589.8        6.0381        0.0306       10.3681       10.3987       4.360581       0.01354
   4     651.6        6.0670        0.0336       10.2946       10.3282       4.261171       0.01359
   3     718.7        6.0999        0.0368       10.2153       10.2521       4.152275       0.01369
   2     792.3        6.1377        0.0403       10.1293       10.1696       4.031908       0.01380
   1     891.5        6.1934        0.0450       10.0104       10.0554       3.861985       0.01446
   0    1013.0        6.2683        0.0505        9.8624        9.9130       3.644647       0.01509



 Wavenumbers:  8050. - 12850. cm-1, ATM      1
 LEVEL PRESSURE   UPWARD FLUX   DIFDOWN FLUX  DIRDOWN FLUX  DOWNWARD FLUX   NET FLUX    HEATING RATE
          mb          W/m2          W/m2          W/m2        W/m2          W/m2       degree/day
  51    .06700      116.4169        0.0000      156.5418      156.5418      40.124818       0.00000
  50    .07753      116.4169        0.0000      156.5417      156.5417      40.124818      -0.00000
  49    .09103      116.4169        0.0001      156.5417      156.5417      40.124818      -0.00000
  48    0.1069      116.4169        0.0001      156.5416      156.5417      40.124818       0.00000
  47    0.1255      116.4169        0.0002      156.5415      156.5417      40.124818       0.00000
  46    0.1487      116.4169        0.0002      156.5414      156.5417      40.124818      -0.00000
  45    0.1794      116.4168        0.0003      156.5413      156.5416      40.124818       0.00000
  44    0.2165      116.4168        0.0005      156.5412      156.5416      40.124818      -0.00000
  43    0.2613      116.4168        0.0006      156.5410      156.5416      40.124818       0.00000
  42    0.3336      116.4167        0.0008      156.5407      156.5415      40.124818       0.00000
  41    0.4307      116.4166        0.0011      156.5403      156.5414      40.124818       0.00000
  40    0.5894      116.4164        0.0016      156.5397      156.5413      40.124818       0.00000
  39     1.339      116.4157        0.0038      156.5367      156.5406      40.124818      -0.00000
  38     1.782      116.4153        0.0052      156.5350      156.5401      40.124818      -0.00000
  37     2.292      116.4149        0.0067      156.5330      156.5397      40.124818      -0.00000
  36     2.964      116.4142        0.0087      156.5303      156.5390      40.124818       0.00000
  35     3.853      116.4134        0.0114      156.5268      156.5382      40.124818      -0.00000
  34     5.035      116.4123        0.0149      156.5222      156.5371      40.124818       0.00000
  33     6.613      116.4108        0.0196      156.5160      156.5356      40.124818      -0.00000
  32     8.786      116.4088        0.0260      156.5076      156.5337      40.124818       0.00000
  31     11.80      116.4060        0.0352      156.4957      156.5308      40.124818       0.00000
  30     15.07      116.4029        0.0450      156.4828      156.5278      40.124818      -0.00000
  29     18.79      116.3995        0.0561      156.4682      156.5243      40.124818      -0.00000
  28     23.16      116.3954        0.0691      156.4512      156.5203      40.124818       0.00000
  27     28.12      116.3908        0.0839      156.4317      156.5156      40.124818      -0.00000
  26     33.73      116.3856        0.1006      156.4099      156.5104      40.124818       0.00000
  25     40.54      116.3794        0.1207      156.3834      156.5042      40.124818      -0.00000
  24     48.69      116.3718        0.1451      156.3515      156.4966      40.124818      -0.00000
  23     57.69      116.3634        0.1718      156.3164      156.4883      40.124818       0.00000
  22     68.43      116.3535        0.2038      156.2746      156.4783      40.124818      -0.00000
  21     81.20      116.3416        0.2419      156.2246      156.4665      40.124818       0.00000
  20     96.49      116.3275        0.2874      156.1649      156.4523      40.124818      -0.00000
  19     114.6      116.3107        0.3415      156.0932      156.4346      40.123981       0.00039
  18     136.5      116.2907        0.4057      156.0079      156.4136      40.122939       0.00040
  17     162.9      116.2668        0.4825      155.9056      156.3880      40.121202       0.00056
  16     196.4      116.2359        0.5822      155.7703      156.3526      40.116699       0.00113
  15     218.7      116.2157        0.6479      155.6758      156.3237      40.108049       0.00328
  14     243.0      116.1940        0.7195      155.5610      156.2805      40.086460       0.00749
  13     269.0      116.1714        0.7972      155.4126      156.2097      40.038335       0.01561
  12     297.5      116.1486        0.8812      155.2132      156.0945      39.945894       0.02742
  11     328.5      116.1260        0.9722      154.9603      155.9325      39.806533       0.03789
  10     361.9      116.1047        1.0703      154.6462      155.7165      39.611848       0.04926
   9     398.1      116.0864        1.1761      154.2595      155.4356      39.349211       0.06119
   8     437.6      116.0742        1.2897      153.7859      155.0756      39.001360       0.07437
   7     480.5      116.0718        1.4115      153.2196      154.6312      38.559357       0.08681
   6     533.0      116.0886        1.5614      152.4354      153.9968      37.908259       0.10474
   5     589.8      116.1424        1.7226      151.4388      153.1614      37.019002       0.13199
   4     651.6      116.2743        1.8943      150.0674      151.9617      35.687376       0.18210
   3     718.7      116.5348        2.0759      148.2480      150.3240      33.789202       0.23855
   2     792.3      117.0306        2.2654      145.8499      148.1153      31.084709       0.31018
   1     891.5      118.2443        2.5115      141.9651      144.4766      26.232275       0.41292
   0    1013.0      120.9864        2.7937      136.8093      139.6030      18.616643       0.52879



 Wavenumbers: 12850. - 16000. cm-1, ATM      1
 LEVEL PRESSURE   UPWARD FLUX   DIFDOWN FLUX  DIRDOWN FLUX  DOWNWARD FLUX   NET FLUX    HEATING RATE
          mb          W/m2          W/m2          W/m2        W/m2          W/m2       degree/day
  51    .06700       84.7992        0.0000       98.0872       98.0872      13.288088       0.00000
  50    .07753       84.7992        0.0001       98.0864       98.0864      13.287294       0.63681
  49    .09103       84.7992        0.0002       98.0853       98.0855      13.286295       0.62405
  48    0.1069       84.7992        0.0003       98.0841       98.0843      13.285147       0.61109
  47    0.1255       84.7992        0.0004       98.0826       98.0830      13.283827       0.59848
  46    0.1487       84.7992        0.0005       98.0809       98.0814      13.282159       0.60791
  45    0.1794       84.7993        0.0008       98.0784       98.0792      13.279888       0.62346
  44    0.2165       84.7994        0.0010       98.0756       98.0766      13.277214       0.60846
  43    0.2613       84.7996        0.0013       98.0723       98.0736      13.274064       0.59376
  42    0.3336       84.7999        0.0018       98.0670       98.0688      13.268913       0.60046
  41    0.4307       84.8004        0.0024       98.0602       98.0626      13.262240       0.58026
  40    0.5894       84.8014        0.0035       98.0496       98.0530      13.251692       0.56091
  39     1.339       84.8094        0.0084       98.0043       98.0128      13.203385       0.54385
  38     1.782       84.8166        0.0113       97.9793       97.9906      13.174051       0.55848
  37     2.292       84.8272        0.0147       97.9498       97.9645      13.137288       0.60890
  36     2.964       84.8447        0.0191       97.9088       97.9279      13.083257       0.67824
  35     3.853       84.8728        0.0250       97.8503       97.8753      13.002534       0.76608
  34     5.035       84.9150        0.0327       97.7680       97.8007      12.885729       0.83441
  33     6.613       84.9739        0.0431       97.6562       97.6992      12.725390       0.85717
  32     8.786       85.0506        0.0570       97.5107       97.5677      12.517089       0.80896
  31     11.80       85.1506        0.0769       97.3179       97.3948      12.244142       0.76417
  30     15.07       85.2467        0.0983       97.1283       97.2266      11.979866       0.68231
  29     18.79       85.3451        0.1224       96.9300       97.0524      11.707279       0.61804
  28     23.16       85.4483        0.1506       96.7166       96.8671      11.418778       0.55787
  27     28.12       85.5527        0.1827       96.4935       96.6762      11.123564       0.50185
  26     33.73       85.6498        0.2187       96.2731       96.4918      10.842058       0.42325
  25     40.54       85.7444        0.2623       96.0408       96.3031      10.558622       0.35163
  24     48.69       85.8365        0.3147       95.7946       96.1093      10.272828       0.29575
  23     57.69       85.9163        0.3724       95.5573       95.9297      10.013354       0.24322
  22     68.43       85.9884        0.4411       95.3106       95.7518       9.763348       0.19654
  21     81.20       86.0427        0.5231       95.0644       95.5875       9.544817       0.14440
  20     96.49       86.0782        0.6210       94.8153       95.4363       9.358096       0.10306
  19     114.6       86.1152        0.7381       94.5412       95.2793       9.164089       0.09059
  18     136.5       86.1473        0.8769       94.2324       95.1093       8.962030       0.07770
  17     162.9       86.1750        1.0423       93.8760       94.9183       8.743267       0.06993
  16     196.4       86.1881        1.2568       93.4358       94.6926       8.504455       0.06011
  15     218.7       86.1887        1.3976       93.1534       94.5510       8.362325       0.05396
  14     243.0       86.1859        1.5507       92.8483       94.3990       8.213063       0.05177
  13     269.0       86.1796        1.7167       92.5205       94.2372       8.057657       0.05041
  12     297.5       86.1697        1.8960       92.1691       94.0651       7.895329       0.04814
  11     328.5       86.1584        2.0898       91.7909       93.8807       7.722237       0.04706
  10     361.9       86.1461        2.2984       91.3853       93.6837       7.537612       0.04671
   9     398.1       86.1332        2.5230       90.9511       93.4741       7.340898       0.04583
   8     437.6       86.1212        2.7642       90.4858       93.2501       7.128897       0.04533
   7     480.5       86.1108        3.0229       89.9881       93.0110       6.900215       0.04491
   6     533.0       86.1034        3.3414       89.3742       92.7156       6.612245       0.04633
   5     589.8       86.1049        3.6849       88.7076       92.3925       6.287555       0.04819
   4     651.6       86.1237        4.0543       87.9758       92.0301       5.906463       0.05212
   3     718.7       86.1693        4.4503       87.1712       91.6215       5.452193       0.05709
   2     792.3       86.2610        4.8726       86.2786       91.1512       4.890126       0.06446
   1     891.5       86.4807        5.4392       85.0143       90.4535       3.972786       0.07806
   0    1013.0       86.9277        6.1133       83.4249       89.5382       2.610488       0.09459



 Wavenumbers: 16000. - 22650. cm-1, ATM      1
 LEVEL PRESSURE   UPWARD FLUX   DIFDOWN FLUX  DIRDOWN FLUX  DOWNWARD FLUX   NET FLUX    HEATING RATE
          mb          W/m2          W/m2          W/m2        W/m2          W/m2       degree/day
  51    .06700      141.8058        0.0000      156.3892      156.3892      14.583470       0.00000
  50    .07753      141.8058        0.0004      156.3887      156.3891      14.583321       0.11906
  49    .09103      141.8057        0.0009      156.3879      156.3888      14.583105       0.13504
  48    0.1069      141.8057        0.0015      156.3871      156.3885      14.582816       0.15399
  47    0.1255      141.8058        0.0021      156.3861      156.3882      14.582429       0.17553
  46    0.1487      141.8058        0.0030      156.3847      156.3877      14.581858       0.20800
  45    0.1794      141.8060        0.0041      156.3828      156.3869      14.580966       0.24490
  44    0.2165      141.8062        0.0054      156.3805      156.3859      14.579756       0.27524
  43    0.2613      141.8065        0.0070      156.3776      156.3847      14.578114       0.30944
  42    0.3336      141.8073        0.0097      156.3726      156.3823      14.574993       0.36389
  41    0.4307      141.8086        0.0132      156.3657      156.3789      14.570289       0.40906
  40    0.5894      141.8112        0.0189      156.3537      156.3726      14.561316       0.47714
  39     1.339      141.8343        0.0459      156.2834      156.3293      14.495026       0.74630
  38     1.782      141.8556        0.0618      156.2324      156.2941      14.438555       1.07512
  37     2.292      141.8874        0.0801      156.1641      156.2442      14.356812       1.35387
  36     2.964      141.9403        0.1042      156.0605      156.1647      14.224387       1.66233
  35     3.853      142.0259        0.1360      155.9041      156.0401      14.014259       1.99416
  34     5.035      142.1549        0.1783      155.6774      155.8556      13.700760       2.23951
  33     6.613      142.3352        0.2346      155.3656      155.6002      13.265079       2.32915
  32     8.786      142.5700        0.3105      154.9577      155.2681      12.698144       2.20177
  31     11.80      142.8756        0.4188      154.4153      154.8340      11.958414       2.07101
  30     15.07      143.1685        0.5349      153.8804      154.4153      11.246791       1.83727
  29     18.79      143.4676        0.6659      153.3191      153.9850      10.517415       1.65372
  28     23.16      143.7803        0.8187      152.7126      153.5312       9.750997       1.48200
  27     28.12      144.0949        0.9931      152.0755      153.0686       8.973688       1.32137
  26     33.73      144.3856        1.1882      151.4409      152.6291       8.243530       1.09781
  25     40.54      144.6655        1.4236      150.7637      152.1873       7.521841       0.89534
  24     48.69      144.9337        1.7071      150.0339      151.7410       6.807326       0.73941
  23     57.69      145.1613        2.0182      149.3151      151.3334       6.172023       0.59550
  22     68.43      145.3603        2.3883      148.5476      150.9359       5.575616       0.46886
  21     81.20      145.4984        2.8290      147.7517      150.5807       5.082229       0.32602
  20     96.49      145.5712        3.3536      146.9127      150.2662       4.695030       0.21371
  19     114.6      145.6098        3.9746      145.9763      149.9510       4.341113       0.16525
  18     136.5      145.6239        4.7080      144.9088      149.6168       3.992947       0.13388
  17     162.9      145.6117        5.5772      143.6786      149.2559       3.644193       0.11148
  16     196.4      145.5334        6.6988      142.1652      148.8640       3.330593       0.07894
  15     218.7      145.4591        7.4317      141.2037      148.6354       3.176260       0.05859
  14     243.0      145.3678        8.2250      140.1760      148.4010       3.033253       0.04960
  13     269.0      145.2577        9.0808      139.0812      148.1620       2.904337       0.04182
  12     297.5      145.1280       10.0011      137.9173      147.9184       2.790404       0.03379
  11     328.5      144.9827       10.9902      136.6734      147.6637       2.680960       0.02976
  10     361.9      144.8214       12.0491      135.3489      147.3981       2.576633       0.02640
   9     398.1      144.6434       13.1818      133.9389      147.1207       2.477340       0.02313
   8     437.6      144.4491       14.3902      132.4401      146.8303       2.381196       0.02056
   7     480.5      144.2376       15.6765      130.8503      146.5268       2.289193       0.01807
   6     533.0      143.9746       17.2475      128.9147      146.1622       2.187642       0.01634
   5     589.8      143.6901       18.9258      126.8513      145.7771       2.086986       0.01494
   4     651.6      143.3855       20.7130      124.6565      145.3695       1.984041       0.01408
   3     718.7      143.0614       22.6107      122.3271      144.9378       1.876487       0.01352
   2     792.3      142.7206       24.6176      119.8622      144.4798       1.759188       0.01345
   1     891.5      142.2757       27.2842      116.5788      143.8631       1.587340       0.01462
   0    1013.0      141.7666       30.4225      112.7013      143.1238       1.357187       0.01598



 Wavenumbers: 22650. - 29000. cm-1, ATM      1
 LEVEL PRESSURE   UPWARD FLUX   DIFDOWN FLUX  DIRDOWN FLUX  DOWNWARD FLUX   NET FLUX    HEATING RATE
          mb          W/m2          W/m2          W/m2        W/m2          W/m2       degree/day
  51    .06700       58.6820        0.0000       59.0156       59.0156       0.333635       0.00000
  50    .07753       58.6819        0.0005       59.0151       59.0155       0.333635       0.00000
  49    .09103       58.6818        0.0010       59.0144       59.0154       0.333635       0.00000
  48    0.1069       58.6816        0.0017       59.0136       59.0153       0.333635      -0.00000
  47    0.1255       58.6815        0.0025       59.0127       59.0151       0.333635      -0.00000
  46    0.1487       58.6813        0.0035       59.0115       59.0149       0.333635       0.00000
  45    0.1794       58.6811        0.0048       59.0099       59.0147       0.333635       0.00000
  44    0.2165       58.6808        0.0063       59.0080       59.0144       0.333635       0.00000
  43    0.2613       58.6804        0.0082       59.0058       59.0140       0.333635      -0.00000
  42    0.3336       58.6798        0.0113       59.0022       59.0134       0.333635       0.00000
  41    0.4307       58.6790        0.0154       58.9973       59.0127       0.333635      -0.00000
  40    0.5894       58.6777        0.0220       58.9894       59.0114       0.333635       0.00000
  39     1.339       58.6717        0.0535       58.9518       59.0053       0.333635      -0.00000
  38     1.782       58.6681        0.0720       58.9297       59.0017       0.333635       0.00000
  37     2.292       58.6640        0.0934       58.9042       58.9976       0.333635      -0.00000
  36     2.964       58.6586        0.1216       58.8706       58.9922       0.333635       0.00000
  35     3.853       58.6514        0.1587       58.8264       58.9851       0.333635      -0.00000
  34     5.035       58.6419        0.2080       58.7676       58.9756       0.333635       0.00000
  33     6.613       58.6293        0.2738       58.6891       58.9629       0.333635       0.00000
  32     8.786       58.6122        0.3624       58.5834       58.9458       0.333635      -0.00000
  31     11.80       58.5878        0.4890       58.4325       58.9215       0.333635       0.00000
  30     15.07       58.5617        0.6247       58.2706       58.8953       0.333635       0.00000
  29     18.79       58.5323        0.7776       58.0882       58.8659       0.333635       0.00000
  28     23.16       58.4979        0.9559       57.8757       58.8316       0.333635       0.00000
  27     28.12       58.4588        1.1591       57.6333       58.7924       0.333635       0.00000
  26     33.73       58.4152        1.3857       57.3631       58.7488       0.333635       0.00000
  25     40.54       58.3626        1.6584       57.0379       58.6963       0.333635      -0.00000
  24     48.69       58.2996        1.9854       56.6479       58.6333       0.333635       0.00000
  23     57.69       58.2309        2.3424       56.2221       58.5645       0.333635       0.00000
  22     68.43       58.1495        2.7646       55.7186       58.4832       0.333635      -0.00000
  21     81.20       58.0534        3.2632       55.1239       58.3871       0.333635       0.00000
  20     96.49       57.9401        3.8510       54.4228       58.2738       0.333635       0.00000
  19     114.6       57.8073        4.5400       53.6010       58.1410       0.333635      -0.00000
  18     136.5       57.6522        5.3441       52.6418       57.9859       0.333635       0.00000
  17     162.9       57.4709        6.2842       51.5204       57.8045       0.333635      -0.00000
  16     196.4       57.2410        7.4752       50.0995       57.5747       0.333635       0.00000
  15     218.7       57.0933        8.2406       49.1863       57.4269       0.333635      -0.00000
  14     243.0       56.9354        9.0577       48.2114       57.2691       0.333635       0.00000
  13     269.0       56.7676        9.9261       47.1752       57.1013       0.333635       0.00000
  12     297.5       56.5900       10.8449       46.0787       56.9237       0.333635      -0.00000
  11     328.5       56.4023       11.8156       44.9203       56.7359       0.333635       0.00000
  10     361.9       56.2049       12.8354       43.7032       56.5386       0.333635      -0.00000
   9     398.1       55.9979       13.9045       42.4271       56.3316       0.333635       0.00000
   8     437.6       55.7817       15.0206       41.0947       56.1153       0.333635       0.00000
   7     480.5       55.5566       16.1813       39.7090       55.8902       0.333635      -0.00000
   6     533.0       55.2889       17.5607       38.0618       55.6225       0.333635       0.00000
   5     589.8       55.0113       18.9893       36.3557       55.3449       0.333635       0.00000
   4     651.6       54.7250       20.4607       34.5980       55.0587       0.333635      -0.00000
   3     718.7       54.4312       21.9692       32.7956       54.7648       0.333635       0.00000
   2     792.3       54.1316       23.5046       30.9606       54.4652       0.333635       0.00000
   1     891.5       53.7512       25.4501       28.6347       54.0848       0.333635      -0.00000
   0    1013.0       53.3271       27.6124       26.0484       53.6608       0.333635       0.00000



 Wavenumbers: 29000. - 38000. cm-1, ATM      1
 LEVEL PRESSURE   UPWARD FLUX   DIFDOWN FLUX  DIRDOWN FLUX  DOWNWARD FLUX   NET FLUX    HEATING RATE
          mb          W/m2          W/m2          W/m2        W/m2          W/m2       degree/day
  51    .06700        8.7676        0.0000       20.8114       20.8114      12.043770       0.00000
  50    .07753        8.7674        0.0003       20.8070       20.8074      12.039963       3.05155
  49    .09103        8.7672        0.0007       20.8009       20.8016      12.034426       3.46085
  48    0.1069        8.7669        0.0012       20.7928       20.7939      12.027016       3.94429
  47    0.1255        8.7666        0.0017       20.7820       20.7837      12.017111       4.49034
  46    0.1487        8.7663        0.0024       20.7665       20.7688      12.002548       5.30844
  45    0.1794        8.7658        0.0033       20.7424       20.7457      11.979883       6.22204
  44    0.2165        8.7653        0.0044       20.7103       20.7147      11.949361       6.94340
  43    0.2613        8.7647        0.0056       20.6675       20.6731      11.908366       7.72732
  42    0.3336        8.7638        0.0077       20.5880       20.5957      11.831805       8.92625
  41    0.4307        8.7628        0.0104       20.4722       20.4826      11.719852       9.73402
  40    0.5894        8.7612        0.0147       20.2637       20.2784      11.517169      10.77846
  39     1.339        8.7578        0.0331       19.0984       19.1315      10.373692      12.87347
  38     1.782        8.7583        0.0427       18.4394       18.4821       9.723767      12.37351
  37     2.292        8.7610        0.0530       17.7714       17.8244       9.063423      10.93703
  36     2.964        8.7675        0.0657       17.0421       17.1078       8.340299       9.07739
  35     3.853        8.7804        0.0816       16.2679       16.3495       7.569120       7.31863
  34     5.035        8.8015        0.1018       15.4803       15.5821       6.780627       5.63267
  33     6.613        8.8322        0.1276       14.7157       14.8433       6.011045       4.11418
  32     8.786        8.8728        0.1614       13.9936       14.1549       5.282099       2.83096
  31     11.80        8.9258        0.2084       13.2835       13.4920       4.566141       2.00446
  30     15.07        8.9769        0.2573       12.7394       12.9966       4.019672       1.41088
  29     18.79        9.0297        0.3114       12.2666       12.5780       3.548229       1.06890
  28     23.16        9.0858        0.3729       11.8300       12.2029       3.117094       0.83368
  27     28.12        9.1433        0.4418       11.4279       11.8697       2.726404       0.66415
  26     33.73        9.1963        0.5178       11.0695       11.5872       2.390899       0.50444
  25     40.54        9.2467        0.6085       10.7209       11.3294       2.082732       0.38232
  24     48.69        9.2942        0.7162       10.3742       11.0904       1.796176       0.29654
  23     57.69        9.3332        0.8328       10.0549       10.8877       1.554414       0.22662
  22     68.43        9.3648        0.9695        9.7327       10.7022       1.337373       0.17062
  21     81.20        9.3800        1.1309        9.4134       10.5443       1.164304       0.11436
  20     96.49        9.3769        1.3207        9.0887       10.4094       1.032556       0.07272
  19     114.6        9.3635        1.5400        8.7388       10.2788       0.915283       0.05476
  18     136.5        9.3428        1.7907        8.3549       10.1456       0.802755       0.04327
  17     162.9        9.3151        2.0765        7.9311       10.0076       0.692576       0.03522
  16     196.4        9.2682        2.4305        7.4333        9.8638       0.595595       0.02441
  15     218.7        9.2345        2.6532        7.1296        9.7828       0.548295       0.01796
  14     243.0        9.1975        2.8860        6.8161        9.7021       0.504617       0.01515
  13     269.0        9.1570        3.1280        6.4944        9.6224       0.465397       0.01272
  12     297.5        9.1132        3.3782        6.1659        9.5441       0.430823       0.01025
  11     328.5        9.0675        3.6356        5.8296        9.4652       0.397720       0.00900
  10     361.9        9.0204        3.8977        5.4889        9.3866       0.366236       0.00797
   9     398.1        8.9719        4.1639        5.1443        9.3083       0.336399       0.00695
   8     437.6        8.9226        4.4329        4.7973        9.2302       0.307637       0.00615
   7     480.5        8.8728        4.7024        4.4507        9.1531       0.280331       0.00536
   6     533.0        8.8158        5.0092        4.0571        9.0663       0.250570       0.00479
   5     589.8        8.7598        5.3112        3.6703        8.9815       0.221752       0.00428
   4     651.6        8.7054        5.6061        3.2928        8.8990       0.193552       0.00386
   3     718.7        8.6534        5.8910        2.9284        8.8193       0.165929       0.00347
   2     792.3        8.6046        6.1623        2.5813        8.7435       0.138888       0.00310
   1     891.5        8.5489        6.4810        2.1734        8.6544       0.105498       0.00284
   0    1013.0        8.4958        6.8007        1.7638        8.5645       0.068616       0.00256



 Wavenumbers: 38000. - 50000. cm-1, ATM      1
 LEVEL PRESSURE   UPWARD FLUX   DIFDOWN FLUX  DIRDOWN FLUX  DOWNWARD FLUX   NET FLUX    HEATING RATE
          mb          W/m2          W/m2          W/m2        W/m2          W/m2       degree/day
  51    .06700        0.0061        0.0000        1.2836        1.2836       1.277518       0.00000
  50    .07753        0.0061        0.0001        1.2812        1.2812       1.275183       1.87150
  49    .09103        0.0060        0.0002        1.2777        1.2778       1.271851       2.08247
  48    0.1069        0.0059        0.0002        1.2731        1.2734       1.267473       2.33059
  47    0.1255        0.0058        0.0004        1.2672        1.2675       1.261717       2.60908
  46    0.1487        0.0057        0.0005        1.2586        1.2591       1.253391       3.03499
  45    0.1794        0.0055        0.0007        1.2455        1.2462       1.240623       3.50520
  44    0.2165        0.0054        0.0009        1.2282        1.2291       1.223697       3.85037
  43    0.2613        0.0052        0.0011        1.2054        1.2065       1.201348       4.21261
  42    0.3336        0.0049        0.0015        1.1639        1.1654       1.160524       4.75970
  41    0.4307        0.0045        0.0020        1.1051        1.1070       1.102565       5.03943
  40    0.5894        0.0039        0.0026        1.0039        1.0064       1.002524       5.32007
  39     1.339        0.0022        0.0035        0.5438        0.5473       0.545105       5.14971
  38     1.782        0.0016        0.0032        0.3635        0.3666       0.365006       3.42879
  37     2.292        0.0012        0.0027        0.2356        0.2383       0.237058       2.11916
  36     2.964        0.0009        0.0022        0.1455        0.1477       0.146786       1.13318
  35     3.853        0.0006        0.0017        0.0858        0.0875       0.086906       0.56828
  34     5.035        0.0004        0.0013        0.0488        0.0501       0.049701       0.26578
  33     6.613        0.0003        0.0010        0.0273        0.0282       0.027974       0.11615
  32     8.786        0.0002        0.0007        0.0144        0.0151       0.014928       0.05067
  31     11.80        0.0001        0.0004        0.0065        0.0070       0.006903       0.02247
  30     15.07        0.0000        0.0003        0.0031        0.0034       0.003329       0.00923
  29     18.79        0.0000        0.0002        0.0014        0.0016       0.001583       0.00396
  28     23.16        0.0000        0.0001        0.0006        0.0007       0.000720       0.00167
  27     28.12        0.0000        0.0001        0.0003        0.0003       0.000317       0.00069
  26     33.73        0.0000        0.0000        0.0001        0.0001       0.000140       0.00027
  25     40.54        0.0000        0.0000        0.0000        0.0001       0.000057       0.00010
  24     48.69        0.0000        0.0000        0.0000        0.0000       0.000021       0.00004
  23     57.69        0.0000        0.0000        0.0000        0.0000       0.000008       0.00001
  22     68.43        0.0000        0.0000        0.0000        0.0000       0.000003       0.00000
  21     81.20        0.0000        0.0000        0.0000        0.0000       0.000001       0.00000
  20     96.49        0.0000        0.0000        0.0000        0.0000       0.000000       0.00000
  19     114.6        0.0000        0.0000        0.0000        0.0000       0.000000       0.00000
  18     136.5        0.0000        0.0000        0.0000        0.0000       0.000000       0.00000
  17     162.9        0.0000        0.0000        0.0000        0.0000       0.000000       0.00000
  16     196.4        0.0000        0.0000        0.0000        0.0000       0.000000       0.00000
  15     218.7        0.0000        0.0000        0.0000        0.0000       0.000000       0.00000
  14     243.0        0.0000        0.0000        0.0000        0.0000       0.000000       0.00000
  13     269.0        0.0000        0.0000        0.0000        0.0000       0.000000       0.00000
  12     297.5        0.0000        0.0000        0.0000        0.0000       0.000000       0.00000
  11     328.5        0.0000        0.0000        0.0000        0.0000       0.000000       0.00000
  10     361.9        0.0000        0.0000        0.0000        0.0000       0.000000       0.00000
   9     398.1        0.0000        0.0000        0.0000        0.0000       0.000000       0.00000
   8     437.6        0.0000        0.0000        0.0000        0.0000       0.000000       0.00000
   7     480.5        0.0000        0.0000        0.0000        0.0000       0.000000       0.00000
   6     533.0        0.0000        0.0000        0.0000        0.0000       0.000000       0.00000
   5     589.8        0.0000        0.0000        0.0000        0.0000       0.000000       0.00000
   4     651.6        0.0000        0.0000        0.0000        0.0000       0.000000       0.00000
   3     718.7        0.0000        0.0000        0.0000        0.0000       0.000000       0.00000
   2     792.3        0.0000        0.0000        0.0000        0.0000       0.000000       0.00000
   1     891.5        0.0000        0.0000        0.0000        0.0000       0.000000       0.00000
   0    1013.0        0.0000        0.0000        0.0000        0.0000       0.000000       0.00000



 Wavenumbers:   820. -  2600. cm-1, ATM      1
 LEVEL PRESSURE   UPWARD FLUX   DIFDOWN FLUX  DIRDOWN FLUX  DOWNWARD FLUX   NET FLUX    HEATING RATE
          mb          W/m2          W/m2          W/m2        W/m2          W/m2       degree/day
  51    .06700        0.0283        0.0000        6.0047        6.0047       5.976348       0.00000
  50    .07753        0.0283        0.0000        6.0009        6.0009       5.972558       3.03711
  49    .09103        0.0283        0.0000        6.0001        6.0001       5.971756       0.50164
  48    0.1069        0.0283        0.0000        5.9992        5.9992       5.970866       0.47371
  47    0.1255        0.0283        0.0000        5.9982        5.9982       5.969867       0.45283
  46    0.1487        0.0283        0.0000        5.9970        5.9970       5.968665       0.43798
  45    0.1794        0.0283        0.0000        5.9955        5.9955       5.967166       0.41172
  44    0.2165        0.0283        0.0000        5.9939        5.9939       5.965592       0.35788
  43    0.2613        0.0283        0.0000        5.9923        5.9923       5.963963       0.30714
  42    0.3336        0.0283        0.0000        5.9900        5.9900       5.961648       0.26989
  41    0.4307        0.0283        0.0000        5.9872        5.9872       5.958944       0.23515
  40    0.5894        0.0283        0.0000        5.9830        5.9830       5.954717       0.22478
  39     1.339        0.0283        0.0000        5.9636        5.9636       5.935279       0.21884
  38     1.782        0.0283        0.0000        5.9528        5.9528       5.924534       0.20455
  37     2.292        0.0283        0.0000        5.9408        5.9408       5.912499       0.19935
  36     2.964        0.0283        0.0000        5.9255        5.9255       5.897190       0.19217
  35     3.853        0.0283        0.0000        5.9060        5.9060       5.877745       0.18454
  34     5.035        0.0283        0.0000        5.8814        5.8814       5.853102       0.17604
  33     6.613        0.0283        0.0000        5.8496        5.8496       5.821258       0.17024
  32     8.786        0.0283        0.0000        5.8073        5.8073       5.778994       0.16414
  31     11.80        0.0283        0.0000        5.7515        5.7515       5.723196       0.15622
  30     15.07        0.0283        0.0000        5.7023        5.7023       5.673983       0.12706
  29     18.79        0.0283        0.0000        5.6614        5.6615       5.633150       0.09258
  28     23.16        0.0283        0.0000        5.6300        5.6300       5.601677       0.06086
  27     28.12        0.0283        0.0000        5.6070        5.6070       5.578668       0.03911
  26     33.73        0.0283        0.0000        5.5886        5.5886       5.560271       0.02766
  25     40.54        0.0283        0.0000        5.5695        5.5695       5.541196       0.02367
  24     48.69        0.0283        0.0000        5.5471        5.5471       5.518820       0.02316
  23     57.69        0.0283        0.0000        5.5222        5.5222       5.493901       0.02336
  22     68.43        0.0283        0.0000        5.4921        5.4921       5.463798       0.02367
  21     81.20        0.0283        0.0000        5.4567        5.4567       5.428372       0.02341
  20     96.49        0.0283        0.0000        5.4151        5.4151       5.386820       0.02293
  19     114.6        0.0283        0.0000        5.3674        5.3674       5.339129       0.02227
  18     136.5        0.0283        0.0000        5.3141        5.3141       5.285840       0.02049
  17     162.9        0.0283        0.0000        5.2539        5.2539       5.225575       0.01926
  16     196.4        0.0283        0.0000        5.1780        5.1780       5.149714       0.01910
  15     218.7        0.0283        0.0000        5.1246        5.1246       5.096309       0.02028
  14     243.0        0.0283        0.0000        5.0571        5.0571       5.028763       0.02343
  13     269.0        0.0283        0.0000        4.9699        4.9699       4.941575       0.02828
  12     297.5        0.0283        0.0000        4.8583        4.8584       4.830039       0.03308
  11     328.5        0.0283        0.0000        4.7397        4.7397       4.711397       0.03226
  10     361.9        0.0284        0.0000        4.6211        4.6211       4.592723       0.03003
   9     398.1        0.0284        0.0000        4.5025        4.5025       4.474110       0.02763
   8     437.6        0.0284        0.0000        4.3727        4.3728       4.344370       0.02774
   7     480.5        0.0285        0.0000        4.2203        4.2204       4.191928       0.02994
   6     533.0        0.0285        0.0000        4.0086        4.0086       3.980095       0.03408
   5     589.8        0.0286        0.0000        3.7628        3.7629       3.734276       0.03649
   4     651.6        0.0287        0.0001        3.5065        3.5066       3.477828       0.03507
   3     718.7        0.0289        0.0001        3.3079        3.3080       3.279072       0.02498
   2     792.3        0.0293        0.0001        3.1695        3.1695       3.140258       0.01592
   1     891.5        0.0300        0.0001        3.0044        3.0044       2.974394       0.01411
   0    1013.0        0.0317        0.0001        2.7818        2.7819       2.750196       0.01557

  Modules and versions used in this calculation:

       rrtmg_sw.1col.f90:  $Revision$                    rrtmg_sw_init.f90:  $Revision$        
     rrtmgsw_cldprop.f90:  $Revision$                  rrtmgsw_cldprmc.f90:  NOT USED          
     rrtmg_sw_reftra.f90:  $Revision$                  rrtmg_sw_spcvrt.f90:  NOT USED          
     rrtmg_sw_spcvmc.f90:  NOT USED                    rrtmgsw_setcoef.f90:  NOT USED          
     rrtmg_sw_taumol.f90:  $Revision$                  rrtmg_sw_vrtqdr.f90:  NOT USED          
                rrtatm.f:  NOT USED                             util_xxx.f:  NOT USED          
                 extra.f:  NOT USED                       rrtmg_sw_k_g.f90:  $Revision$        

