

 Wavenumbers:   820. - 50000. cm-1, ATM      1
 LEVEL PRESSURE   UPWARD FLUX   DIFDOWN FLUX  DIRDOWN FLUX  DOWNWARD FLUX   NET FLUX    HEATING RATE
          mb          W/m2          W/m2          W/m2        W/m2          W/m2       degree/day
  51    .06700      399.7906        0.0000      617.8126      617.8126     218.022027       0.00000
  50    .07753      399.7902        0.0014      617.7948      617.7962     218.005979      12.86239
  49    .09103      399.7897        0.0030      617.7780      617.7810     217.991278       9.18888
  48    0.1069      399.7893        0.0050      617.7584      617.7634     217.974136       9.12431
  47    0.1255      399.7887        0.0072      617.7344      617.7417     217.952926       9.61581
  46    0.1487      399.7882        0.0101      617.7015      617.7116     217.923408      10.75958
  45    0.1794      399.7875        0.0139      617.6529      617.6669     217.879400      12.08123
  44    0.2165      399.7867        0.0185      617.5906      617.6091     217.822339      12.98041
  43    0.2613      399.7860        0.0238      617.5103      617.5342     217.748134      13.98734
  42    0.3336      399.7852        0.0327      617.3661      617.3987     217.613565      15.68938
  41    0.4307      399.7845        0.0443      617.1618      617.2061     217.421635      16.68791
  40    0.5894      399.7844        0.0631      616.8043      616.8674     217.083068      18.00456
  39     1.339      399.8020        0.1481      614.9531      615.1012     215.299145      20.08374
  38     1.782      399.8251        0.1959      613.9784      614.1743     214.349185      18.08570
  37     2.292      399.8634        0.2503      613.0200      613.2703     213.406938      15.60608
  36     2.964      399.9310        0.3211      611.9752      612.2962     212.365187      13.07713
  35     3.853      400.0446        0.4138      610.8240      611.2378     211.193220      11.12218
  34     5.035      400.2192        0.5362      609.5594      610.0956     209.876389       9.40689
  33     6.613      400.4652        0.6986      608.1792      608.8779     208.412731       7.82472
  32     8.786      400.7855        0.9166      606.6649      607.5816     206.796016       6.27874
  31     11.80      401.2004        1.2269      604.8969      606.1238     204.923426       5.24266
  30     15.07      401.5952        1.5581      603.2996      604.8577     203.262486       4.28822
  29     18.79      401.9959        1.9307      601.7141      603.6447     201.648836       3.65864
  28     23.16      402.4119        2.3636      600.0634      602.4270     200.015172       3.15898
  27     28.12      402.8265        2.8564      598.3671      601.2235     198.397008       2.75077
  26     33.73      403.2012        3.4058      596.6824      600.0882     196.886963       2.27039
  25     40.54      403.5500        4.0672      594.8688      598.9361     195.386049       1.86205
  24     48.69      403.8697        4.8610      592.8919      597.7528     193.883139       1.55528
  23     57.69      404.1231        5.7286      590.9104      596.6390     192.515876       1.28160
  22     68.43      404.3188        6.7565      588.7435      595.5000     191.181229       1.04921
  21     81.20      404.4044        7.9752      586.4040      594.3792     189.974804       0.79719
  20     96.49      404.3698        9.4182      583.8423      593.2605     188.890742       0.59832
  19     114.6      404.2743       11.1160      580.9336      592.0496     187.775333       0.52082
  18     136.5      404.1156       13.1041      577.6174      590.7215     186.605854       0.44969
  17     162.9      403.8877       15.4372      573.7759      589.2131     185.325435       0.40927
  16     196.4      403.5024       18.4128      568.8791      587.2919     183.789512       0.38661
  15     218.7      403.2191       20.3368      565.4440      585.7808     182.561625       0.46618
  14     243.0      402.9005       22.4006      561.3514      583.7520     180.851440       0.59315
  13     269.0      402.5455       24.6056      556.3595      580.9651     178.419594       0.78888
  12     297.5      402.1553       26.9525      550.3742      577.3267     175.171412       0.96338
  11     328.5      401.7378       29.4478      543.8540      573.3018     171.564061       0.98083
  10     361.9      401.2960       32.0877      536.8269      568.9146     167.618619       0.99824
   9     398.1      400.8334       34.8771      529.1377      564.0149     163.181451       1.03376
   8     437.6      400.3588       37.8147      520.6263      558.4411     158.082313       1.09023
   7     480.5      399.8800       40.8987      511.4281      552.3268     152.446798       1.10679
   6     533.0      399.3459       44.6069      500.1346      544.7415     145.395606       1.13431
   5     589.8      398.8668       48.4979      487.8599      536.3578     137.491015       1.17330
   4     651.6      398.5379       52.5630      474.0482      526.6112     128.073264       1.28790
   3     718.7      398.4765       56.7919      459.1429      515.9348     117.458274       1.33401
   2     792.3      398.9192       61.1677      443.0860      504.2537     105.334434       1.39047
   1     891.5      400.8141       66.8229      421.5844      488.4073      87.593240       1.50969
   0    1013.0      406.2329       73.2651      397.0361      470.3013      64.068398       1.63345



 Wavenumbers:  2600. -  3250. cm-1, ATM      1
 LEVEL PRESSURE   UPWARD FLUX   DIFDOWN FLUX  DIRDOWN FLUX  DOWNWARD FLUX   NET FLUX    HEATING RATE
          mb          W/m2          W/m2          W/m2        W/m2          W/m2       degree/day
  51    .06700        0.0279        0.0000        5.4450        5.4450       5.417147       0.00000
  50    .07753        0.0279        0.0000        5.4450        5.4450       5.417139       0.00640
  49    .09103        0.0279        0.0000        5.4450        5.4450       5.417129       0.00627
  48    0.1069        0.0279        0.0000        5.4450        5.4450       5.417117       0.00613
  47    0.1255        0.0279        0.0000        5.4450        5.4450       5.417104       0.00599
  46    0.1487        0.0279        0.0000        5.4450        5.4450       5.417087       0.00608
  45    0.1794        0.0279        0.0000        5.4450        5.4450       5.417065       0.00625
  44    0.2165        0.0279        0.0000        5.4449        5.4449       5.417038       0.00612
  43    0.2613        0.0279        0.0000        5.4449        5.4449       5.417006       0.00600
  42    0.3336        0.0279        0.0000        5.4448        5.4448       5.416953       0.00617
  41    0.4307        0.0279        0.0000        5.4448        5.4448       5.416882       0.00620
  40    0.5894        0.0279        0.0000        5.4446        5.4446       5.416762       0.00637
  39     1.339        0.0279        0.0000        5.4439        5.4439       5.416054       0.00797
  38     1.782        0.0279        0.0000        5.4434        5.4434       5.415511       0.01034
  37     2.292        0.0279        0.0000        5.4427        5.4427       5.414795       0.01186
  36     2.964        0.0279        0.0000        5.4416        5.4416       5.413757       0.01304
  35     3.853        0.0279        0.0000        5.4402        5.4402       5.412280       0.01402
  34     5.035        0.0279        0.0000        5.4381        5.4381       5.410224       0.01468
  33     6.613        0.0279        0.0000        5.4353        5.4353       5.407443       0.01487
  32     8.786        0.0279        0.0000        5.4317        5.4317       5.403811       0.01411
  31     11.80        0.0279        0.0000        5.4269        5.4269       5.399031       0.01338
  30     15.07        0.0279        0.0000        5.4224        5.4224       5.394505       0.01169
  29     18.79        0.0279        0.0000        5.4180        5.4180       5.390094       0.01000
  28     23.16        0.0279        0.0000        5.4135        5.4135       5.385609       0.00867
  27     28.12        0.0279        0.0000        5.4088        5.4088       5.380962       0.00790
  26     33.73        0.0279        0.0000        5.4036        5.4036       5.375723       0.00788
  25     40.54        0.0279        0.0000        5.3966        5.3967       5.368784       0.00861
  24     48.69        0.0279        0.0000        5.3872        5.3872       5.359311       0.00980
  23     57.69        0.0279        0.0000        5.3754        5.3754       5.347531       0.01104
  22     68.43        0.0279        0.0000        5.3599        5.3599       5.332050       0.01217
  21     81.20        0.0279        0.0000        5.3401        5.3401       5.312226       0.01310
  20     96.49        0.0279        0.0000        5.3155        5.3155       5.287673       0.01355
  19     114.6        0.0279        0.0000        5.2855        5.2855       5.257698       0.01400
  18     136.5        0.0278        0.0000        5.2509        5.2509       5.223061       0.01332
  17     162.9        0.0278        0.0001        5.2118        5.2118       5.183997       0.01249
  16     196.4        0.0278        0.0001        5.1655        5.1655       5.137685       0.01166
  15     218.7        0.0278        0.0001        5.1358        5.1359       5.108075       0.01124
  14     243.0        0.0278        0.0001        5.1015        5.1016       5.073767       0.01190
  13     269.0        0.0278        0.0001        5.0605        5.0606       5.032786       0.01329
  12     297.5        0.0279        0.0001        5.0109        5.0110       4.983173       0.01471
  11     328.5        0.0279        0.0001        4.9532        4.9534       4.925490       0.01568
  10     361.9        0.0279        0.0001        4.8843        4.8844       4.856513       0.01745
   9     398.1        0.0279        0.0001        4.7988        4.7989       4.770966       0.01993
   8     437.6        0.0280        0.0001        4.6889        4.6890       4.661006       0.02351
   7     480.5        0.0281        0.0002        4.5522        4.5523       4.524257       0.02686
   6     533.0        0.0282        0.0002        4.3602        4.3603       4.332097       0.03091
   5     589.8        0.0284        0.0002        4.1321        4.1322       4.103804       0.03389
   4     651.6        0.0288        0.0002        3.8597        3.8599       3.831162       0.03728
   3     718.7        0.0293        0.0002        3.5679        3.5681       3.538821       0.03674
   2     792.3        0.0301        0.0002        3.2494        3.2495       3.219411       0.03663
   1     891.5        0.0320        0.0002        2.8072        2.8073       2.775334       0.03779
   0    1013.0        0.0364        0.0002        2.3180        2.3182       2.281762       0.03427



 Wavenumbers:  3250. -  4000. cm-1, ATM      1
 LEVEL PRESSURE   UPWARD FLUX   DIFDOWN FLUX  DIRDOWN FLUX  DOWNWARD FLUX   NET FLUX    HEATING RATE
          mb          W/m2          W/m2          W/m2        W/m2          W/m2       degree/day
  51    .06700        0.0005        0.0000        9.1795        9.1795       9.179006       0.00000
  50    .07753        0.0005        0.0000        9.1747        9.1747       9.174214       3.84074
  49    .09103        0.0005        0.0000        9.1714        9.1714       9.170880       2.08369
  48    0.1069        0.0005        0.0000        9.1689        9.1689       9.168411       1.31424
  47    0.1255        0.0005        0.0000        9.1667        9.1667       9.166210       0.99805
  46    0.1487        0.0005        0.0000        9.1644        9.1644       9.163836       0.86515
  45    0.1794        0.0005        0.0000        9.1616        9.1616       9.161041       0.76747
  44    0.2165        0.0005        0.0000        9.1587        9.1587       9.158209       0.64415
  43    0.2613        0.0005        0.0000        9.1559        9.1559       9.155334       0.54186
  42    0.3336        0.0005        0.0000        9.1518        9.1518       9.151316       0.46845
  41    0.4307        0.0005        0.0000        9.1473        9.1473       9.146762       0.39603
  40    0.5894        0.0005        0.0000        9.1406        9.1406       9.140085       0.35506
  39     1.339        0.0005        0.0000        9.1150        9.1150       9.114508       0.28795
  38     1.782        0.0005        0.0000        9.1038        9.1038       9.103238       0.21456
  37     2.292        0.0005        0.0000        9.0930        9.0930       9.092440       0.17885
  36     2.964        0.0005        0.0000        9.0808        9.0808       9.080314       0.15222
  35     3.853        0.0005        0.0000        9.0664        9.0664       9.065926       0.13655
  34     5.035        0.0005        0.0000        9.0483        9.0483       9.047772       0.12968
  33     6.613        0.0005        0.0000        9.0241        9.0241       9.023599       0.12923
  32     8.786        0.0005        0.0000        8.9904        8.9904       8.989904       0.13086
  31     11.80        0.0005        0.0000        8.9403        8.9403       8.939782       0.14033
  30     15.07        0.0005        0.0000        8.8848        8.8849       8.884358       0.14309
  29     18.79        0.0005        0.0000        8.8213        8.8214       8.820864       0.14396
  28     23.16        0.0005        0.0000        8.7479        8.7480       8.747482       0.14190
  27     28.12        0.0005        0.0000        8.6676        8.6676       8.667119       0.13661
  26     33.73        0.0005        0.0000        8.5844        8.5845       8.584011       0.12496
  25     40.54        0.0005        0.0001        8.4940        8.4940       8.493548       0.11223
  24     48.69        0.0005        0.0001        8.3971        8.3972       8.396754       0.10017
  23     57.69        0.0004        0.0001        8.3004        8.3004       8.299988       0.09070
  22     68.43        0.0004        0.0001        8.1911        8.1912       8.190748       0.08588
  21     81.20        0.0004        0.0001        8.0639        8.0640       8.063619       0.08400
  20     96.49        0.0004        0.0001        7.9159        7.9160       7.915583       0.08170
  19     114.6        0.0004        0.0001        7.7420        7.7421       7.741757       0.08116
  18     136.5        0.0004        0.0002        7.5505        7.5506       7.550275       0.07363
  17     162.9        0.0003        0.0002        7.3328        7.3330       7.332644       0.06956
  16     196.4        0.0003        0.0002        7.0337        7.0339       7.033659       0.07526
  15     218.7        0.0003        0.0002        6.7532        6.7534       6.753183       0.10649
  14     243.0        0.0002        0.0003        6.3850        6.3852       6.384975       0.12771
  13     269.0        0.0002        0.0003        5.9274        5.9277       5.927480       0.14841
  12     297.5        0.0002        0.0003        5.3940        5.3942       5.394019       0.15822
  11     328.5        0.0002        0.0003        4.8442        4.8445       4.844299       0.14947
  10     361.9        0.0002        0.0003        4.2889        4.2892       4.289046       0.14048
   9     398.1        0.0001        0.0002        3.7582        3.7585       3.758324       0.12365
   8     437.6        0.0001        0.0002        3.2596        3.2598       3.259714       0.10661
   7     480.5        0.0001        0.0002        2.8042        2.8045       2.804351       0.08943
   6     533.0        0.0001        0.0002        2.3266        2.3268       2.326697       0.07684
   5     589.8        0.0001        0.0002        1.8712        1.8714       1.871326       0.06759
   4     651.6        0.0001        0.0002        1.4065        1.4066       1.406552       0.06356
   3     718.7        0.0001        0.0001        0.9631        0.9632       0.963120       0.05573
   2     792.3        0.0001        0.0001        0.5781        0.5782       0.578127       0.04415
   1     891.5        0.0002        0.0000        0.2261        0.2261       0.225898       0.02997
   0    1013.0        0.0010        0.0000        0.0373        0.0373       0.036371       0.01316



 Wavenumbers:  4000. -  4650. cm-1, ATM      1
 LEVEL PRESSURE   UPWARD FLUX   DIFDOWN FLUX  DIRDOWN FLUX  DOWNWARD FLUX   NET FLUX    HEATING RATE
          mb          W/m2          W/m2          W/m2        W/m2          W/m2       degree/day
  51    .06700        1.2404        0.0000       10.7795       10.7795       9.539124       0.00000
  50    .07753        1.2404        0.0000       10.7795       10.7795       9.539123       0.00080
  49    .09103        1.2404        0.0000       10.7795       10.7795       9.539122       0.00078
  48    0.1069        1.2404        0.0000       10.7795       10.7795       9.539120       0.00077
  47    0.1255        1.2404        0.0000       10.7795       10.7795       9.539119       0.00075
  46    0.1487        1.2404        0.0000       10.7795       10.7795       9.539117       0.00076
  45    0.1794        1.2404        0.0000       10.7795       10.7795       9.539114       0.00078
  44    0.2165        1.2404        0.0000       10.7795       10.7795       9.539110       0.00077
  43    0.2613        1.2404        0.0000       10.7795       10.7795       9.539106       0.00075
  42    0.3336        1.2404        0.0000       10.7795       10.7795       9.539100       0.00077
  41    0.4307        1.2404        0.0000       10.7795       10.7795       9.539091       0.00078
  40    0.5894        1.2404        0.0000       10.7795       10.7795       9.539076       0.00080
  39     1.339        1.2404        0.0000       10.7794       10.7794       9.538986       0.00101
  38     1.782        1.2404        0.0000       10.7793       10.7793       9.538916       0.00134
  37     2.292        1.2404        0.0000       10.7792       10.7792       9.538822       0.00156
  36     2.964        1.2404        0.0000       10.7791       10.7791       9.538681       0.00177
  35     3.853        1.2404        0.0000       10.7789       10.7789       9.538472       0.00198
  34     5.035        1.2404        0.0000       10.7785       10.7786       9.538164       0.00220
  33     6.613        1.2404        0.0000       10.7781       10.7781       9.537711       0.00242
  32     8.786        1.2404        0.0000       10.7774       10.7774       9.537042       0.00260
  31     11.80        1.2404        0.0000       10.7763       10.7764       9.535992       0.00294
  30     15.07        1.2404        0.0001       10.7751       10.7751       9.534760       0.00318
  29     18.79        1.2404        0.0001       10.7736       10.7736       9.533271       0.00338
  28     23.16        1.2404        0.0001       10.7717       10.7718       9.531422       0.00357
  27     28.12        1.2403        0.0001       10.7694       10.7695       9.529186       0.00380
  26     33.73        1.2403        0.0001       10.7666       10.7668       9.526429       0.00414
  25     40.54        1.2403        0.0002       10.7628       10.7630       9.522693       0.00464
  24     48.69        1.2403        0.0002       10.7578       10.7580       9.517717       0.00515
  23     57.69        1.2403        0.0002       10.7519       10.7521       9.511823       0.00552
  22     68.43        1.2403        0.0003       10.7444       10.7447       9.504443       0.00580
  21     81.20        1.2403        0.0003       10.7353       10.7356       9.495366       0.00600
  20     96.49        1.2402        0.0004       10.7242       10.7246       9.484336       0.00609
  19     114.6        1.2402        0.0004       10.7105       10.7110       9.470704       0.00637
  18     136.5        1.2403        0.0005       10.6941       10.6946       9.454311       0.00630
  17     162.9        1.2403        0.0006       10.6740       10.6747       9.434338       0.00638
  16     196.4        1.2404        0.0007       10.6468       10.6476       9.407158       0.00684
  15     218.7        1.2406        0.0008       10.6268       10.6276       9.387047       0.00764
  14     243.0        1.2408        0.0009       10.6012       10.6021       9.361374       0.00890
  13     269.0        1.2411        0.0010       10.5674       10.5684       9.327318       0.01105
  12     297.5        1.2416        0.0011       10.5231       10.5242       9.282602       0.01326
  11     328.5        1.2424        0.0012       10.4686       10.4699       9.227501       0.01498
  10     361.9        1.2434        0.0013       10.4002       10.4015       9.158142       0.01755
   9     398.1        1.2447        0.0015       10.3125       10.3139       9.069267       0.02071
   8     437.6        1.2463        0.0016       10.2006       10.2022       8.955906       0.02424
   7     480.5        1.2483        0.0017       10.0652       10.0669       8.818546       0.02698
   6     533.0        1.2513        0.0019        9.8852        9.8871       8.635727       0.02941
   5     589.8        1.2554        0.0020        9.6807        9.6827       8.427281       0.03094
   4     651.6        1.2615        0.0022        9.4322        9.4344       8.172834       0.03480
   3     718.7        1.2708        0.0023        9.1177        9.1200       7.849266       0.04066
   2     792.3        1.2856        0.0025        8.7044        8.7069       7.421317       0.04908
   1     891.5        1.3185        0.0026        8.0904        8.0930       6.774498       0.05504
   0    1013.0        1.3935        0.0027        7.4142        7.4169       6.023378       0.05215



 Wavenumbers:  4650. -  5150. cm-1, ATM      1
 LEVEL PRESSURE   UPWARD FLUX   DIFDOWN FLUX  DIRDOWN FLUX  DOWNWARD FLUX   NET FLUX    HEATING RATE
          mb          W/m2          W/m2          W/m2        W/m2          W/m2       degree/day
  51    .06700        0.3166        0.0000       10.2033       10.2033       9.886772       0.00000
  50    .07753        0.3166        0.0000       10.2031       10.2031       9.886537       0.18861
  49    .09103        0.3166        0.0000       10.2028       10.2028       9.886243       0.18389
  48    0.1069        0.3166        0.0000       10.2025       10.2025       9.885907       0.17893
  47    0.1255        0.3166        0.0000       10.2021       10.2021       9.885523       0.17389
  46    0.1487        0.3166        0.0000       10.2016       10.2016       9.885043       0.17499
  45    0.1794        0.3166        0.0000       10.2010       10.2010       9.884394       0.17813
  44    0.2165        0.3166        0.0000       10.2002       10.2002       9.883636       0.17241
  43    0.2613        0.3166        0.0000       10.1993       10.1993       9.882753       0.16655
  42    0.3336        0.3166        0.0000       10.1979       10.1979       9.881323       0.16667
  41    0.4307        0.3166        0.0000       10.1961       10.1961       9.879487       0.15969
  40    0.5894        0.3166        0.0000       10.1932       10.1932       9.876619       0.15251
  39     1.339        0.3166        0.0000       10.1816       10.1816       9.865051       0.13023
  38     1.782        0.3166        0.0000       10.1761       10.1761       9.859534       0.10504
  37     2.292        0.3166        0.0000       10.1706       10.1706       9.854089       0.09019
  36     2.964        0.3166        0.0000       10.1647       10.1647       9.848178       0.07420
  35     3.853        0.3165        0.0000       10.1585       10.1585       9.841977       0.05885
  34     5.035        0.3165        0.0000       10.1522       10.1522       9.835654       0.04516
  33     6.613        0.3165        0.0000       10.1457       10.1457       9.829211       0.03444
  32     8.786        0.3165        0.0000       10.1387       10.1387       9.822217       0.02716
  31     11.80        0.3165        0.0001       10.1296       10.1297       9.813199       0.02525
  30     15.07        0.3165        0.0001       10.1198       10.1198       9.803346       0.02544
  29     18.79        0.3165        0.0001       10.1077       10.1078       9.791372       0.02715
  28     23.16        0.3165        0.0001       10.0924       10.0926       9.776111       0.02951
  27     28.12        0.3164        0.0002       10.0734       10.0735       9.757073       0.03236
  26     33.73        0.3164        0.0002       10.0503       10.0505       9.734050       0.03462
  25     40.54        0.3164        0.0002       10.0204       10.0206       9.704242       0.03698
  24     48.69        0.3164        0.0003        9.9823        9.9826       9.666199       0.03937
  23     57.69        0.3163        0.0003        9.9388        9.9391       9.622815       0.04067
  22     68.43        0.3163        0.0004        9.8862        9.8866       9.570283       0.04130
  21     81.20        0.3163        0.0004        9.8240        9.8244       9.508152       0.04106
  20     96.49        0.3162        0.0005        9.7524        9.7529       9.436670       0.03945
  19     114.6        0.3162        0.0006        9.6727        9.6733       9.357071       0.03717
  18     136.5        0.3162        0.0007        9.5867        9.5874       9.271214       0.03301
  17     162.9        0.3162        0.0009        9.4951        9.4960       9.179797       0.02922
  16     196.4        0.3162        0.0010        9.3896        9.3906       9.074432       0.02652
  15     218.7        0.3162        0.0011        9.3247        9.3258       9.009580       0.02462
  14     243.0        0.3163        0.0012        9.2547        9.2560       8.939722       0.02423
  13     269.0        0.3164        0.0014        9.1768        9.1781       8.861753       0.02529
  12     297.5        0.3165        0.0015        9.0861        9.0876       8.771067       0.02690
  11     328.5        0.3168        0.0016        8.9801        8.9817       8.664896       0.02887
  10     361.9        0.3172        0.0018        8.8573        8.8591       8.541874       0.03113
   9     398.1        0.3177        0.0019        8.7144        8.7163       8.398650       0.03337
   8     437.6        0.3184        0.0021        8.5472        8.5493       8.230931       0.03586
   7     480.5        0.3193        0.0022        8.3551        8.3573       8.038000       0.03789
   6     533.0        0.3207        0.0024        8.1012        8.1036       7.782895       0.04104
   5     589.8        0.3227        0.0026        7.8097        7.8123       7.489567       0.04354
   4     651.6        0.3257        0.0027        7.4711        7.4738       7.148137       0.04669
   3     718.7        0.3300        0.0029        7.0949        7.0978       6.767803       0.04780
   2     792.3        0.3366        0.0030        6.6847        6.6876       6.351051       0.04780
   1     891.5        0.3499        0.0031        6.1483        6.1514       5.801449       0.04677
   0    1013.0        0.3770        0.0032        5.5410        5.5442       5.167202       0.04404



 Wavenumbers:  5150. -  6150. cm-1, ATM      1
 LEVEL PRESSURE   UPWARD FLUX   DIFDOWN FLUX  DIRDOWN FLUX  DOWNWARD FLUX   NET FLUX    HEATING RATE
          mb          W/m2          W/m2          W/m2        W/m2          W/m2       degree/day
  51    .06700        2.6231        0.0000       25.5798       25.5798      22.956692       0.00000
  50    .07753        2.6231        0.0000       25.5798       25.5798      22.956663       0.02311
  49    .09103        2.6231        0.0000       25.5798       25.5798      22.956626       0.02347
  48    0.1069        2.6231        0.0000       25.5797       25.5797      22.956581       0.02384
  47    0.1255        2.6231        0.0000       25.5797       25.5797      22.956528       0.02421
  46    0.1487        2.6231        0.0000       25.5796       25.5796      22.956458       0.02550
  45    0.1794        2.6231        0.0000       25.5795       25.5795      22.956359       0.02715
  44    0.2165        2.6231        0.0000       25.5794       25.5794      22.956238       0.02756
  43    0.2613        2.6231        0.0000       25.5792       25.5792      22.956089       0.02799
  42    0.3336        2.6231        0.0000       25.5790       25.5790      22.955835       0.02958
  41    0.4307        2.6231        0.0000       25.5786       25.5786      22.955490       0.02999
  40    0.5894        2.6231        0.0000       25.5780       25.5780      22.954912       0.03075
  39     1.339        2.6231        0.0000       25.5752       25.5752      22.952120       0.03144
  38     1.782        2.6231        0.0000       25.5735       25.5736      22.950488       0.03106
  37     2.292        2.6231        0.0001       25.5717       25.5717      22.948637       0.03066
  36     2.964        2.6231        0.0001       25.5693       25.5693      22.946278       0.02962
  35     3.853        2.6231        0.0001       25.5662       25.5663      22.943267       0.02857
  34     5.035        2.6230        0.0001       25.5623       25.5624      22.939370       0.02784
  33     6.613        2.6230        0.0002       25.5571       25.5573      22.934282       0.02720
  32     8.786        2.6230        0.0002       25.5504       25.5506      22.927632       0.02583
  31     11.80        2.6229        0.0003       25.5411       25.5414      22.918536       0.02547
  30     15.07        2.6229        0.0004       25.5318       25.5321      22.909293       0.02386
  29     18.79        2.6228        0.0005       25.5218       25.5223      22.899499       0.02221
  28     23.16        2.6227        0.0006       25.5109       25.5115      22.888787       0.02071
  27     28.12        2.6227        0.0007       25.4992       25.5000      22.877338       0.01946
  26     33.73        2.6226        0.0009       25.4872       25.4881      22.865521       0.01777
  25     40.54        2.6225        0.0011       25.4738       25.4749      22.852407       0.01627
  24     48.69        2.6224        0.0013       25.4592       25.4605      22.838142       0.01476
  23     57.69        2.6223        0.0015       25.4445       25.4460      22.823751       0.01349
  22     68.43        2.6222        0.0018       25.4282       25.4300      22.807873       0.01248
  21     81.20        2.6220        0.0021       25.4101       25.4122      22.790187       0.01169
  20     96.49        2.6219        0.0025       25.3894       25.3920      22.770063       0.01111
  19     114.6        2.6217        0.0030       25.3655       25.3685      22.746804       0.01086
  18     136.5        2.6215        0.0036       25.3375       25.3411      22.719581       0.01047
  17     162.9        2.6213        0.0043       25.2964       25.3007      22.679329       0.01287
  16     196.4        2.6211        0.0051       25.2114       25.2165      22.595420       0.02112
  15     218.7        2.6209        0.0057       25.0883       25.0940      22.473075       0.04645
  14     243.0        2.6208        0.0063       24.8419       24.8482      22.227375       0.08522
  13     269.0        2.6207        0.0068       24.3852       24.3920      21.771326       0.14794
  12     297.5        2.6207        0.0074       23.7440       23.7514      21.130731       0.18999
  11     328.5        2.6208        0.0079       23.0879       23.0959      20.475104       0.17826
  10     361.9        2.6210        0.0085       22.3778       22.3863      19.765300       0.17959
   9     398.1        2.6213        0.0090       21.5483       21.5573      18.935995       0.19321
   8     437.6        2.6219        0.0095       20.6055       20.6151      17.993137       0.20159
   7     480.5        2.6229        0.0100       19.6161       19.6261      17.003236       0.19441
   6     533.0        2.6246        0.0105       18.4618       18.4723      15.847742       0.18588
   5     589.8        2.6275        0.0110       17.3155       17.3265      14.699018       0.17051
   4     651.6        2.6328        0.0114       16.1919       16.2033      13.570507       0.15433
   3     718.7        2.6423        0.0119       15.2319       15.2438      12.601448       0.12178
   2     792.3        2.6600        0.0125       14.4337       14.4462      11.786214       0.09350
   1     891.5        2.7053        0.0133       13.5389       13.5521      10.846840       0.07994
   0    1013.0        2.8291        0.0141       12.5239       12.5379       9.708804       0.07902



 Wavenumbers:  6150. -  7700. cm-1, ATM      1
 LEVEL PRESSURE   UPWARD FLUX   DIFDOWN FLUX  DIRDOWN FLUX  DOWNWARD FLUX   NET FLUX    HEATING RATE
          mb          W/m2          W/m2          W/m2        W/m2          W/m2       degree/day
  51    .06700        4.1955        0.0000       47.3109       47.3109      43.115320       0.00000
  50    .07753        4.1955        0.0000       47.3108       47.3108      43.115274       0.03677
  49    .09103        4.1955        0.0000       47.3107       47.3108      43.115215       0.03692
  48    0.1069        4.1955        0.0000       47.3107       47.3107      43.115145       0.03708
  47    0.1255        4.1955        0.0000       47.3106       47.3106      43.115063       0.03723
  46    0.1487        4.1955        0.0000       47.3105       47.3105      43.114957       0.03879
  45    0.1794        4.1955        0.0000       47.3103       47.3103      43.114808       0.04090
  44    0.2165        4.1955        0.0000       47.3101       47.3102      43.114627       0.04113
  43    0.2613        4.1955        0.0000       47.3099       47.3099      43.114407       0.04138
  42    0.3336        4.1955        0.0000       47.3095       47.3095      43.114035       0.04337
  41    0.4307        4.1955        0.0000       47.3090       47.3090      43.113533       0.04370
  40    0.5894        4.1955        0.0001       47.3081       47.3082      43.112696       0.04453
  39     1.339        4.1954        0.0001       47.3039       47.3041      43.108672       0.04529
  38     1.782        4.1954        0.0002       47.3015       47.3017      43.106322       0.04474
  37     2.292        4.1953        0.0002       47.2987       47.2990      43.103645       0.04434
  36     2.964        4.1953        0.0003       47.2951       47.2955      43.100211       0.04311
  35     3.853        4.1952        0.0004       47.2905       47.2910      43.095795       0.04191
  34     5.035        4.1951        0.0006       47.2845       47.2851      43.090046       0.04107
  33     6.613        4.1949        0.0007       47.2767       47.2774      43.082502       0.04033
  32     8.786        4.1947        0.0010       47.2663       47.2673      43.072573       0.03856
  31     11.80        4.1944        0.0013       47.2519       47.2532      43.058838       0.03845
  30     15.07        4.1941        0.0017       47.2371       47.2388      43.044684       0.03654
  29     18.79        4.1937        0.0021       47.2210       47.2231      43.029428       0.03459
  28     23.16        4.1933        0.0026       47.2032       47.2057      43.012447       0.03284
  27     28.12        4.1928        0.0031       47.1836       47.1868      42.993964       0.03142
  26     33.73        4.1923        0.0037       47.1630       47.1668      42.974503       0.02926
  25     40.54        4.1916        0.0045       47.1396       47.1441      42.952498       0.02730
  24     48.69        4.1908        0.0054       47.1134       47.1188      42.927995       0.02536
  23     57.69        4.1899        0.0064       47.0864       47.0928      42.902851       0.02357
  22     68.43        4.1889        0.0076       47.0560       47.0636      42.874688       0.02214
  21     81.20        4.1876        0.0090       47.0216       47.0306      42.842933       0.02098
  20     96.49        4.1862        0.0107       46.9821       46.9927      42.806562       0.02007
  19     114.6        4.1844        0.0126       46.9362       46.9488      42.764424       0.01968
  18     136.5        4.1823        0.0150       46.8824       46.8974      42.715091       0.01897
  17     162.9        4.1798        0.0178       46.8071       46.8250      42.645150       0.02236
  16     196.4        4.1766        0.0215       46.6608       46.6823      42.505726       0.03509
  15     218.7        4.1745        0.0238       46.4649       46.4888      42.314224       0.07271
  14     243.0        4.1723        0.0263       46.1126       46.1389      41.966563       0.12058
  13     269.0        4.1701        0.0288       45.4974       45.5262      41.356135       0.19802
  12     297.5        4.1679        0.0312       44.5174       44.5486      40.380760       0.28929
  11     328.5        4.1657        0.0337       43.3614       43.3951      39.229331       0.31307
  10     361.9        4.1637        0.0361       42.1201       42.1562      37.992441       0.31295
   9     398.1        4.1621        0.0386       40.7427       40.7813      36.619168       0.31994
   8     437.6        4.1610        0.0408       39.1316       39.1725      35.011459       0.34374
   7     480.5        4.1608        0.0429       37.3391       37.3820      33.221201       0.35160
   6     533.0        4.1624        0.0451       35.1579       35.2030      31.040597       0.35079
   5     589.8        4.1673        0.0469       32.8475       32.8944      28.727127       0.34339
   4     651.6        4.1793        0.0482       30.3251       30.3733      26.194014       0.34641
   3     718.7        4.2034        0.0492       27.8272       27.8764      23.673030       0.31682
   2     792.3        4.2505        0.0499       25.3843       25.4341      21.183652       0.28550
   1     891.5        4.3727        0.0505       22.5483       22.5988      18.226035       0.25168
   0    1013.0        4.6984        0.0512       19.8572       19.9083      15.209982       0.20942



 Wavenumbers:  7700. -  8050. cm-1, ATM      1
 LEVEL PRESSURE   UPWARD FLUX   DIFDOWN FLUX  DIRDOWN FLUX  DOWNWARD FLUX   NET FLUX    HEATING RATE
          mb          W/m2          W/m2          W/m2        W/m2          W/m2       degree/day
  51    .06700        5.6326        0.0000       11.1810       11.1810       5.548321       0.00000
  50    .07753        5.6326        0.0000       11.1809       11.1809       5.548299       0.01723
  49    .09103        5.6327        0.0000       11.1809       11.1809       5.548272       0.01689
  48    0.1069        5.6327        0.0000       11.1809       11.1809       5.548241       0.01653
  47    0.1255        5.6327        0.0000       11.1809       11.1809       5.548206       0.01618
  46    0.1487        5.6327        0.0000       11.1808       11.1808       5.548161       0.01642
  45    0.1794        5.6327        0.0000       11.1808       11.1808       5.548099       0.01689
  44    0.2165        5.6327        0.0000       11.1807       11.1807       5.548026       0.01657
  43    0.2613        5.6327        0.0000       11.1806       11.1806       5.547940       0.01626
  42    0.3336        5.6327        0.0000       11.1805       11.1805       5.547797       0.01664
  41    0.4307        5.6328        0.0000       11.1803       11.1804       5.547608       0.01646
  40    0.5894        5.6328        0.0000       11.1801       11.1801       5.547299       0.01644
  39     1.339        5.6330        0.0001       11.1788       11.1789       5.545836       0.01646
  38     1.782        5.6332        0.0001       11.1781       11.1782       5.544977       0.01635
  37     2.292        5.6333        0.0001       11.1772       11.1773       5.543983       0.01647
  36     2.964        5.6336        0.0002       11.1761       11.1762       5.542677       0.01639
  35     3.853        5.6338        0.0002       11.1746       11.1748       5.540953       0.01637
  34     5.035        5.6342        0.0003       11.1726       11.1729       5.538662       0.01636
  33     6.613        5.6347        0.0004       11.1700       11.1703       5.535603       0.01636
  32     8.786        5.6354        0.0005       11.1664       11.1669       5.531481       0.01601
  31     11.80        5.6363        0.0006       11.1613       11.1619       5.525589       0.01650
  30     15.07        5.6374        0.0008       11.1558       11.1567       5.519269       0.01632
  29     18.79        5.6386        0.0010       11.1497       11.1507       5.512136       0.01617
  28     23.16        5.6399        0.0013       11.1425       11.1438       5.503817       0.01609
  27     28.12        5.6415        0.0015       11.1343       11.1358       5.494319       0.01615
  26     33.73        5.6433        0.0018       11.1252       11.1270       5.483711       0.01595
  25     40.54        5.6455        0.0022       11.1142       11.1164       5.470926       0.01586
  24     48.69        5.6481        0.0026       11.1010       11.1036       5.455559       0.01590
  23     57.69        5.6510        0.0031       11.0866       11.0897       5.438739       0.01577
  22     68.43        5.6544        0.0037       11.0695       11.0732       5.418790       0.01568
  21     81.20        5.6586        0.0044       11.0494       11.0537       5.395142       0.01563
  20     96.49        5.6636        0.0052       11.0255       11.0307       5.367132       0.01546
  19     114.6        5.6696        0.0062       10.9975       11.0037       5.334110       0.01542
  18     136.5        5.6768        0.0073       10.9648       10.9721       5.295290       0.01493
  17     162.9        5.6855        0.0087       10.9263       10.9350       5.249494       0.01464
  16     196.4        5.6969        0.0104       10.8772       10.8877       5.190763       0.01478
  15     218.7        5.7046        0.0116       10.8455       10.8571       5.152549       0.01451
  14     243.0        5.7130        0.0129       10.8115       10.8243       5.111278       0.01431
  13     269.0        5.7224        0.0142       10.7749       10.7892       5.066801       0.01443
  12     297.5        5.7326        0.0157       10.7358       10.7515       5.018920       0.01420
  11     328.5        5.7440        0.0173       10.6940       10.7113       4.967338       0.01402
  10     361.9        5.7565        0.0190       10.6494       10.6684       4.911865       0.01404
   9     398.1        5.7705        0.0208       10.6017       10.6225       4.852066       0.01393
   8     437.6        5.7860        0.0228       10.5507       10.5735       4.787438       0.01382
   7     480.5        5.8034        0.0249       10.4959       10.5208       4.717406       0.01375
   6     533.0        5.8260        0.0275       10.4282       10.4557       4.629722       0.01411
   5     589.8        5.8520        0.0303       10.3541       10.3844       4.532389       0.01445
   4     651.6        5.8829        0.0333       10.2713       10.3045       4.421683       0.01514
   3     718.7        5.9199        0.0364       10.1776       10.2140       4.294145       0.01603
   2     792.3        5.9657        0.0398       10.0691       10.1089       4.143232       0.01731
   1     891.5        6.0405        0.0443        9.9058        9.9501       3.909637       0.01988
   0    1013.0        6.1544        0.0495        9.6834        9.7329       3.578424       0.02300



 Wavenumbers:  8050. - 12850. cm-1, ATM      1
 LEVEL PRESSURE   UPWARD FLUX   DIFDOWN FLUX  DIRDOWN FLUX  DOWNWARD FLUX   NET FLUX    HEATING RATE
          mb          W/m2          W/m2          W/m2        W/m2          W/m2       degree/day
  51    .06700       96.6885        0.0000      156.5418      156.5418      59.853205       0.00000
  50    .07753       96.6885        0.0000      156.5417      156.5417      59.853205      -0.00000
  49    .09103       96.6885        0.0001      156.5417      156.5417      59.853205       0.00000
  48    0.1069       96.6885        0.0001      156.5416      156.5417      59.853205       0.00000
  47    0.1255       96.6885        0.0002      156.5415      156.5417      59.853205      -0.00000
  46    0.1487       96.6885        0.0002      156.5414      156.5417      59.853205       0.00000
  45    0.1794       96.6884        0.0003      156.5413      156.5416      59.853205      -0.00000
  44    0.2165       96.6884        0.0004      156.5412      156.5416      59.853205       0.00000
  43    0.2613       96.6883        0.0006      156.5410      156.5415      59.853205       0.00000
  42    0.3336       96.6883        0.0008      156.5407      156.5415      59.853205      -0.00000
  41    0.4307       96.6881        0.0010      156.5403      156.5414      59.853205       0.00000
  40    0.5894       96.6880        0.0015      156.5397      156.5412      59.853205       0.00000
  39     1.339       96.6872        0.0036      156.5367      156.5404      59.853205       0.00000
  38     1.782       96.6867        0.0049      156.5350      156.5399      59.853205       0.00000
  37     2.292       96.6861        0.0064      156.5330      156.5393      59.853205      -0.00000
  36     2.964       96.6854        0.0083      156.5303      156.5386      59.853205       0.00000
  35     3.853       96.6845        0.0108      156.5268      156.5377      59.853205       0.00000
  34     5.035       96.6832        0.0142      156.5222      156.5364      59.853205      -0.00000
  33     6.613       96.6815        0.0187      156.5160      156.5347      59.853205       0.00000
  32     8.786       96.6792        0.0248      156.5076      156.5324      59.853205      -0.00000
  31     11.80       96.6759        0.0334      156.4957      156.5291      59.853205       0.00000
  30     15.07       96.6724        0.0428      156.4828      156.5256      59.853205      -0.00000
  29     18.79       96.6684        0.0533      156.4682      156.5216      59.853205       0.00000
  28     23.16       96.6637        0.0657      156.4512      156.5169      59.853205      -0.00000
  27     28.12       96.6583        0.0798      156.4317      156.5115      59.853205       0.00000
  26     33.73       96.6523        0.0957      156.4099      156.5055      59.853205       0.00000
  25     40.54       96.6451        0.1149      156.3834      156.4983      59.853205       0.00000
  24     48.69       96.6363        0.1380      156.3515      156.4895      59.853205      -0.00000
  23     57.69       96.6267        0.1635      156.3164      156.4799      59.853205      -0.00000
  22     68.43       96.6152        0.1938      156.2746      156.4684      59.853205       0.00000
  21     81.20       96.6015        0.2301      156.2246      156.4547      59.853205       0.00000
  20     96.49       96.5851        0.2733      156.1649      156.4383      59.853205      -0.00000
  19     114.6       96.5657        0.3248      156.0896      156.4144      59.848651       0.00213
  18     136.5       96.5427        0.3859      155.9998      156.3857      59.842996       0.00217
  17     162.9       96.5153        0.4589      155.8900      156.3489      59.833597       0.00300
  16     196.4       96.4797        0.5538      155.7354      156.2891      59.809427       0.00608
  15     218.7       96.4565        0.6162      155.6043      156.2205      59.764000       0.01725
  14     243.0       96.4316        0.6840      155.4027      156.0868      59.655128       0.03776
  13     269.0       96.4058        0.7575      155.0799      155.8374      59.431625       0.07250
  12     297.5       96.3800        0.8367      154.6013      155.4380      59.057995       0.11081
  11     328.5       96.3549        0.9222      154.0159      154.9381      58.583124       0.12912
  10     361.9       96.3320        1.0140      153.3226      154.3366      58.004626       0.14637
   9     398.1       96.3135        1.1125      152.4734      153.5859      57.272385       0.17060
   8     437.6       96.3037        1.2175      151.3909      152.6084      56.304648       0.20691
   7     480.5       96.3075        1.3290      150.0394      151.3684      55.060803       0.24429
   6     533.0       96.3392        1.4642      148.1146      149.5788      53.239648       0.29297
   5     589.8       96.4224        1.6070      145.6538      147.2608      50.838371       0.35643
   4     651.6       96.6145        1.7544      142.3462      144.1006      47.486111       0.45843
   3     718.7       96.9890        1.9049      138.2523      140.1573      43.168242       0.54264
   2     792.3       97.7065        2.0564      133.3106      135.3670      37.660518       0.63167
   1     891.5       99.5136        2.2431      126.0645      128.3075      28.793900       0.75451
   0    1013.0      103.8747        2.4454      117.4136      119.8590      15.984291       0.88944



 Wavenumbers: 12850. - 16000. cm-1, ATM      1
 LEVEL PRESSURE   UPWARD FLUX   DIFDOWN FLUX  DIRDOWN FLUX  DOWNWARD FLUX   NET FLUX    HEATING RATE
          mb          W/m2          W/m2          W/m2        W/m2          W/m2       degree/day
  51    .06700       80.7682        0.0000       98.0872       98.0872      17.319028       0.00000
  50    .07753       80.7682        0.0001       98.0864       98.0864      17.318236       0.63505
  49    .09103       80.7682        0.0002       98.0853       98.0855      17.317241       0.62205
  48    0.1069       80.7682        0.0003       98.0841       98.0843      17.316097       0.60881
  47    0.1255       80.7682        0.0004       98.0826       98.0830      17.314783       0.59588
  46    0.1487       80.7683        0.0005       98.0809       98.0814      17.313123       0.60483
  45    0.1794       80.7683        0.0007       98.0784       98.0792      17.310865       0.61984
  44    0.2165       80.7684        0.0010       98.0756       98.0766      17.308209       0.60439
  43    0.2613       80.7685        0.0013       98.0723       98.0736      17.305083       0.58918
  42    0.3336       80.7688        0.0017       98.0670       98.0687      17.299979       0.59507
  41    0.4307       80.7692        0.0024       98.0602       98.0626      17.293375       0.57420
  40    0.5894       80.7700        0.0034       98.0496       98.0530      17.282960       0.55383
  39     1.339       80.7769        0.0082       98.0043       98.0126      17.235636       0.53278
  38     1.782       80.7832        0.0111       97.9793       97.9904      17.207139       0.54254
  37     2.292       80.7926        0.0144       97.9498       97.9641      17.171587       0.58883
  36     2.964       80.8080        0.0187       97.9088       97.9275      17.119521       0.65359
  35     3.853       80.8328        0.0244       97.8503       97.8747      17.041917       0.73647
  34     5.035       80.8702        0.0320       97.7680       97.8000      16.929773       0.80111
  33     6.613       80.9223        0.0421       97.6562       97.6983      16.775927       0.82246
  32     8.786       80.9903        0.0557       97.5107       97.5664      16.576101       0.77605
  31     11.80       81.0788        0.0752       97.3179       97.3930      16.314256       0.73308
  30     15.07       81.1637        0.0960       97.1283       97.2244      16.060711       0.65460
  29     18.79       81.2504        0.1196       96.9300       97.0496      15.799176       0.59298
  28     23.16       81.3413        0.1471       96.7166       96.8637      15.522350       0.53529
  27     28.12       81.4330        0.1785       96.4935       96.6720      15.239044       0.48160
  26     33.73       81.5180        0.2137       96.2731       96.4868      14.968796       0.40632
  25     40.54       81.6004        0.2562       96.0408       96.2970      14.696572       0.33772
  24     48.69       81.6800        0.3075       95.7946       96.1020      14.422007       0.28413
  23     57.69       81.7483        0.3638       95.5573       95.9210      14.172705       0.23368
  22     68.43       81.8090        0.4309       95.3106       95.7415      13.932513       0.18882
  21     81.20       81.8528        0.5109       95.0644       95.5753      13.722493       0.13878
  20     96.49       81.8787        0.6064       94.8153       95.4217      13.543028       0.09905
  19     114.6       81.9094        0.7210       94.5411       95.2621      13.352716       0.08886
  18     136.5       81.9341        0.8568       94.2321       95.0889      13.154861       0.07608
  17     162.9       81.9527        1.0185       93.8756       94.8941      12.941469       0.06821
  16     196.4       81.9540        1.2283       93.4350       94.6633      12.709384       0.05842
  15     218.7       81.9466        1.3661       93.1520       94.5181      12.571490       0.05235
  14     243.0       81.9350        1.5158       92.8454       94.3612      12.426178       0.05040
  13     269.0       81.9190        1.6781       92.5141       94.1922      12.273185       0.04963
  12     297.5       81.8990        1.8535       92.1557       94.0091      12.110153       0.04835
  11     328.5       81.8768        2.0430       91.7664       93.8094      11.932580       0.04828
  10     361.9       81.8532        2.2470       91.3445       93.5915      11.738295       0.04916
   9     398.1       81.8292        2.4666       90.8865       93.3531      11.523879       0.04995
   8     437.6       81.8069        2.7023       90.3862       93.0886      11.281647       0.05179
   7     480.5       81.7886        2.9550       89.8391       92.7940      11.005481       0.05424
   6     533.0       81.7770        3.2658       89.1437       92.4096      10.632553       0.05999
   5     589.8       81.7856        3.6002       88.3565       91.9567      10.171023       0.06851
   4     651.6       81.8383        3.9582       87.4320       91.3903       9.551948       0.08466
   3     718.7       81.9620        4.3395       86.3412       90.6806       8.718690       0.10472
   2     792.3       82.1974        4.7406       85.0545       89.7950       7.597601       0.12858
   1     891.5       82.7666        5.2664       83.1065       88.3729       5.606344       0.16945
   0    1013.0       83.9341        5.8747       80.5798       86.4545       2.520439       0.21427



 Wavenumbers: 16000. - 22650. cm-1, ATM      1
 LEVEL PRESSURE   UPWARD FLUX   DIFDOWN FLUX  DIRDOWN FLUX  DOWNWARD FLUX   NET FLUX    HEATING RATE
          mb          W/m2          W/m2          W/m2        W/m2          W/m2       degree/day
  51    .06700      140.8255        0.0000      156.3892      156.3892      15.563798       0.00000
  50    .07753      140.8254        0.0004      156.3887      156.3891      15.563650       0.11828
  49    .09103      140.8254        0.0009      156.3879      156.3888      15.563435       0.13415
  48    0.1069      140.8254        0.0015      156.3871      156.3885      15.563148       0.15298
  47    0.1255      140.8254        0.0021      156.3861      156.3882      15.562763       0.17437
  46    0.1487      140.8255        0.0030      156.3847      156.3877      15.562197       0.20663
  45    0.1794      140.8256        0.0041      156.3828      156.3869      15.561310       0.24329
  44    0.2165      140.8258        0.0054      156.3805      156.3859      15.560108       0.27343
  43    0.2613      140.8262        0.0070      156.3776      156.3846      15.558478       0.30740
  42    0.3336      140.8269        0.0097      156.3726      156.3823      15.555377       0.36150
  41    0.4307      140.8282        0.0131      156.3657      156.3789      15.550703       0.40636
  40    0.5894      140.8307        0.0188      156.3537      156.3725      15.541790       0.47400
  39     1.339      140.8533        0.0458      156.2834      156.3292      15.475937       0.74139
  38     1.782      140.8742        0.0617      156.2324      156.2940      15.419838       1.06803
  37     2.292      140.9055        0.0800      156.1641      156.2441      15.338634       1.34495
  36     2.964      140.9575        0.1040      156.0605      156.1645      15.207083       1.65136
  35     3.853      141.0415        0.1358      155.9041      156.0399      14.998344       1.98097
  34     5.035      141.1684        0.1780      155.6774      155.8553      14.686922       2.22467
  33     6.613      141.3457        0.2342      155.3656      155.5998      14.254136       2.31367
  32     8.786      141.5766        0.3099      154.9577      155.2676      13.690985       2.18708
  31     11.80      141.8771        0.4180      154.4153      154.8333      12.956219       2.05711
  30     15.07      142.1649        0.5340      153.8804      154.4143      12.249400       1.82487
  29     18.79      142.4588        0.6647      153.3191      153.9838      11.524979       1.64249
  28     23.16      142.7660        0.8172      152.7126      153.5298      10.763800       1.47187
  27     28.12      143.0750        0.9914      152.0755      153.0668       9.991840       1.31228
  26     33.73      143.3602        1.1860      151.4409      152.6270       9.266740       1.09021
  25     40.54      143.6346        1.4210      150.7637      152.1847       8.550083       0.88909
  24     48.69      143.8973        1.7040      150.0338      151.7379       7.840584       0.73422
  23     57.69      144.1199        2.0145      149.3151      151.3297       7.209771       0.59129
  22     68.43      144.3139        2.3839      148.5476      150.9316       6.617605       0.46552
  21     81.20      144.4477        2.8238      147.7517      150.5754       6.127747       0.32369
  20     96.49      144.5166        3.3473      146.9127      150.2600       5.743334       0.21217
  19     114.6      144.5520        3.9672      145.9763      149.9435       5.391480       0.16429
  18     136.5      144.5625        4.6991      144.9088      149.6079       5.045350       0.13310
  17     162.9      144.5465        5.5666      143.6786      149.2452       4.698636       0.11082
  16     196.4      144.4642        6.6859      142.1651      148.8510       4.386828       0.07849
  15     218.7      144.3875        7.4173      141.2034      148.6208       4.233267       0.05830
  14     243.0      144.2938        8.2090      140.1755      148.3846       4.090743       0.04943
  13     269.0      144.1815        9.0631      139.0801      148.1432       3.961771       0.04184
  12     297.5      144.0497        9.9815      137.9151      147.8966       3.846881       0.03408
  11     328.5      143.9026       10.9687      136.6694      147.6381       3.735498       0.03028
  10     361.9      143.7399       12.0256      135.3422      147.3678       3.627905       0.02722
   9     398.1      143.5609       13.1561      133.9283      147.0843       3.523451       0.02434
   8     437.6      143.3665       14.3622      132.4236      146.7858       3.419370       0.02225
   7     480.5      143.1561       15.6462      130.8257      146.4719       3.315747       0.02035
   6     533.0      142.8965       17.2143      128.8769      146.0912       3.194626       0.01948
   5     589.8      142.6194       18.8897      126.7936      145.6834       3.063991       0.01939
   4     651.6      142.3295       20.6740      124.5671      145.2411       2.911541       0.02085
   3     718.7      142.0316       22.5688      122.1892      144.7580       2.726328       0.02328
   2     792.3      141.7383       24.5721      119.6481      144.2202       2.481915       0.02803
   1     891.5      141.4038       27.2320      116.2132      143.4452       2.041408       0.03749
   0    1013.0      141.1011       30.3583      112.0937      142.4520       1.350958       0.04794



 Wavenumbers: 22650. - 29000. cm-1, ATM      1
 LEVEL PRESSURE   UPWARD FLUX   DIFDOWN FLUX  DIRDOWN FLUX  DOWNWARD FLUX   NET FLUX    HEATING RATE
          mb          W/m2          W/m2          W/m2        W/m2          W/m2       degree/day
  51    .06700       58.6820        0.0000       59.0156       59.0156       0.333640       0.00000
  50    .07753       58.6819        0.0005       59.0151       59.0155       0.333640       0.00000
  49    .09103       58.6818        0.0010       59.0144       59.0154       0.333640      -0.00000
  48    0.1069       58.6816        0.0017       59.0136       59.0153       0.333640       0.00000
  47    0.1255       58.6815        0.0025       59.0127       59.0151       0.333640       0.00000
  46    0.1487       58.6813        0.0035       59.0115       59.0149       0.333640      -0.00000
  45    0.1794       58.6810        0.0048       59.0099       59.0147       0.333640       0.00000
  44    0.2165       58.6807        0.0063       59.0080       59.0144       0.333640      -0.00000
  43    0.2613       58.6804        0.0082       59.0058       59.0140       0.333640      -0.00000
  42    0.3336       58.6798        0.0113       59.0022       59.0134       0.333640       0.00000
  41    0.4307       58.6790        0.0154       58.9973       59.0127       0.333640      -0.00000
  40    0.5894       58.6777        0.0220       58.9894       59.0114       0.333640      -0.00000
  39     1.339       58.6717        0.0535       58.9518       59.0053       0.333640       0.00000
  38     1.782       58.6681        0.0720       58.9297       59.0017       0.333640      -0.00000
  37     2.292       58.6640        0.0934       58.9042       58.9976       0.333640      -0.00000
  36     2.964       58.6586        0.1216       58.8706       58.9922       0.333640       0.00000
  35     3.853       58.6514        0.1587       58.8264       58.9851       0.333640       0.00000
  34     5.035       58.6419        0.2080       58.7676       58.9756       0.333640       0.00000
  33     6.613       58.6293        0.2738       58.6891       58.9629       0.333640      -0.00000
  32     8.786       58.6122        0.3624       58.5834       58.9458       0.333640      -0.00000
  31     11.80       58.5878        0.4890       58.4324       58.9215       0.333640       0.00000
  30     15.07       58.5617        0.6247       58.2706       58.8953       0.333640      -0.00000
  29     18.79       58.5322        0.7777       58.0882       58.8659       0.333640       0.00000
  28     23.16       58.4979        0.9559       57.8757       58.8316       0.333640       0.00000
  27     28.12       58.4588        1.1591       57.6333       58.7924       0.333640      -0.00000
  26     33.73       58.4151        1.3857       57.3631       58.7488       0.333640       0.00000
  25     40.54       58.3626        1.6584       57.0379       58.6963       0.333640       0.00000
  24     48.69       58.2996        1.9854       56.6479       58.6333       0.333640      -0.00000
  23     57.69       58.2309        2.3424       56.2221       58.5645       0.333640       0.00000
  22     68.43       58.1495        2.7646       55.7186       58.4832       0.333640       0.00000
  21     81.20       58.0534        3.2632       55.1239       58.3871       0.333640      -0.00000
  20     96.49       57.9401        3.8510       54.4228       58.2738       0.333640       0.00000
  19     114.6       57.8073        4.5400       53.6010       58.1410       0.333640       0.00000
  18     136.5       57.6522        5.3441       52.6418       57.9859       0.333640      -0.00000
  17     162.9       57.4709        6.2842       51.5204       57.8045       0.333640       0.00000
  16     196.4       57.2410        7.4752       50.0995       57.5747       0.333640       0.00000
  15     218.7       57.0932        8.2406       49.1863       57.4269       0.333640       0.00000
  14     243.0       56.9354        9.0578       48.2113       57.2691       0.333640      -0.00000
  13     269.0       56.7676        9.9262       47.1750       57.1012       0.333640       0.00000
  12     297.5       56.5900       10.8452       46.0784       56.9236       0.333640      -0.00000
  11     328.5       56.4022       11.8160       44.9198       56.7358       0.333640       0.00000
  10     361.9       56.2048       12.8362       43.7023       56.5384       0.333640      -0.00000
   9     398.1       55.9977       13.9057       42.4257       56.3313       0.333640       0.00000
   8     437.6       55.7813       15.0224       41.0926       56.1150       0.333640      -0.00000
   7     480.5       55.5561       16.1839       39.7058       55.8897       0.333640       0.00000
   6     533.0       55.2880       17.5654       38.0562       55.6216       0.333640      -0.00000
   5     589.8       55.0100       18.9961       36.3475       55.3436       0.333640       0.00000
   4     651.6       54.7229       20.4716       34.5849       55.0566       0.333640      -0.00000
   3     718.7       54.4283       21.9839       32.7780       54.7620       0.333640       0.00000
   2     792.3       54.1273       23.5265       30.9344       54.4610       0.333640       0.00000
   1     891.5       53.7447       25.4833       28.5950       54.0783       0.333640      -0.00000
   0    1013.0       53.3179       27.6596       25.9919       53.6515       0.333640       0.00000



 Wavenumbers: 29000. - 38000. cm-1, ATM      1
 LEVEL PRESSURE   UPWARD FLUX   DIFDOWN FLUX  DIRDOWN FLUX  DOWNWARD FLUX   NET FLUX    HEATING RATE
          mb          W/m2          W/m2          W/m2        W/m2          W/m2       degree/day
  51    .06700        8.7676        0.0000       20.8114       20.8114      12.043753       0.00000
  50    .07753        8.7674        0.0003       20.8070       20.8074      12.039946       3.05155
  49    .09103        8.7672        0.0007       20.8009       20.8016      12.034409       3.46085
  48    0.1069        8.7669        0.0012       20.7928       20.7939      12.026999       3.94429
  47    0.1255        8.7667        0.0017       20.7820       20.7837      12.017095       4.49034
  46    0.1487        8.7663        0.0024       20.7665       20.7688      12.002531       5.30844
  45    0.1794        8.7658        0.0033       20.7424       20.7457      11.979867       6.22204
  44    0.2165        8.7653        0.0044       20.7103       20.7147      11.949344       6.94340
  43    0.2613        8.7648        0.0056       20.6675       20.6731      11.908349       7.72732
  42    0.3336        8.7639        0.0077       20.5880       20.5957      11.831788       8.92625
  41    0.4307        8.7628        0.0104       20.4722       20.4826      11.719836       9.73402
  40    0.5894        8.7612        0.0147       20.2637       20.2784      11.517152      10.77846
  39     1.339        8.7578        0.0331       19.0984       19.1315      10.373675      12.87347
  38     1.782        8.7583        0.0427       18.4394       18.4821       9.723751      12.37351
  37     2.292        8.7610        0.0530       17.7714       17.8244       9.063406      10.93703
  36     2.964        8.7676        0.0657       17.0421       17.1078       8.340282       9.07739
  35     3.853        8.7804        0.0816       16.2679       16.3495       7.569103       7.31863
  34     5.035        8.8015        0.1018       15.4803       15.5821       6.780610       5.63267
  33     6.613        8.8322        0.1276       14.7157       14.8433       6.011028       4.11418
  32     8.786        8.8729        0.1614       13.9936       14.1549       5.282082       2.83096
  31     11.80        8.9259        0.2084       13.2835       13.4920       4.566123       2.00446
  30     15.07        8.9770        0.2573       12.7394       12.9966       4.019654       1.41088
  29     18.79        9.0298        0.3114       12.2666       12.5780       3.548211       1.06891
  28     23.16        9.0858        0.3729       11.8300       12.2029       3.117076       0.83368
  27     28.12        9.1433        0.4418       11.4279       11.8697       2.726385       0.66415
  26     33.73        9.1964        0.5178       11.0695       11.5872       2.390881       0.50444
  25     40.54        9.2467        0.6085       10.7209       11.3294       2.082713       0.38232
  24     48.69        9.2942        0.7162       10.3742       11.0904       1.796156       0.29654
  23     57.69        9.3333        0.8328       10.0549       10.8877       1.554394       0.22662
  22     68.43        9.3649        0.9695        9.7327       10.7022       1.337354       0.17062
  21     81.20        9.3801        1.1309        9.4134       10.5443       1.164284       0.11436
  20     96.49        9.3769        1.3207        9.0887       10.4094       1.032536       0.07272
  19     114.6        9.3635        1.5400        8.7388       10.2788       0.915263       0.05476
  18     136.5        9.3429        1.7907        8.3549       10.1456       0.802735       0.04327
  17     162.9        9.3151        2.0765        7.9311       10.0076       0.692556       0.03522
  16     196.4        9.2683        2.4305        7.4333        9.8638       0.595575       0.02441
  15     218.7        9.2345        2.6532        7.1296        9.7828       0.548275       0.01796
  14     243.0        9.1975        2.8860        6.8161        9.7021       0.504597       0.01515
  13     269.0        9.1570        3.1281        6.4943        9.6224       0.465377       0.01272
  12     297.5        9.1132        3.3783        6.1658        9.5440       0.430803       0.01025
  11     328.5        9.0675        3.6357        5.8295        9.4652       0.397701       0.00900
  10     361.9        9.0203        3.8978        5.4887        9.3866       0.366218       0.00797
   9     398.1        8.9718        4.1641        5.1441        9.3082       0.336382       0.00695
   8     437.6        8.9225        4.4331        4.7970        9.2301       0.307619       0.00615
   7     480.5        8.8727        4.7026        4.4505        9.1530       0.280315       0.00536
   6     533.0        8.8157        5.0094        4.0569        9.0663       0.250558       0.00479
   5     589.8        8.7596        5.3117        3.6697        8.9814       0.221738       0.00428
   4     651.6        8.7053        5.6066        3.2922        8.8988       0.193542       0.00386
   3     718.7        8.6532        5.8916        2.9275        8.8191       0.165922       0.00347
   2     792.3        8.6041        6.1643        2.5788        8.7430       0.138886       0.00310
   1     891.5        8.5481        6.4842        2.1693        8.6536       0.105502       0.00284
   0    1013.0        8.4945        6.8062        1.7570        8.5631       0.068614       0.00256



 Wavenumbers: 38000. - 50000. cm-1, ATM      1
 LEVEL PRESSURE   UPWARD FLUX   DIFDOWN FLUX  DIRDOWN FLUX  DOWNWARD FLUX   NET FLUX    HEATING RATE
          mb          W/m2          W/m2          W/m2        W/m2          W/m2       degree/day
  51    .06700        0.0061        0.0000        1.2836        1.2836       1.277518       0.00000
  50    .07753        0.0061        0.0001        1.2812        1.2812       1.275183       1.87150
  49    .09103        0.0060        0.0002        1.2777        1.2778       1.271851       2.08247
  48    0.1069        0.0059        0.0002        1.2731        1.2734       1.267473       2.33059
  47    0.1255        0.0058        0.0004        1.2672        1.2675       1.261717       2.60908
  46    0.1487        0.0057        0.0005        1.2586        1.2591       1.253391       3.03499
  45    0.1794        0.0055        0.0007        1.2455        1.2462       1.240623       3.50520
  44    0.2165        0.0054        0.0009        1.2282        1.2291       1.223697       3.85037
  43    0.2613        0.0052        0.0011        1.2054        1.2065       1.201348       4.21261
  42    0.3336        0.0049        0.0015        1.1639        1.1654       1.160524       4.75970
  41    0.4307        0.0045        0.0020        1.1051        1.1070       1.102565       5.03943
  40    0.5894        0.0039        0.0026        1.0039        1.0064       1.002524       5.32007
  39     1.339        0.0022        0.0035        0.5438        0.5473       0.545104       5.14971
  38     1.782        0.0016        0.0032        0.3635        0.3666       0.365006       3.42879
  37     2.292        0.0012        0.0027        0.2356        0.2383       0.237058       2.11916
  36     2.964        0.0009        0.0022        0.1455        0.1477       0.146786       1.13318
  35     3.853        0.0006        0.0017        0.0858        0.0875       0.086906       0.56828
  34     5.035        0.0004        0.0013        0.0488        0.0501       0.049701       0.26578
  33     6.613        0.0003        0.0010        0.0273        0.0282       0.027974       0.11615
  32     8.786        0.0002        0.0007        0.0144        0.0151       0.014928       0.05067
  31     11.80        0.0001        0.0004        0.0065        0.0070       0.006903       0.02247
  30     15.07        0.0000        0.0003        0.0031        0.0034       0.003329       0.00923
  29     18.79        0.0000        0.0002        0.0014        0.0016       0.001583       0.00396
  28     23.16        0.0000        0.0001        0.0006        0.0007       0.000720       0.00167
  27     28.12        0.0000        0.0001        0.0003        0.0003       0.000317       0.00069
  26     33.73        0.0000        0.0000        0.0001        0.0001       0.000140       0.00027
  25     40.54        0.0000        0.0000        0.0000        0.0001       0.000057       0.00010
  24     48.69        0.0000        0.0000        0.0000        0.0000       0.000021       0.00004
  23     57.69        0.0000        0.0000        0.0000        0.0000       0.000008       0.00001
  22     68.43        0.0000        0.0000        0.0000        0.0000       0.000003       0.00000
  21     81.20        0.0000        0.0000        0.0000        0.0000       0.000001       0.00000
  20     96.49        0.0000        0.0000        0.0000        0.0000       0.000000       0.00000
  19     114.6        0.0000        0.0000        0.0000        0.0000       0.000000       0.00000
  18     136.5        0.0000        0.0000        0.0000        0.0000       0.000000       0.00000
  17     162.9        0.0000        0.0000        0.0000        0.0000       0.000000       0.00000
  16     196.4        0.0000        0.0000        0.0000        0.0000       0.000000       0.00000
  15     218.7        0.0000        0.0000        0.0000        0.0000       0.000000       0.00000
  14     243.0        0.0000        0.0000        0.0000        0.0000       0.000000       0.00000
  13     269.0        0.0000        0.0000        0.0000        0.0000       0.000000       0.00000
  12     297.5        0.0000        0.0000        0.0000        0.0000       0.000000       0.00000
  11     328.5        0.0000        0.0000        0.0000        0.0000       0.000000       0.00000
  10     361.9        0.0000        0.0000        0.0000        0.0000       0.000000       0.00000
   9     398.1        0.0000        0.0000        0.0000        0.0000       0.000000       0.00000
   8     437.6        0.0000        0.0000        0.0000        0.0000       0.000000       0.00000
   7     480.5        0.0000        0.0000        0.0000        0.0000       0.000000       0.00000
   6     533.0        0.0000        0.0000        0.0000        0.0000       0.000000       0.00000
   5     589.8        0.0000        0.0000        0.0000        0.0000       0.000000       0.00000
   4     651.6        0.0000        0.0000        0.0000        0.0000       0.000000       0.00000
   3     718.7        0.0000        0.0000        0.0000        0.0000       0.000000       0.00000
   2     792.3        0.0000        0.0000        0.0000        0.0000       0.000000       0.00000
   1     891.5        0.0000        0.0000        0.0000        0.0000       0.000000       0.00000
   0    1013.0        0.0000        0.0000        0.0000        0.0000       0.000000       0.00000



 Wavenumbers:   820. -  2600. cm-1, ATM      1
 LEVEL PRESSURE   UPWARD FLUX   DIFDOWN FLUX  DIRDOWN FLUX  DOWNWARD FLUX   NET FLUX    HEATING RATE
          mb          W/m2          W/m2          W/m2        W/m2          W/m2       degree/day
  51    .06700        0.0159        0.0000        6.0047        6.0047       5.988702       0.00000
  50    .07753        0.0159        0.0000        6.0008        6.0008       5.984869       3.07234
  49    .09103        0.0159        0.0000        6.0000        6.0000       5.984009       0.53745
  48    0.1069        0.0159        0.0000        5.9990        5.9990       5.983051       0.51013
  47    0.1255        0.0159        0.0000        5.9979        5.9979       5.981971       0.48984
  46    0.1487        0.0159        0.0000        5.9966        5.9966       5.980662       0.47701
  45    0.1794        0.0159        0.0000        5.9950        5.9950       5.979011       0.45330
  44    0.2165        0.0159        0.0000        5.9932        5.9932       5.977252       0.40011
  43    0.2613        0.0159        0.0000        5.9913        5.9913       5.975395       0.35005
  42    0.3336        0.0159        0.0000        5.9886        5.9886       5.972691       0.31521
  41    0.4307        0.0159        0.0000        5.9854        5.9854       5.969459       0.28106
  40    0.5894        0.0159        0.0000        5.9803        5.9803       5.964349       0.27174
  39     1.339        0.0159        0.0000        5.9567        5.9567       5.940719       0.26603
  38     1.782        0.0159        0.0000        5.9436        5.9436       5.927619       0.24940
  37     2.292        0.0159        0.0000        5.9289        5.9289       5.912996       0.24219
  36     2.964        0.0159        0.0000        5.9105        5.9105       5.894573       0.23127
  35     3.853        0.0159        0.0000        5.8874        5.8874       5.871436       0.21957
  34     5.035        0.0159        0.0000        5.8586        5.8586       5.842645       0.20567
  33     6.613        0.0159        0.0000        5.8224        5.8224       5.806469       0.19340
  32     8.786        0.0159        0.0000        5.7764        5.7764       5.760415       0.17886
  31     11.80        0.0159        0.0000        5.7181        5.7181       5.702112       0.16323
  30     15.07        0.0159        0.0000        5.6683        5.6683       5.652332       0.12852
  29     18.79        0.0159        0.0000        5.6273        5.6273       5.611378       0.09285
  28     23.16        0.0159        0.0000        5.5946        5.5947       5.578705       0.06318
  27     28.12        0.0159        0.0000        5.5686        5.5686       5.552616       0.04435
  26     33.73        0.0159        0.0000        5.5456        5.5456       5.529613       0.03459
  25     40.54        0.0159        0.0000        5.5206        5.5206       5.504681       0.03093
  24     48.69        0.0159        0.0000        5.4918        5.4918       5.475848       0.02984
  23     57.69        0.0159        0.0000        5.4606        5.4606       5.444655       0.02924
  22     68.43        0.0159        0.0000        5.4240        5.4240       5.408034       0.02879
  21     81.20        0.0159        0.0000        5.3817        5.3818       5.365808       0.02790
  20     96.49        0.0159        0.0000        5.3329        5.3329       5.316977       0.02695
  19     114.6        0.0159        0.0000        5.2769        5.2770       5.261016       0.02613
  18     136.5        0.0159        0.0000        5.2134        5.2134       5.197448       0.02444
  17     162.9        0.0159        0.0000        5.1367        5.1367       5.120788       0.02450
  16     196.4        0.0159        0.0000        5.0257        5.0258       5.009815       0.02793
  15     218.7        0.0159        0.0000        4.9291        4.9292       4.913219       0.03667
  14     243.0        0.0159        0.0000        4.7920        4.7920       4.776100       0.04756
  13     269.0        0.0159        0.0000        4.6263        4.6263       4.610398       0.05375
  12     297.5        0.0160        0.0000        4.4466        4.4466       4.430668       0.05331
  11     328.5        0.0160        0.0000        4.2635        4.2635       4.247560       0.04979
  10     361.9        0.0160        0.0000        4.0487        4.0487       4.032754       0.05435
   9     398.1        0.0160        0.0000        3.8033        3.8033       3.787277       0.05719
   8     437.6        0.0160        0.0000        3.5518        3.5518       3.535797       0.05377
   7     480.5        0.0161        0.0000        3.3399        3.3399       3.323815       0.04163
   6     533.0        0.0161        0.0000        3.1652        3.1652       3.149105       0.02811
   5     589.8        0.0162        0.0000        3.0279        3.0280       3.011740       0.02039
   4     651.6        0.0164        0.0000        2.8679        2.8680       2.851594       0.02190
   3     718.7        0.0166        0.0000        2.6744        2.6744       2.657820       0.02435
   2     792.3        0.0171        0.0000        2.4559        2.4560       2.438870       0.02511
   1     891.5        0.0182        0.0000        2.1709        2.1709       2.152755       0.02435
   0    1013.0        0.0208        0.0000        1.8253        1.8253       1.804533       0.02418

  Modules and versions used in this calculation:

       rrtmg_sw.1col.f90:  $Revision$                    rrtmg_sw_init.f90:  $Revision$        
     rrtmgsw_cldprop.f90:  $Revision$                  rrtmgsw_cldprmc.f90:  NOT USED          
     rrtmg_sw_reftra.f90:  $Revision$                  rrtmg_sw_spcvrt.f90:  NOT USED          
     rrtmg_sw_spcvmc.f90:  NOT USED                    rrtmgsw_setcoef.f90:  NOT USED          
     rrtmg_sw_taumol.f90:  $Revision$                  rrtmg_sw_vrtqdr.f90:  NOT USED          
                rrtatm.f:  NOT USED                             util_xxx.f:  NOT USED          
                 extra.f:  NOT USED                       rrtmg_sw_k_g.f90:  $Revision$        

