

 Wavenumbers:   820. - 50000. cm-1, ATM      1
 LEVEL PRESSURE   UPWARD FLUX   DIFDOWN FLUX  DIRDOWN FLUX  DOWNWARD FLUX   NET FLUX    HEATING RATE
          mb          W/m2          W/m2          W/m2        W/m2          W/m2       degree/day
  51    .06700      403.3735        0.0000      617.8126      617.8126     214.439095       0.00000
  50    .07753      403.3731        0.0013      617.7949      617.7962     214.423096      12.82284
  49    .09103      403.3727        0.0030      617.7781      617.7811     214.408457       9.15037
  48    0.1069      403.3722        0.0050      617.7586      617.7636     214.391386       9.08670
  47    0.1255      403.3716        0.0072      617.7347      617.7419     214.370252       9.58111
  46    0.1487      403.3711        0.0100      617.7019      617.7119     214.340832      10.72402
  45    0.1794      403.3703        0.0139      617.6534      617.6673     214.296952      12.04610
  44    0.2165      403.3696        0.0184      617.5912      617.6096     214.240044      12.94558
  43    0.2613      403.3688        0.0237      617.5111      617.5349     214.166023      13.95265
  42    0.3336      403.3679        0.0326      617.3671      617.3997     214.031768      15.65276
  41    0.4307      403.3672        0.0442      617.1633      617.2074     213.840266      16.65073
  40    0.5894      403.3669        0.0629      616.8064      616.8693     213.502419      17.96625
  39     1.339      403.3837        0.1476      614.9580      615.1055     211.721840      20.04608
  38     1.782      403.4061        0.1952      613.9847      614.1799     210.773803      18.04910
  37     2.292      403.4434        0.2494      613.0278      613.2772     209.833810      15.56873
  36     2.964      403.5096        0.3198      611.9848      612.3047     208.795109      13.03884
  35     3.853      403.6208        0.4122      610.8360      611.2482     207.627370      11.08206
  34     5.035      403.7921        0.5341      609.5742      610.1083     206.316197       9.36648
  33     6.613      404.0334        0.6959      608.1974      608.8933     204.859934       7.78518
  32     8.786      404.3477        0.9130      606.6871      607.6001     203.252378       6.24317
  31     11.80      404.7545        1.2220      604.9239      606.1459     201.391381       5.21021
  30     15.07      405.1414        1.5518      603.3308      604.8825     199.741102       4.26070
  29     18.79      405.5340        1.9228      601.7495      603.6723     198.138319       3.63400
  28     23.16      405.9411        2.3539      600.1034      602.4573     196.516222       3.13661
  27     28.12      406.3466        2.8447      598.4121      601.2567     194.910133       2.73024
  26     33.73      406.7125        3.3917      596.7325      600.1242     193.411691       2.25295
  25     40.54      407.0520        4.0503      594.9242      598.9745     191.922505       1.84750
  24     48.69      407.3622        4.8406      592.9530      597.7936     190.431434       1.54302
  23     57.69      407.6066        5.7045      590.9772      596.6817     189.075156       1.27131
  22     68.43      407.7931        6.7279      588.8167      595.5445     187.751424       1.04063
  21     81.20      407.8702        7.9412      586.4841      594.4253     186.555157       0.79048
  20     96.49      407.8274        9.3778      583.9299      593.3077     185.480302       0.59324
  19     114.6      407.7212       11.0678      581.0319      592.0996     184.378394       0.51451
  18     136.5      407.5513       13.0465      577.7279      590.7744     183.223081       0.44425
  17     162.9      407.3113       15.3686      573.9057      589.2743     181.963046       0.40276
  16     196.4      406.9132       18.3298      569.0548      587.3846     180.471438       0.37546
  15     218.7      406.6229       20.2442      565.6846      585.9288     179.305980       0.44248
  14     243.0      406.2977       22.2977      561.7169      584.0145     177.716850       0.55116
  13     269.0      405.9368       24.4915      556.9496      581.4411     175.504229       0.71776
  12     297.5      405.5421       26.8263      551.2485      578.0748     172.532706       0.88132
  11     328.5      405.1212       29.3085      544.9870      574.2955     169.174236       0.91316
  10     361.9      404.6778       31.9343      538.2362      570.1705     165.492700       0.93147
   9     398.1      404.2153       34.7084      530.8730      565.5814     161.366074       0.96141
   8     437.6      403.7430       37.6296      522.7280      560.3577     156.614684       1.01588
   7     480.5      403.2689       40.6962      513.8706      554.5668     151.297915       1.04419
   6     533.0      402.7440       44.3831      502.9383      547.3215     144.577448       1.08111
   5     589.8      402.2808       48.2510      491.0406      539.2916     137.010793       1.12314
   4     651.6      401.9789       52.2919      477.6423      529.9342     127.955333       1.23836
   3     718.7      401.9635       56.4957      463.1316      519.6273     117.663799       1.29336
   2     792.3      402.4942       60.8434      447.4988      508.3422     105.847929       1.35515
   1     891.5      404.5933       66.4689      426.6749      493.1438      88.550438       1.47193
   0    1013.0      410.5983       72.8767      402.8409      475.7176      65.119312       1.62694



 Wavenumbers:  2600. -  3250. cm-1, ATM      1
 LEVEL PRESSURE   UPWARD FLUX   DIFDOWN FLUX  DIRDOWN FLUX  DOWNWARD FLUX   NET FLUX    HEATING RATE
          mb          W/m2          W/m2          W/m2        W/m2          W/m2       degree/day
  51    .06700        1.3736        0.0000        5.4450        5.4450       4.071435       0.00000
  50    .07753        1.3736        0.0000        5.4450        5.4450       4.071427       0.00640
  49    .09103        1.3736        0.0000        5.4450        5.4450       4.071417       0.00627
  48    0.1069        1.3736        0.0000        5.4450        5.4450       4.071406       0.00613
  47    0.1255        1.3736        0.0000        5.4450        5.4450       4.071392       0.00599
  46    0.1487        1.3736        0.0000        5.4450        5.4450       4.071376       0.00608
  45    0.1794        1.3736        0.0000        5.4450        5.4450       4.071353       0.00625
  44    0.2165        1.3736        0.0000        5.4449        5.4449       4.071326       0.00612
  43    0.2613        1.3736        0.0000        5.4449        5.4449       4.071294       0.00600
  42    0.3336        1.3736        0.0000        5.4448        5.4448       4.071241       0.00617
  41    0.4307        1.3736        0.0000        5.4448        5.4448       4.071170       0.00620
  40    0.5894        1.3736        0.0000        5.4446        5.4446       4.071050       0.00637
  39     1.339        1.3736        0.0000        5.4439        5.4439       4.070343       0.00797
  38     1.782        1.3736        0.0000        5.4434        5.4434       4.069800       0.01034
  37     2.292        1.3736        0.0000        5.4427        5.4427       4.069084       0.01186
  36     2.964        1.3736        0.0000        5.4416        5.4416       4.068045       0.01304
  35     3.853        1.3736        0.0000        5.4402        5.4402       4.066568       0.01402
  34     5.035        1.3736        0.0000        5.4381        5.4381       4.064512       0.01468
  33     6.613        1.3736        0.0000        5.4353        5.4353       4.061731       0.01487
  32     8.786        1.3736        0.0000        5.4317        5.4317       4.058098       0.01411
  31     11.80        1.3736        0.0000        5.4269        5.4269       4.053317       0.01339
  30     15.07        1.3736        0.0000        5.4224        5.4224       4.048790       0.01169
  29     18.79        1.3736        0.0000        5.4180        5.4180       4.044376       0.01001
  28     23.16        1.3736        0.0000        5.4135        5.4135       4.039888       0.00868
  27     28.12        1.3736        0.0000        5.4088        5.4088       4.035236       0.00791
  26     33.73        1.3736        0.0000        5.4036        5.4036       4.029990       0.00789
  25     40.54        1.3736        0.0000        5.3966        5.3967       4.023040       0.00862
  24     48.69        1.3736        0.0000        5.3872        5.3872       4.013551       0.00982
  23     57.69        1.3737        0.0000        5.3754        5.3754       4.001748       0.01106
  22     68.43        1.3737        0.0000        5.3599        5.3599       3.986234       0.01220
  21     81.20        1.3737        0.0000        5.3401        5.3401       3.966363       0.01313
  20     96.49        1.3738        0.0000        5.3155        5.3155       3.941742       0.01359
  19     114.6        1.3739        0.0000        5.2857        5.2857       3.911853       0.01396
  18     136.5        1.3740        0.0001        5.2511        5.2512       3.877173       0.01334
  17     162.9        1.3742        0.0001        5.2122        5.2123       3.838126       0.01248
  16     196.4        1.3745        0.0001        5.1663        5.1663       3.791867       0.01164
  15     218.7        1.3748        0.0001        5.1374        5.1374       3.762695       0.01108
  14     243.0        1.3752        0.0001        5.1047        5.1048       3.729643       0.01146
  13     269.0        1.3759        0.0001        5.0662        5.0663       3.690362       0.01274
  12     297.5        1.3769        0.0001        5.0199        5.0200       3.643107       0.01402
  11     328.5        1.3784        0.0001        4.9669        4.9670       3.588644       0.01481
  10     361.9        1.3802        0.0001        4.9043        4.9044       3.524187       0.01631
   9     398.1        1.3828        0.0002        4.8270        4.8272       3.444378       0.01859
   8     437.6        1.3862        0.0002        4.7291        4.7293       3.343092       0.02166
   7     480.5        1.3908        0.0002        4.6062        4.6064       3.215614       0.02504
   6     533.0        1.3980        0.0002        4.4325        4.4327       3.034659       0.02911
   5     589.8        1.4085        0.0002        4.2204        4.2206       2.812159       0.03303
   4     651.6        1.4248        0.0002        3.9637        3.9640       2.539173       0.03733
   3     718.7        1.4503        0.0002        3.6788        3.6790       2.228640       0.03903
   2     792.3        1.4906        0.0002        3.3749        3.3751       1.884571       0.03946
   1     891.5        1.5790        0.0002        2.9569        2.9572       1.378191       0.04309
   0    1013.0        1.7810        0.0002        2.4799        2.4801       0.699128       0.04715



 Wavenumbers:  3250. -  4000. cm-1, ATM      1
 LEVEL PRESSURE   UPWARD FLUX   DIFDOWN FLUX  DIRDOWN FLUX  DOWNWARD FLUX   NET FLUX    HEATING RATE
          mb          W/m2          W/m2          W/m2        W/m2          W/m2       degree/day
  51    .06700        0.0047        0.0000        9.1795        9.1795       9.174836       0.00000
  50    .07753        0.0047        0.0000        9.1748        9.1748       9.170070       3.82016
  49    .09103        0.0047        0.0000        9.1715        9.1715       9.166766       2.06459
  48    0.1069        0.0047        0.0000        9.1690        9.1690       9.164331       1.29651
  47    0.1255        0.0047        0.0000        9.1669        9.1669       9.162161       0.98374
  46    0.1487        0.0047        0.0000        9.1645        9.1645       9.159825       0.85131
  45    0.1794        0.0047        0.0000        9.1618        9.1618       9.157073       0.75568
  44    0.2165        0.0047        0.0000        9.1590        9.1590       9.154289       0.63327
  43    0.2613        0.0047        0.0000        9.1562        9.1562       9.151468       0.53178
  42    0.3336        0.0047        0.0000        9.1522        9.1522       9.147538       0.45817
  41    0.4307        0.0047        0.0000        9.1478        9.1478       9.143099       0.38590
  40    0.5894        0.0047        0.0000        9.1413        9.1413       9.136612       0.34498
  39     1.339        0.0047        0.0000        9.1163        9.1163       9.111624       0.28133
  38     1.782        0.0047        0.0000        9.1052        9.1052       9.100540       0.21101
  37     2.292        0.0047        0.0000        9.0946        9.0946       9.089894       0.17632
  36     2.964        0.0047        0.0000        9.0826        9.0826       9.077930       0.15019
  35     3.853        0.0047        0.0000        9.0684        9.0684       9.063757       0.13451
  34     5.035        0.0047        0.0000        9.0506        9.0506       9.045917       0.12744
  33     6.613        0.0047        0.0000        9.0269        9.0269       9.022193       0.12683
  32     8.786        0.0047        0.0000        8.9938        8.9938       8.989111       0.12848
  31     11.80        0.0047        0.0000        8.9445        8.9445       8.939855       0.13790
  30     15.07        0.0047        0.0000        8.8898        8.8898       8.885132       0.14128
  29     18.79        0.0047        0.0000        8.8270        8.8270       8.822356       0.14233
  28     23.16        0.0047        0.0000        8.7542        8.7543       8.749589       0.14071
  27     28.12        0.0047        0.0000        8.6743        8.6744       8.669716       0.13578
  26     33.73        0.0046        0.0000        8.5914        8.5915       8.586834       0.12462
  25     40.54        0.0046        0.0001        8.5010        8.5011       8.496438       0.11215
  24     48.69        0.0046        0.0001        8.4044        8.4045       8.399848       0.09996
  23     57.69        0.0046        0.0001        8.3082        8.3082       8.303610       0.09021
  22     68.43        0.0046        0.0001        8.1998        8.1999       8.195248       0.08519
  21     81.20        0.0046        0.0001        8.0739        8.0740       8.069397       0.08316
  20     96.49        0.0046        0.0001        7.9273        7.9274       7.922864       0.08088
  19     114.6        0.0045        0.0001        7.7564        7.7565       7.751985       0.07979
  18     136.5        0.0045        0.0002        7.5680        7.5682       7.563655       0.07242
  17     162.9        0.0045        0.0002        7.3560        7.3561       7.351655       0.06776
  16     196.4        0.0045        0.0002        7.0720        7.0723       7.067808       0.07145
  15     218.7        0.0044        0.0002        6.8105        6.8107       6.806259       0.09930
  14     243.0        0.0044        0.0003        6.4650        6.4653       6.460893       0.11978
  13     269.0        0.0044        0.0003        6.0357        6.0359       6.031533       0.13928
  12     297.5        0.0044        0.0003        5.5371        5.5374       5.533043       0.14785
  11     328.5        0.0044        0.0003        5.0201        5.0204       5.015995       0.14058
  10     361.9        0.0044        0.0003        4.4896        4.4899       4.485506       0.13422
   9     398.1        0.0044        0.0003        3.9638        3.9640       3.959686       0.12250
   8     437.6        0.0044        0.0002        3.4637        3.4640       3.459574       0.10693
   7     480.5        0.0044        0.0002        3.0034        3.0036       2.999160       0.09042
   6     533.0        0.0045        0.0002        2.5173        2.5176       2.513014       0.07821
   5     589.8        0.0048        0.0002        2.0558        2.0560       2.051240       0.06854
   4     651.6        0.0052        0.0002        1.5860        1.5862       1.580985       0.06431
   3     718.7        0.0061        0.0001        1.1330        1.1331       1.127053       0.05705
   2     792.3        0.0080        0.0001        0.7206        0.7207       0.712629       0.04753
   1     891.5        0.0153        0.0001        0.3277        0.3278       0.312476       0.03405
   0    1013.0        0.0560        0.0000        0.0780        0.0780       0.021979       0.02017



 Wavenumbers:  4000. -  4650. cm-1, ATM      1
 LEVEL PRESSURE   UPWARD FLUX   DIFDOWN FLUX  DIRDOWN FLUX  DOWNWARD FLUX   NET FLUX    HEATING RATE
          mb          W/m2          W/m2          W/m2        W/m2          W/m2       degree/day
  51    .06700        4.9035        0.0000       10.7795       10.7795       5.876055       0.00000
  50    .07753        4.9035        0.0000       10.7795       10.7795       5.876054       0.00080
  49    .09103        4.9035        0.0000       10.7795       10.7795       5.876053       0.00079
  48    0.1069        4.9035        0.0000       10.7795       10.7795       5.876051       0.00077
  47    0.1255        4.9035        0.0000       10.7795       10.7795       5.876049       0.00075
  46    0.1487        4.9035        0.0000       10.7795       10.7795       5.876047       0.00076
  45    0.1794        4.9035        0.0000       10.7795       10.7795       5.876045       0.00078
  44    0.2165        4.9035        0.0000       10.7795       10.7795       5.876041       0.00077
  43    0.2613        4.9035        0.0000       10.7795       10.7795       5.876037       0.00075
  42    0.3336        4.9035        0.0000       10.7795       10.7795       5.876031       0.00077
  41    0.4307        4.9035        0.0000       10.7795       10.7795       5.876022       0.00078
  40    0.5894        4.9035        0.0000       10.7795       10.7795       5.876006       0.00080
  39     1.339        4.9035        0.0000       10.7794       10.7794       5.875916       0.00101
  38     1.782        4.9035        0.0000       10.7793       10.7793       5.875846       0.00134
  37     2.292        4.9035        0.0000       10.7792       10.7792       5.875751       0.00157
  36     2.964        4.9035        0.0000       10.7791       10.7791       5.875610       0.00177
  35     3.853        4.9035        0.0000       10.7789       10.7789       5.875400       0.00199
  34     5.035        4.9035        0.0000       10.7785       10.7786       5.875091       0.00221
  33     6.613        4.9035        0.0000       10.7781       10.7781       5.874636       0.00243
  32     8.786        4.9035        0.0000       10.7774       10.7774       5.873965       0.00261
  31     11.80        4.9035        0.0001       10.7763       10.7764       5.872909       0.00295
  30     15.07        4.9035        0.0001       10.7751       10.7751       5.871671       0.00320
  29     18.79        4.9035        0.0001       10.7735       10.7736       5.870173       0.00340
  28     23.16        4.9035        0.0001       10.7717       10.7718       5.868313       0.00360
  27     28.12        4.9035        0.0001       10.7694       10.7695       5.866060       0.00383
  26     33.73        4.9035        0.0002       10.7666       10.7667       5.863281       0.00418
  25     40.54        4.9035        0.0002       10.7628       10.7630       5.859511       0.00468
  24     48.69        4.9035        0.0002       10.7578       10.7580       5.854484       0.00520
  23     57.69        4.9035        0.0003       10.7518       10.7521       5.848522       0.00559
  22     68.43        4.9036        0.0003       10.7443       10.7446       5.841046       0.00588
  21     81.20        4.9037        0.0004       10.7352       10.7355       5.831834       0.00609
  20     96.49        4.9039        0.0004       10.7240       10.7245       5.820616       0.00619
  19     114.6        4.9041        0.0005       10.7104       10.7109       5.806795       0.00645
  18     136.5        4.9044        0.0006       10.6939       10.6945       5.790131       0.00641
  17     162.9        4.9049        0.0007       10.6740       10.6747       5.769799       0.00650
  16     196.4        4.9058        0.0009       10.6470       10.6479       5.742185       0.00695
  15     218.7        4.9065        0.0010       10.6275       10.6285       5.721948       0.00768
  14     243.0        4.9076        0.0011       10.6030       10.6041       5.696451       0.00884
  13     269.0        4.9093        0.0012       10.5711       10.5724       5.663115       0.01081
  12     297.5        4.9116        0.0013       10.5298       10.5312       5.619596       0.01291
  11     328.5        4.9148        0.0015       10.4795       10.4810       5.566208       0.01452
  10     361.9        4.9190        0.0016       10.4176       10.4192       5.500228       0.01669
   9     398.1        4.9245        0.0018       10.3389       10.3406       5.416125       0.01959
   8     437.6        4.9315        0.0019       10.2382       10.2401       5.308589       0.02299
   7     480.5        4.9401        0.0021       10.1143       10.1164       5.176320       0.02598
   6     533.0        4.9526        0.0023        9.9458        9.9481       4.995521       0.02908
   5     589.8        4.9693        0.0025        9.7503        9.7529       4.783545       0.03146
   4     651.6        4.9934        0.0027        9.5167        9.5194       4.526021       0.03522
   3     718.7        5.0289        0.0029        9.2325        9.2355       4.206588       0.04014
   2     792.3        5.0846        0.0031        8.8608        8.8640       3.779334       0.04900
   1     891.5        5.2063        0.0034        8.2859        8.2893       3.082929       0.05926
   0    1013.0        5.4817        0.0036        7.6297        7.6333       2.151545       0.06467



 Wavenumbers:  4650. -  5150. cm-1, ATM      1
 LEVEL PRESSURE   UPWARD FLUX   DIFDOWN FLUX  DIRDOWN FLUX  DOWNWARD FLUX   NET FLUX    HEATING RATE
          mb          W/m2          W/m2          W/m2        W/m2          W/m2       degree/day
  51    .06700        3.4208        0.0000       10.2033       10.2033       6.782521       0.00000
  50    .07753        3.4208        0.0000       10.2031       10.2031       6.782287       0.18815
  49    .09103        3.4208        0.0000       10.2028       10.2028       6.781993       0.18345
  48    0.1069        3.4208        0.0000       10.2025       10.2025       6.781658       0.17850
  47    0.1255        3.4208        0.0000       10.2021       10.2021       6.781275       0.17347
  46    0.1487        3.4208        0.0000       10.2016       10.2016       6.780796       0.17457
  45    0.1794        3.4208        0.0000       10.2010       10.2010       6.780149       0.17770
  44    0.2165        3.4208        0.0000       10.2002       10.2002       6.779393       0.17200
  43    0.2613        3.4208        0.0000       10.1993       10.1993       6.778511       0.16615
  42    0.3336        3.4208        0.0000       10.1979       10.1979       6.777085       0.16628
  41    0.4307        3.4208        0.0000       10.1961       10.1961       6.775253       0.15931
  40    0.5894        3.4208        0.0000       10.1932       10.1932       6.772392       0.15216
  39     1.339        3.4208        0.0000       10.1817       10.1817       6.760850       0.12994
  38     1.782        3.4208        0.0000       10.1761       10.1762       6.755345       0.10481
  37     2.292        3.4208        0.0000       10.1707       10.1707       6.749911       0.09000
  36     2.964        3.4208        0.0000       10.1648       10.1648       6.744012       0.07405
  35     3.853        3.4208        0.0000       10.1586       10.1586       6.737821       0.05875
  34     5.035        3.4208        0.0000       10.1523       10.1523       6.731508       0.04510
  33     6.613        3.4208        0.0000       10.1458       10.1459       6.725071       0.03441
  32     8.786        3.4208        0.0001       10.1388       10.1389       6.718078       0.02716
  31     11.80        3.4208        0.0001       10.1298       10.1299       6.709056       0.02526
  30     15.07        3.4208        0.0001       10.1199       10.1200       6.699193       0.02546
  29     18.79        3.4208        0.0001       10.1079       10.1080       6.687203       0.02719
  28     23.16        3.4209        0.0002       10.0926       10.0928       6.671918       0.02956
  27     28.12        3.4209        0.0002       10.0735       10.0737       6.652846       0.03242
  26     33.73        3.4209        0.0002       10.0505       10.0507       6.629774       0.03469
  25     40.54        3.4210        0.0003       10.0206       10.0209       6.599895       0.03707
  24     48.69        3.4211        0.0003        9.9826        9.9829       6.561747       0.03948
  23     57.69        3.4213        0.0004        9.9391        9.9395       6.518223       0.04080
  22     68.43        3.4215        0.0005        9.8866        9.8870       6.465493       0.04145
  21     81.20        3.4219        0.0005        9.8244        9.8249       6.403076       0.04124
  20     96.49        3.4223        0.0006        9.7529        9.7535       6.331186       0.03968
  19     114.6        3.4229        0.0007        9.6732        9.6740       6.251025       0.03743
  18     136.5        3.4238        0.0009        9.5873        9.5882       6.164373       0.03332
  17     162.9        3.4251        0.0010        9.4959        9.4969       6.071837       0.02958
  16     196.4        3.4270        0.0012        9.3905        9.3918       5.964801       0.02694
  15     218.7        3.4285        0.0014        9.3258        9.3272       5.898743       0.02508
  14     243.0        3.4304        0.0015        9.2565        9.2580       5.827617       0.02467
  13     269.0        3.4329        0.0017        9.1798        9.1814       5.748564       0.02564
  12     297.5        3.4362        0.0018        9.0917        9.0935       5.657328       0.02706
  11     328.5        3.4406        0.0020        8.9898        8.9918       5.551228       0.02885
  10     361.9        3.4464        0.0022        8.8712        8.8734       5.426956       0.03144
   9     398.1        3.4538        0.0024        8.7344        8.7368       5.283008       0.03354
   8     437.6        3.4632        0.0026        8.5749        8.5775       5.114261       0.03608
   7     480.5        3.4753        0.0028        8.3918        8.3946       4.919258       0.03830
   6     533.0        3.4934        0.0030        8.1512        8.1542       4.660820       0.04157
   5     589.8        3.5178        0.0032        7.8748        7.8780       4.360198       0.04462
   4     651.6        3.5524        0.0035        7.5530        7.5565       4.004070       0.04870
   3     718.7        3.6018        0.0037        7.1936        7.1973       3.595518       0.05134
   2     792.3        3.6742        0.0039        6.8020        6.8058       3.131610       0.05321
   1     891.5        3.8186        0.0041        6.2832        6.2873       2.468783       0.05640
   0    1013.0        4.0984        0.0043        5.7025        5.7068       1.608425       0.05974



 Wavenumbers:  5150. -  6150. cm-1, ATM      1
 LEVEL PRESSURE   UPWARD FLUX   DIFDOWN FLUX  DIRDOWN FLUX  DOWNWARD FLUX   NET FLUX    HEATING RATE
          mb          W/m2          W/m2          W/m2        W/m2          W/m2       degree/day
  51    .06700        8.5312        0.0000       25.5798       25.5798      17.048583       0.00000
  50    .07753        8.5312        0.0000       25.5798       25.5798      17.048560       0.01856
  49    .09103        8.5312        0.0000       25.5798       25.5798      17.048530       0.01884
  48    0.1069        8.5312        0.0000       25.5797       25.5797      17.048494       0.01914
  47    0.1255        8.5312        0.0000       25.5797       25.5797      17.048451       0.01943
  46    0.1487        8.5312        0.0000       25.5796       25.5796      17.048395       0.02047
  45    0.1794        8.5312        0.0000       25.5795       25.5796      17.048316       0.02179
  44    0.2165        8.5312        0.0000       25.5794       25.5795      17.048218       0.02212
  43    0.2613        8.5312        0.0000       25.5793       25.5793      17.048099       0.02247
  42    0.3336        8.5312        0.0000       25.5791       25.5791      17.047896       0.02374
  41    0.4307        8.5312        0.0000       25.5788       25.5789      17.047619       0.02408
  40    0.5894        8.5312        0.0000       25.5784       25.5784      17.047154       0.02470
  39     1.339        8.5312        0.0000       25.5761       25.5761      17.044907       0.02530
  38     1.782        8.5312        0.0001       25.5748       25.5748      17.043590       0.02506
  37     2.292        8.5312        0.0001       25.5732       25.5733      17.042093       0.02480
  36     2.964        8.5312        0.0001       25.5713       25.5714      17.040180       0.02401
  35     3.853        8.5312        0.0001       25.5688       25.5689      17.037732       0.02323
  34     5.035        8.5312        0.0002       25.5656       25.5657      17.034552       0.02272
  33     6.613        8.5312        0.0002       25.5614       25.5616      17.030381       0.02230
  32     8.786        8.5312        0.0003       25.5558       25.5561      17.024901       0.02128
  31     11.80        8.5312        0.0004       25.5482       25.5485      17.017348       0.02114
  30     15.07        8.5312        0.0005       25.5404       25.5408      17.009608       0.01998
  29     18.79        8.5312        0.0006       25.5320       25.5326      17.001332       0.01876
  28     23.16        8.5312        0.0007       25.5227       25.5234      16.992194       0.01767
  27     28.12        8.5313        0.0009       25.5128       25.5136      16.982326       0.01678
  26     33.73        8.5313        0.0010       25.5023       25.5034      16.972019       0.01550
  25     40.54        8.5314        0.0012       25.4906       25.4919      16.960434       0.01437
  24     48.69        8.5316        0.0015       25.4777       25.4792      16.947641       0.01324
  23     57.69        8.5318        0.0017       25.4646       25.4663      16.934555       0.01227
  22     68.43        8.5320        0.0021       25.4499       25.4520      16.919950       0.01148
  21     81.20        8.5324        0.0025       25.4334       25.4358      16.903472       0.01089
  20     96.49        8.5328        0.0029       25.4144       25.4173      16.884494       0.01047
  19     114.6        8.5333        0.0035       25.3922       25.3957      16.862346       0.01034
  18     136.5        8.5340        0.0041       25.3660       25.3701      16.836190       0.01006
  17     162.9        8.5348        0.0049       25.3274       25.3323      16.797490       0.01237
  16     196.4        8.5359        0.0059       25.2473       25.2532      16.717271       0.02019
  15     218.7        8.5367        0.0065       25.1341       25.1406      16.603928       0.04303
  14     243.0        8.5376        0.0072       24.9199       24.9271      16.389515       0.07437
  13     269.0        8.5388        0.0079       24.5246       24.5325      15.993739       0.12839
  12     297.5        8.5403        0.0086       23.9374       23.9460      15.405748       0.17439
  11     328.5        8.5421        0.0093       23.3177       23.3270      14.784840       0.16882
  10     361.9        8.5444        0.0100       22.6662       22.6762      14.131796       0.16523
   9     398.1        8.5474        0.0107       21.9107       21.9214      13.374075       0.17653
   8     437.6        8.5512        0.0114       21.0268       21.0382      12.487040       0.18965
   7     480.5        8.5562        0.0121       20.0762       20.0883      11.532111       0.18754
   6     533.0        8.5642        0.0128       18.9471       18.9599      10.395684       0.18281
   5     589.8        8.5763        0.0135       17.7919       17.8054       9.229102       0.17316
   4     651.6        8.5968        0.0142       16.6210       16.6352       8.038412       0.16283
   3     718.7        8.6317        0.0149       15.5909       15.6058       6.974180       0.13374
   2     792.3        8.6943        0.0157       14.7325       14.7482       6.053951       0.10554
   1     891.5        8.8505        0.0169       13.8396       13.8565       5.005984       0.08918
   0    1013.0        9.2559        0.0182       12.8693       12.8875       3.631617       0.09543



 Wavenumbers:  6150. -  7700. cm-1, ATM      1
 LEVEL PRESSURE   UPWARD FLUX   DIFDOWN FLUX  DIRDOWN FLUX  DOWNWARD FLUX   NET FLUX    HEATING RATE
          mb          W/m2          W/m2          W/m2        W/m2          W/m2       degree/day
  51    .06700       13.2219        0.0000       47.3109       47.3109      34.089003       0.00000
  50    .07753       13.2219        0.0000       47.3108       47.3108      34.088963       0.03202
  49    .09103       13.2219        0.0000       47.3108       47.3108      34.088912       0.03209
  48    0.1069       13.2219        0.0000       47.3107       47.3107      34.088851       0.03216
  47    0.1255       13.2219        0.0000       47.3106       47.3106      34.088780       0.03223
  46    0.1487       13.2218        0.0000       47.3105       47.3105      34.088688       0.03352
  45    0.1794       13.2218        0.0000       47.3104       47.3104      34.088560       0.03527
  44    0.2165       13.2218        0.0000       47.3102       47.3102      34.088404       0.03541
  43    0.2613       13.2218        0.0000       47.3100       47.3101      34.088215       0.03557
  42    0.3336       13.2218        0.0000       47.3097       47.3097      34.087896       0.03721
  41    0.4307       13.2218        0.0000       47.3092       47.3093      34.087465       0.03745
  40    0.5894       13.2218        0.0001       47.3085       47.3086      34.086749       0.03812
  39     1.339       13.2217        0.0002       47.3049       47.3051      34.083307       0.03874
  38     1.782       13.2217        0.0002       47.3028       47.3030      34.081295       0.03830
  37     2.292       13.2217        0.0003       47.3004       47.3007      34.079000       0.03801
  36     2.964       13.2216        0.0004       47.2973       47.2977      34.076051       0.03703
  35     3.853       13.2215        0.0005       47.2933       47.2938      34.072248       0.03609
  34     5.035       13.2214        0.0006       47.2881       47.2887      34.067287       0.03543
  33     6.613       13.2213        0.0008       47.2812       47.2821      34.060765       0.03487
  32     8.786       13.2211        0.0011       47.2722       47.2733      34.052156       0.03343
  31     11.80       13.2209        0.0015       47.2596       47.2611      34.040203       0.03347
  30     15.07       13.2206        0.0019       47.2465       47.2484      34.027828       0.03195
  29     18.79       13.2203        0.0023       47.2324       47.2347      34.014421       0.03040
  28     23.16       13.2199        0.0029       47.2164       47.2193      33.999420       0.02901
  27     28.12       13.2195        0.0035       47.1990       47.2025      33.983002       0.02791
  26     33.73       13.2190        0.0042       47.1804       47.1846      33.965604       0.02616
  25     40.54       13.2185        0.0050       47.1592       47.1643      33.945797       0.02457
  24     48.69       13.2178        0.0061       47.1353       47.1413      33.923565       0.02301
  23     57.69       13.2170        0.0072       47.1105       47.1176      33.900592       0.02153
  22     68.43       13.2161        0.0085       47.0824       47.0909      33.874743       0.02032
  21     81.20       13.2151        0.0101       47.0504       47.0605      33.845450       0.01936
  20     96.49       13.2138        0.0120       47.0136       47.0256      33.811782       0.01858
  19     114.6       13.2123        0.0142       46.9708       46.9850      33.772691       0.01825
  18     136.5       13.2105        0.0169       46.9205       46.9374      33.726881       0.01762
  17     162.9       13.2084        0.0201       46.8509       46.8710      33.662600       0.02055
  16     196.4       13.2057        0.0242       46.7177       46.7418      33.536120       0.03184
  15     218.7       13.2041        0.0268       46.5396       46.5664      33.362311       0.06599
  14     243.0       13.2024        0.0296       46.2225       46.2521      33.049732       0.10841
  13     269.0       13.2008        0.0325       45.6900       45.7225      32.521670       0.17130
  12     297.5       13.1997        0.0355       44.8342       44.8697      31.670039       0.25258
  11     328.5       13.1990        0.0384       43.7793       43.8177      30.618707       0.28585
  10     361.9       13.1991        0.0414       42.6186       42.6600      29.460898       0.29294
   9     398.1       13.2005        0.0445       41.3465       41.3910      28.190434       0.29599
   8     437.6       13.2040        0.0475       39.8705       39.9180      26.713995       0.31567
   7     480.5       13.2105        0.0503       38.1939       38.2443      25.033785       0.32999
   6     533.0       13.2237        0.0534       36.1027       36.1561      22.932375       0.33805
   5     589.8       13.2479        0.0562       33.8536       33.9098      20.661960       0.33700
   4     651.6       13.2945        0.0585       31.3563       31.4148      18.120276       0.34758
   3     718.7       13.3795        0.0605       28.8477       28.9082      15.528653       0.32570
   2     792.3       13.5372        0.0621       26.3809       26.4430      12.905856       0.30081
   1     891.5       13.9337        0.0640       23.5040       23.5679       9.634267       0.27840
   0    1013.0       14.9616        0.0661       20.7619       20.8280       5.866404       0.26162



 Wavenumbers:  7700. -  8050. cm-1, ATM      1
 LEVEL PRESSURE   UPWARD FLUX   DIFDOWN FLUX  DIRDOWN FLUX  DOWNWARD FLUX   NET FLUX    HEATING RATE
          mb          W/m2          W/m2          W/m2        W/m2          W/m2       degree/day
  51    .06700        6.4406        0.0000       11.1810       11.1810       4.740391       0.00000
  50    .07753        6.4406        0.0000       11.1809       11.1809       4.740368       0.01770
  49    .09103        6.4406        0.0000       11.1809       11.1809       4.740341       0.01734
  48    0.1069        6.4406        0.0000       11.1809       11.1809       4.740309       0.01698
  47    0.1255        6.4406        0.0000       11.1809       11.1809       4.740272       0.01662
  46    0.1487        6.4406        0.0000       11.1808       11.1808       4.740226       0.01686
  45    0.1794        6.4406        0.0000       11.1808       11.1808       4.740163       0.01735
  44    0.2165        6.4406        0.0000       11.1807       11.1807       4.740088       0.01702
  43    0.2613        6.4406        0.0000       11.1806       11.1806       4.739999       0.01670
  42    0.3336        6.4407        0.0000       11.1805       11.1805       4.739853       0.01709
  41    0.4307        6.4407        0.0000       11.1803       11.1804       4.739658       0.01690
  40    0.5894        6.4408        0.0000       11.1801       11.1801       4.739341       0.01688
  39     1.339        6.4410        0.0001       11.1788       11.1789       4.737839       0.01691
  38     1.782        6.4412        0.0001       11.1781       11.1782       4.736956       0.01680
  37     2.292        6.4414        0.0001       11.1772       11.1773       4.735935       0.01692
  36     2.964        6.4416        0.0002       11.1761       11.1762       4.734594       0.01683
  35     3.853        6.4420        0.0002       11.1746       11.1748       4.732823       0.01681
  34     5.035        6.4424        0.0003       11.1726       11.1729       4.730470       0.01681
  33     6.613        6.4430        0.0004       11.1700       11.1703       4.727327       0.01680
  32     8.786        6.4438        0.0005       11.1664       11.1669       4.723093       0.01644
  31     11.80        6.4449        0.0007       11.1613       11.1620       4.717039       0.01695
  30     15.07        6.4461        0.0008       11.1558       11.1567       4.710545       0.01677
  29     18.79        6.4475        0.0011       11.1497       11.1507       4.703216       0.01662
  28     23.16        6.4491        0.0013       11.1425       11.1438       4.694666       0.01653
  27     28.12        6.4510        0.0016       11.1343       11.1359       4.684903       0.01660
  26     33.73        6.4531        0.0019       11.1252       11.1271       4.673998       0.01640
  25     40.54        6.4556        0.0023       11.1142       11.1165       4.660852       0.01631
  24     48.69        6.4587        0.0027       11.1010       11.1037       4.645048       0.01635
  23     57.69        6.4621        0.0032       11.0866       11.0898       4.627746       0.01622
  22     68.43        6.4661        0.0038       11.0695       11.0733       4.607218       0.01614
  21     81.20        6.4710        0.0045       11.0493       11.0539       4.582875       0.01609
  20     96.49        6.4769        0.0054       11.0255       11.0309       4.554029       0.01592
  19     114.6        6.4839        0.0064       10.9975       11.0039       4.520005       0.01589
  18     136.5        6.4923        0.0076       10.9647       10.9723       4.479983       0.01539
  17     162.9        6.5025        0.0090       10.9262       10.9353       4.432735       0.01510
  16     196.4        6.5160        0.0108       10.8772       10.8880       4.372090       0.01527
  15     218.7        6.5249        0.0120       10.8455       10.8575       4.332601       0.01499
  14     243.0        6.5348        0.0133       10.8114       10.8248       4.289931       0.01480
  13     269.0        6.5457        0.0148       10.7749       10.7897       4.243932       0.01492
  12     297.5        6.5578        0.0163       10.7359       10.7522       4.194408       0.01469
  11     328.5        6.5710        0.0179       10.6942       10.7121       4.141057       0.01451
  10     361.9        6.5857        0.0197       10.6497       10.6694       4.083691       0.01451
   9     398.1        6.6019        0.0216       10.6022       10.6238       4.021893       0.01440
   8     437.6        6.6199        0.0237       10.5515       10.5751       3.955191       0.01426
   7     480.5        6.6400        0.0259       10.4972       10.5231       3.883057       0.01417
   6     533.0        6.6661        0.0286       10.4303       10.4588       3.792768       0.01452
   5     589.8        6.6959        0.0315       10.3574       10.3889       3.692972       0.01481
   4     651.6        6.7308        0.0346       10.2767       10.3113       3.580470       0.01538
   3     718.7        6.7723        0.0379       10.1863       10.2242       3.451849       0.01616
   2     792.3        6.8229        0.0414       10.0829       10.1243       3.301367       0.01726
   1     891.5        6.9038        0.0461        9.9298        9.9759       3.072130       0.01951
   0    1013.0        7.0240        0.0516        9.7243        9.7759       2.751908       0.02223



 Wavenumbers:  8050. - 12850. cm-1, ATM      1
 LEVEL PRESSURE   UPWARD FLUX   DIFDOWN FLUX  DIRDOWN FLUX  DOWNWARD FLUX   NET FLUX    HEATING RATE
          mb          W/m2          W/m2          W/m2        W/m2          W/m2       degree/day
  51    .06700       82.8899        0.0000      156.5418      156.5418      73.651855       0.00000
  50    .07753       82.8899        0.0000      156.5417      156.5417      73.651855      -0.00000
  49    .09103       82.8899        0.0001      156.5417      156.5417      73.651855       0.00000
  48    0.1069       82.8898        0.0001      156.5416      156.5417      73.651855       0.00000
  47    0.1255       82.8898        0.0002      156.5415      156.5417      73.651855      -0.00000
  46    0.1487       82.8898        0.0002      156.5414      156.5417      73.651855       0.00000
  45    0.1794       82.8898        0.0003      156.5413      156.5416      73.651855      -0.00000
  44    0.2165       82.8897        0.0004      156.5412      156.5416      73.651855       0.00000
  43    0.2613       82.8897        0.0005      156.5410      156.5415      73.651855       0.00000
  42    0.3336       82.8896        0.0007      156.5407      156.5414      73.651855       0.00000
  41    0.4307       82.8895        0.0010      156.5403      156.5413      73.651855      -0.00000
  40    0.5894       82.8893        0.0014      156.5397      156.5411      73.651855       0.00000
  39     1.339       82.8884        0.0035      156.5367      156.5402      73.651855       0.00000
  38     1.782       82.8878        0.0047      156.5350      156.5397      73.651855      -0.00000
  37     2.292       82.8872        0.0061      156.5330      156.5391      73.651855       0.00000
  36     2.964       82.8864        0.0079      156.5303      156.5382      73.651855       0.00000
  35     3.853       82.8853        0.0103      156.5268      156.5372      73.651855      -0.00000
  34     5.035       82.8839        0.0135      156.5222      156.5357      73.651855       0.00000
  33     6.613       82.8820        0.0178      156.5160      156.5338      73.651855      -0.00000
  32     8.786       82.8794        0.0236      156.5076      156.5313      73.651855       0.00000
  31     11.80       82.8757        0.0319      156.4957      156.5276      73.651855       0.00000
  30     15.07       82.8718        0.0408      156.4828      156.5236      73.651855      -0.00000
  29     18.79       82.8673        0.0509      156.4682      156.5191      73.651855      -0.00000
  28     23.16       82.8620        0.0627      156.4512      156.5139      73.651855      -0.00000
  27     28.12       82.8560        0.0762      156.4317      156.5079      73.651855       0.00000
  26     33.73       82.8493        0.0913      156.4099      156.5012      73.651855       0.00000
  25     40.54       82.8412        0.1096      156.3834      156.4931      73.651855      -0.00000
  24     48.69       82.8314        0.1317      156.3515      156.4832      73.651855       0.00000
  23     57.69       82.8206        0.1560      156.3164      156.4724      73.651855      -0.00000
  22     68.43       82.8077        0.1850      156.2746      156.4595      73.651855       0.00000
  21     81.20       82.7923        0.2196      156.2246      156.4442      73.651855       0.00000
  20     96.49       82.7740        0.2609      156.1649      156.4258      73.651855      -0.00000
  19     114.6       82.7522        0.3100      156.0904      156.4004      73.648223       0.00170
  18     136.5       82.7264        0.3683      156.0018      156.3701      73.643707       0.00174
  17     162.9       82.6955        0.4379      155.8938      156.3317      73.636191       0.00240
  16     196.4       82.6555        0.5285      155.7438      156.2723      73.616803       0.00488
  15     218.7       82.6293        0.5880      155.6214      156.2095      73.580163       0.01391
  14     243.0       82.6011        0.6528      155.4398      156.0927      73.491525       0.03074
  13     269.0       82.5715        0.7230      155.1548      155.8778      73.306265       0.06010
  12     297.5       82.5412        0.7987      154.7300      155.5286      72.987378       0.09458
  11     328.5       82.5108        0.8803      154.2015      155.0818      72.571056       0.11320
  10     361.9       82.4813        0.9681      153.5745      154.5426      72.061306       0.12897
   9     398.1       82.4546        1.0623      152.8167      153.8790      71.424408       0.14838
   8     437.6       82.4342        1.1628      151.8632      153.0260      70.591840       0.17801
   7     480.5       82.4239        1.2698      150.6698      151.9396      69.515611       0.21137
   6     533.0       82.4333        1.3997      148.9591      150.3589      67.925529       0.25579
   5     589.8       82.4835        1.5370      146.7616      148.2986      65.815113       0.31325
   4     651.6       82.6210        1.6792      143.7775      145.4567      62.835648       0.40745
   3     718.7       82.9054        1.8252      140.0174      141.8426      58.937256       0.48992
   2     792.3       83.4664        1.9719      135.4232      137.3951      53.928709       0.57442
   1     891.5       84.8996        2.1536      128.6605      130.8141      45.914473       0.68197
   0    1013.0       88.3627        2.3514      120.4508      122.8022      34.439459       0.79677



 Wavenumbers: 12850. - 16000. cm-1, ATM      1
 LEVEL PRESSURE   UPWARD FLUX   DIFDOWN FLUX  DIRDOWN FLUX  DOWNWARD FLUX   NET FLUX    HEATING RATE
          mb          W/m2          W/m2          W/m2        W/m2          W/m2       degree/day
  51    .06700       73.5170        0.0000       98.0872       98.0872      24.570210       0.00000
  50    .07753       73.5170        0.0001       98.0864       98.0864      24.569419       0.63389
  49    .09103       73.5170        0.0002       98.0853       98.0854      24.568426       0.62074
  48    0.1069       73.5170        0.0003       98.0841       98.0843      24.567285       0.60732
  47    0.1255       73.5170        0.0004       98.0826       98.0830      24.565974       0.59418
  46    0.1487       73.5170        0.0005       98.0809       98.0814      24.564320       0.60280
  45    0.1794       73.5171        0.0007       98.0784       98.0792      24.562071       0.61746
  44    0.2165       73.5171        0.0009       98.0756       98.0766      24.559426       0.60171
  43    0.2613       73.5172        0.0012       98.0723       98.0736      24.556317       0.58616
  42    0.3336       73.5175        0.0017       98.0670       98.0687      24.551243       0.59153
  41    0.4307       73.5178        0.0023       98.0602       98.0625      24.544685       0.57021
  40    0.5894       73.5185        0.0033       98.0496       98.0529      24.534358       0.54919
  39     1.339       73.5246        0.0080       98.0043       98.0123      24.487680       0.52551
  38     1.782       73.5303        0.0107       97.9793       97.9900      24.459734       0.53205
  37     2.292       73.5387        0.0139       97.9498       97.9637      24.424980       0.57561
  36     2.964       73.5527        0.0181       97.9088       97.9269      24.374206       0.63736
  35     3.853       73.5753        0.0236       97.8503       97.8740      24.298655       0.71699
  34     5.035       73.6094        0.0310       97.7680       97.7990      24.189577       0.77921
  33     6.613       73.6570        0.0408       97.6562       97.6970      24.040000       0.79964
  32     8.786       73.7189        0.0540       97.5107       97.5647      23.845743       0.75442
  31     11.80       73.7995        0.0728       97.3179       97.3907      23.591192       0.71266
  30     15.07       73.8767        0.0931       97.1283       97.2214      23.344694       0.63641
  29     18.79       73.9555        0.1159       96.9300       97.0459      23.090413       0.57653
  28     23.16       74.0379        0.1426       96.7166       96.8591      22.821245       0.52048
  27     28.12       74.1208        0.1730       96.4935       96.6665      22.545744       0.46833
  26     33.73       74.1973        0.2071       96.2731       96.4802      22.282868       0.39524
  25     40.54       74.2711        0.2483       96.0408       96.2890      22.017971       0.32863
  24     48.69       74.3418        0.2979       95.7946       96.0925      21.750698       0.27659
  23     57.69       74.4018        0.3524       95.5573       95.9097      21.507903       0.22758
  22     68.43       74.4542        0.4174       95.3106       95.7280      21.273826       0.18402
  21     81.20       74.4904        0.4949       95.0644       95.5593      21.068855       0.13544
  20     96.49       74.5093        0.5874       94.8153       95.4027      20.893325       0.09688
  19     114.6       74.5308        0.6982       94.5411       95.2393      20.708486       0.08631
  18     136.5       74.5457        0.8296       94.2321       95.0617      20.515974       0.07403
  17     162.9       74.5537        0.9860       93.8756       94.8616      20.307875       0.06652
  16     196.4       74.5435        1.1888       93.4351       94.6239      20.080458       0.05724
  15     218.7       74.5293        1.3220       93.1522       94.4742      19.944876       0.05148
  14     243.0       74.5107        1.4667       92.8459       94.3126      19.801903       0.04959
  13     269.0       74.4874        1.6235       92.5155       94.1390      19.651622       0.04875
  12     297.5       74.4597        1.7930       92.1588       93.9517      19.492077       0.04732
  11     328.5       74.4291        1.9760       91.7723       93.7483      19.319199       0.04700
  10     361.9       74.3963        2.1731       91.3544       93.5274      19.131135       0.04758
   9     398.1       74.3619        2.3851       90.9021       93.2872      18.925304       0.04795
   8     437.6       74.3278        2.6127       90.4104       93.0231      18.695284       0.04918
   7     480.5       74.2955        2.8566       89.8751       92.7317      18.436255       0.05087
   6     533.0       74.2644        3.1566       89.1992       92.3558      18.091473       0.05546
   5     589.8       74.2475        3.4791       88.4410       91.9201      17.672565       0.06218
   4     651.6       74.2634        3.8246       87.5625       91.3871      17.123665       0.07506
   3     718.7       74.3340        4.1929       86.5361       90.7290      16.394937       0.09158
   2     792.3       74.4978        4.5816       85.3246       89.9062      15.408350       0.11315
   1     891.5       74.9150        5.0932       83.5124       88.6056      13.690609       0.14617
   0    1013.0       75.8036        5.6864       81.1577       86.8441      11.040459       0.18401



 Wavenumbers: 16000. - 22650. cm-1, ATM      1
 LEVEL PRESSURE   UPWARD FLUX   DIFDOWN FLUX  DIRDOWN FLUX  DOWNWARD FLUX   NET FLUX    HEATING RATE
          mb          W/m2          W/m2          W/m2        W/m2          W/m2       degree/day
  51    .06700      140.7998        0.0000      156.3892      156.3892      15.589411       0.00000
  50    .07753      140.7998        0.0004      156.3887      156.3891      15.589263       0.11836
  49    .09103      140.7998        0.0009      156.3879      156.3888      15.589048       0.13425
  48    0.1069      140.7998        0.0015      156.3871      156.3885      15.588761       0.15308
  47    0.1255      140.7998        0.0021      156.3861      156.3882      15.588376       0.17450
  46    0.1487      140.7999        0.0030      156.3847      156.3877      15.587808       0.20677
  45    0.1794      140.8000        0.0041      156.3828      156.3869      15.586922       0.24346
  44    0.2165      140.8002        0.0054      156.3805      156.3859      15.585719       0.27362
  43    0.2613      140.8006        0.0070      156.3776      156.3846      15.584087       0.30762
  42    0.3336      140.8013        0.0096      156.3726      156.3823      15.580984       0.36175
  41    0.4307      140.8025        0.0131      156.3657      156.3789      15.576307       0.40665
  40    0.5894      140.8051        0.0188      156.3537      156.3725      15.567387       0.47434
  39     1.339      140.8277        0.0458      156.2834      156.3292      15.501487       0.74191
  38     1.782      140.8486        0.0616      156.2324      156.2940      15.445349       1.06879
  37     2.292      140.8800        0.0800      156.1641      156.2441      15.364087       1.34590
  36     2.964      140.9321        0.1040      156.0605      156.1645      15.232443       1.65254
  35     3.853      141.0163        0.1358      155.9041      156.0398      15.023555       1.98239
  34     5.035      141.1434        0.1779      155.6774      155.8553      14.711910       2.22626
  33     6.613      141.3209        0.2341      155.3656      155.5998      14.278813       2.31533
  32     8.786      141.5522        0.3098      154.9577      155.2675      13.715255       2.18866
  31     11.80      141.8532        0.4179      154.4153      154.8332      12.979956       2.05861
  30     15.07      142.1416        0.5338      153.8804      154.4142      12.272619       1.82620
  29     18.79      142.4360        0.6645      153.3191      153.9836      11.547663       1.64370
  28     23.16      142.7436        0.8170      152.7126      153.5296      10.785919       1.47297
  27     28.12      143.0532        0.9911      152.0755      153.0666      10.013380       1.31326
  26     33.73      143.3389        1.1857      151.4409      152.6266       9.287733       1.09103
  25     40.54      143.6138        1.4206      150.7637      152.1843       8.570530       0.88977
  24     48.69      143.8769        1.7036      150.0338      151.7374       7.860486       0.73478
  23     57.69      144.0999        2.0140      149.3151      151.3291       7.229184       0.59175
  22     68.43      144.2943        2.3833      148.5476      150.9309       6.636557       0.46588
  21     81.20      144.4284        2.8230      147.7517      150.5747       6.146315       0.32394
  20     96.49      144.4975        3.3464      146.9127      150.2591       5.761598       0.21234
  19     114.6      144.5328        3.9661      145.9763      149.9424       5.409578       0.16437
  18     136.5      144.5433        4.6978      144.9088      149.6066       5.063286       0.13316
  17     162.9      144.5273        5.5651      143.6786      149.2437       4.716411       0.11088
  16     196.4      144.4447        6.6841      142.1651      148.8492       4.404470       0.07852
  15     218.7      144.3679        7.4153      141.2035      148.6188       4.250870       0.05832
  14     243.0      144.2741        8.2068      140.1757      148.3824       4.108364       0.04943
  13     269.0      144.1614        9.0606      139.0804      148.1410       3.979519       0.04180
  12     297.5      144.0294        9.9787      137.9156      147.8943       3.864945       0.03398
  11     328.5      143.8819       10.9656      136.6704      147.6360       3.754095       0.03014
  10     361.9      143.7186       12.0221      135.3438      147.3659       3.647330       0.02701
   9     398.1      143.5389       13.1522      133.9309      147.0830       3.544126       0.02404
   8     437.6      143.3436       14.3579      132.4276      146.7855       3.441918       0.02185
   7     480.5      143.1320       15.6413      130.8317      146.4730       3.340995       0.01982
   6     533.0      142.8705       17.2088      128.8861      146.0949       3.224373       0.01876
   5     589.8      142.5905       18.8835      126.8076      145.6911       3.100578       0.01838
   4     651.6      142.2962       20.6668      124.5888      145.2555       2.959353       0.01931
   3     718.7      141.9913       22.5605      122.2225      144.7830       2.791665       0.02107
   2     792.3      141.6864       24.5628      119.6995      144.2623       2.575891       0.02475
   1     891.5      141.3257       27.2217      116.2999      143.5215       2.195865       0.03234
   0    1013.0      140.9742       30.3473      112.2357      142.5830       1.608780       0.04076



 Wavenumbers: 22650. - 29000. cm-1, ATM      1
 LEVEL PRESSURE   UPWARD FLUX   DIFDOWN FLUX  DIRDOWN FLUX  DOWNWARD FLUX   NET FLUX    HEATING RATE
          mb          W/m2          W/m2          W/m2        W/m2          W/m2       degree/day
  51    .06700       58.3821        0.0000       59.0156       59.0156       0.633494       0.00000
  50    .07753       58.3820        0.0005       59.0151       59.0155       0.633494      -0.00000
  49    .09103       58.3819        0.0010       59.0144       59.0154       0.633494       0.00000
  48    0.1069       58.3818        0.0017       59.0136       59.0153       0.633494       0.00000
  47    0.1255       58.3816        0.0025       59.0127       59.0151       0.633494       0.00000
  46    0.1487       58.3814        0.0034       59.0115       59.0149       0.633494       0.00000
  45    0.1794       58.3812        0.0048       59.0099       59.0147       0.633494      -0.00000
  44    0.2165       58.3809        0.0063       59.0080       59.0144       0.633494       0.00000
  43    0.2613       58.3805        0.0082       59.0058       59.0140       0.633494      -0.00000
  42    0.3336       58.3799        0.0113       59.0022       59.0134       0.633494       0.00000
  41    0.4307       58.3791        0.0153       58.9973       59.0126       0.633494       0.00000
  40    0.5894       58.3778        0.0220       58.9894       59.0113       0.633494       0.00000
  39     1.339       58.3717        0.0534       58.9518       59.0052       0.633494       0.00000
  38     1.782       58.3681        0.0719       58.9297       59.0016       0.633494       0.00000
  37     2.292       58.3639        0.0933       58.9042       58.9974       0.633494      -0.00000
  36     2.964       58.3585        0.1213       58.8706       58.9920       0.633494       0.00000
  35     3.853       58.3512        0.1584       58.8264       58.9847       0.633494       0.00000
  34     5.035       58.3416        0.2076       58.7676       58.9751       0.633494       0.00000
  33     6.613       58.3288        0.2732       58.6891       58.9623       0.633494       0.00000
  32     8.786       58.3116        0.3617       58.5834       58.9451       0.633494      -0.00000
  31     11.80       58.2870        0.4880       58.4324       58.9204       0.633494      -0.00000
  30     15.07       58.2605        0.6234       58.2706       58.8940       0.633494       0.00000
  29     18.79       58.2308        0.7760       58.0882       58.8643       0.633494       0.00000
  28     23.16       58.1961        0.9539       57.8757       58.8296       0.633494       0.00000
  27     28.12       58.1565        1.1567       57.6333       58.7900       0.633494      -0.00000
  26     33.73       58.1124        1.3828       57.3631       58.7459       0.633494      -0.00000
  25     40.54       58.0593        1.6549       57.0379       58.6928       0.633494       0.00000
  24     48.69       57.9956        1.9812       56.6479       58.6291       0.633494      -0.00000
  23     57.69       57.9261        2.3375       56.2221       58.5596       0.633494      -0.00000
  22     68.43       57.8438        2.7587       55.7186       58.4773       0.633494       0.00000
  21     81.20       57.7466        3.2562       55.1239       58.3801       0.633494      -0.00000
  20     96.49       57.6320        3.8427       54.4228       58.2655       0.633494       0.00000
  19     114.6       57.4976        4.5301       53.6010       58.1311       0.633494       0.00000
  18     136.5       57.3407        5.3324       52.6418       57.9742       0.633494       0.00000
  17     162.9       57.1571        6.2703       51.5204       57.7906       0.633494      -0.00000
  16     196.4       56.9244        7.4584       50.0995       57.5579       0.633494       0.00000
  15     218.7       56.7747        8.2219       49.1863       57.4082       0.633494      -0.00000
  14     243.0       56.6148        9.0370       48.2113       57.2483       0.633494      -0.00000
  13     269.0       56.4447        9.9032       47.1750       57.0782       0.633494       0.00000
  12     297.5       56.2646       10.8197       46.0785       56.8981       0.633494      -0.00000
  11     328.5       56.0742       11.7878       44.9199       56.7077       0.633494       0.00000
  10     361.9       55.8740       12.8050       43.7025       56.5075       0.633494       0.00000
   9     398.1       55.6638       13.8713       42.4260       56.2973       0.633494      -0.00000
   8     437.6       55.4441       14.9845       41.0931       56.0776       0.633494      -0.00000
   7     480.5       55.2153       16.1421       39.7067       55.8488       0.633494      -0.00000
   6     533.0       54.9427       17.5189       38.0573       55.5762       0.633494       0.00000
   5     589.8       54.6600       18.9444       36.3490       55.2934       0.633494       0.00000
   4     651.6       54.3677       20.4142       34.5870       55.0012       0.633494       0.00000
   3     718.7       54.0675       21.9201       32.7809       54.7010       0.633494      -0.00000
   2     792.3       53.7610       23.4527       30.9418       54.3945       0.633494       0.00000
   1     891.5       53.3700       25.4002       28.6033       54.0035       0.633494      -0.00000
   0    1013.0       52.9335       27.5631       26.0039       53.5670       0.633494       0.00000



 Wavenumbers: 29000. - 38000. cm-1, ATM      1
 LEVEL PRESSURE   UPWARD FLUX   DIFDOWN FLUX  DIRDOWN FLUX  DOWNWARD FLUX   NET FLUX    HEATING RATE
          mb          W/m2          W/m2          W/m2        W/m2          W/m2       degree/day
  51    .06700        8.7365        0.0000       20.8114       20.8114      12.074846       0.00000
  50    .07753        8.7363        0.0003       20.8070       20.8074      12.071039       3.05152
  49    .09103        8.7361        0.0007       20.8009       20.8016      12.065502       3.46081
  48    0.1069        8.7358        0.0012       20.7928       20.7939      12.058092       3.94425
  47    0.1255        8.7356        0.0017       20.7820       20.7837      12.048188       4.49029
  46    0.1487        8.7352        0.0024       20.7665       20.7688      12.033625       5.30838
  45    0.1794        8.7348        0.0033       20.7424       20.7457      12.010960       6.22197
  44    0.2165        8.7342        0.0044       20.7103       20.7147      11.980438       6.94332
  43    0.2613        8.7337        0.0056       20.6675       20.6731      11.939444       7.72723
  42    0.3336        8.7328        0.0077       20.5880       20.5956      11.862884       8.92614
  41    0.4307        8.7317        0.0104       20.4722       20.4826      11.750933       9.73389
  40    0.5894        8.7301        0.0147       20.2637       20.2784      11.548252      10.77831
  39     1.339        8.7267        0.0331       19.0984       19.1315      10.404797      12.87322
  38     1.782        8.7272        0.0427       18.4394       18.4820       9.754892      12.37315
  37     2.292        8.7298        0.0530       17.7714       17.8244       9.094574      10.93659
  36     2.964        8.7363        0.0656       17.0421       17.1078       8.371492       9.07686
  35     3.853        8.7490        0.0816       16.2679       16.3494       7.600380       7.31800
  34     5.035        8.7700        0.1017       15.4803       15.5820       6.811984       5.63197
  33     6.613        8.8006        0.1275       14.7157       14.8432       6.042539       4.11346
  32     8.786        8.8410        0.1612       13.9936       14.1548       5.313769       2.83028
  31     11.80        8.8937        0.2082       13.2835       13.4918       4.598043       2.00381
  30     15.07        8.9445        0.2570       12.7394       12.9963       4.051801       1.41029
  29     18.79        8.9970        0.3110       12.2666       12.5776       3.580596       1.06837
  28     23.16        9.0528        0.3725       11.8300       12.2025       3.149716       0.83318
  27     28.12        9.1099        0.4413       11.4279       11.8692       2.759293       0.66369
  26     33.73        9.1626        0.5172       11.0695       11.5866       2.424047       0.50405
  25     40.54        9.2125        0.6078       10.7209       11.3287       2.116144       0.38199
  24     48.69        9.2596        0.7153       10.3742       11.0895       1.829858       0.29626
  23     57.69        9.2982        0.8317       10.0549       10.8866       1.588346       0.22638
  22     68.43        9.3294        0.9682        9.7327       10.7009       1.371548       0.17043
  21     81.20        9.3441        1.1294        9.4134       10.5428       1.198687       0.11422
  20     96.49        9.3405        1.3189        9.0887       10.4076       1.067109       0.07262
  19     114.6        9.3266        1.5378        8.7388       10.2766       0.949996       0.05468
  18     136.5        9.3053        1.7881        8.3549       10.1430       0.837632       0.04321
  17     162.9        9.2769        2.0733        7.9311       10.0045       0.727626       0.03516
  16     196.4        9.2292        2.4267        7.4333        9.8600       0.630809       0.02437
  15     218.7        9.1949        2.6489        7.1296        9.7785       0.583593       0.01793
  14     243.0        9.1573        2.8812        6.8161        9.6973       0.539998       0.01512
  13     269.0        9.1162        3.1227        6.4944        9.6171       0.500855       0.01270
  12     297.5        9.0718        3.3723        6.1658        9.5381       0.466353       0.01023
  11     328.5        9.0253        3.6291        5.8295        9.4587       0.433322       0.00898
  10     361.9        8.9774        3.8906        5.4888        9.3793       0.401912       0.00795
   9     398.1        8.9281        4.1561        5.1441        9.3002       0.372147       0.00693
   8     437.6        8.8779        4.4242        4.7972        9.2213       0.343460       0.00613
   7     480.5        8.8271        4.6928        4.4506        9.1433       0.316230       0.00535
   6     533.0        8.7689        4.9985        4.0570        9.0555       0.286556       0.00477
   5     589.8        8.7116        5.2996        3.6698        8.9694       0.257824       0.00426
   4     651.6        8.6558        5.5932        3.2923        8.8855       0.229718       0.00384
   3     718.7        8.6023        5.8766        2.9279        8.8045       0.202195       0.00346
   2     792.3        8.5516        6.1477        2.5791        8.7268       0.175258       0.00309
   1     891.5        8.4933        6.4654        2.1699        8.6353       0.142006       0.00283
   0    1013.0        8.4371        6.7843        1.7581        8.5424       0.105324       0.00255



 Wavenumbers: 38000. - 50000. cm-1, ATM      1
 LEVEL PRESSURE   UPWARD FLUX   DIFDOWN FLUX  DIRDOWN FLUX  DOWNWARD FLUX   NET FLUX    HEATING RATE
          mb          W/m2          W/m2          W/m2        W/m2          W/m2       degree/day
  51    .06700        0.0061        0.0000        1.2836        1.2836       1.277518       0.00000
  50    .07753        0.0061        0.0001        1.2812        1.2812       1.275183       1.87150
  49    .09103        0.0060        0.0002        1.2777        1.2778       1.271851       2.08247
  48    0.1069        0.0059        0.0002        1.2731        1.2734       1.267473       2.33059
  47    0.1255        0.0058        0.0004        1.2672        1.2675       1.261717       2.60908
  46    0.1487        0.0057        0.0005        1.2586        1.2591       1.253391       3.03499
  45    0.1794        0.0055        0.0007        1.2455        1.2462       1.240623       3.50520
  44    0.2165        0.0054        0.0009        1.2282        1.2291       1.223697       3.85037
  43    0.2613        0.0052        0.0011        1.2054        1.2065       1.201348       4.21261
  42    0.3336        0.0049        0.0015        1.1639        1.1654       1.160524       4.75970
  41    0.4307        0.0045        0.0020        1.1051        1.1070       1.102565       5.03943
  40    0.5894        0.0039        0.0026        1.0039        1.0064       1.002524       5.32007
  39     1.339        0.0022        0.0035        0.5438        0.5473       0.545105       5.14971
  38     1.782        0.0016        0.0032        0.3635        0.3666       0.365006       3.42879
  37     2.292        0.0012        0.0027        0.2356        0.2383       0.237058       2.11916
  36     2.964        0.0009        0.0022        0.1455        0.1477       0.146786       1.13318
  35     3.853        0.0006        0.0017        0.0858        0.0875       0.086906       0.56828
  34     5.035        0.0004        0.0013        0.0488        0.0501       0.049701       0.26578
  33     6.613        0.0003        0.0010        0.0273        0.0282       0.027974       0.11615
  32     8.786        0.0002        0.0007        0.0144        0.0151       0.014928       0.05067
  31     11.80        0.0001        0.0004        0.0065        0.0070       0.006903       0.02247
  30     15.07        0.0000        0.0003        0.0031        0.0034       0.003329       0.00923
  29     18.79        0.0000        0.0002        0.0014        0.0016       0.001583       0.00396
  28     23.16        0.0000        0.0001        0.0006        0.0007       0.000720       0.00167
  27     28.12        0.0000        0.0001        0.0003        0.0003       0.000317       0.00069
  26     33.73        0.0000        0.0000        0.0001        0.0001       0.000140       0.00027
  25     40.54        0.0000        0.0000        0.0000        0.0001       0.000057       0.00010
  24     48.69        0.0000        0.0000        0.0000        0.0000       0.000021       0.00004
  23     57.69        0.0000        0.0000        0.0000        0.0000       0.000008       0.00001
  22     68.43        0.0000        0.0000        0.0000        0.0000       0.000003       0.00000
  21     81.20        0.0000        0.0000        0.0000        0.0000       0.000001       0.00000
  20     96.49        0.0000        0.0000        0.0000        0.0000       0.000000       0.00000
  19     114.6        0.0000        0.0000        0.0000        0.0000       0.000000       0.00000
  18     136.5        0.0000        0.0000        0.0000        0.0000       0.000000       0.00000
  17     162.9        0.0000        0.0000        0.0000        0.0000       0.000000       0.00000
  16     196.4        0.0000        0.0000        0.0000        0.0000       0.000000       0.00000
  15     218.7        0.0000        0.0000        0.0000        0.0000       0.000000       0.00000
  14     243.0        0.0000        0.0000        0.0000        0.0000       0.000000       0.00000
  13     269.0        0.0000        0.0000        0.0000        0.0000       0.000000       0.00000
  12     297.5        0.0000        0.0000        0.0000        0.0000       0.000000       0.00000
  11     328.5        0.0000        0.0000        0.0000        0.0000       0.000000       0.00000
  10     361.9        0.0000        0.0000        0.0000        0.0000       0.000000       0.00000
   9     398.1        0.0000        0.0000        0.0000        0.0000       0.000000       0.00000
   8     437.6        0.0000        0.0000        0.0000        0.0000       0.000000       0.00000
   7     480.5        0.0000        0.0000        0.0000        0.0000       0.000000       0.00000
   6     533.0        0.0000        0.0000        0.0000        0.0000       0.000000       0.00000
   5     589.8        0.0000        0.0000        0.0000        0.0000       0.000000       0.00000
   4     651.6        0.0000        0.0000        0.0000        0.0000       0.000000       0.00000
   3     718.7        0.0000        0.0000        0.0000        0.0000       0.000000       0.00000
   2     792.3        0.0000        0.0000        0.0000        0.0000       0.000000       0.00000
   1     891.5        0.0000        0.0000        0.0000        0.0000       0.000000       0.00000
   0    1013.0        0.0000        0.0000        0.0000        0.0000       0.000000       0.00000



 Wavenumbers:   820. -  2600. cm-1, ATM      1
 LEVEL PRESSURE   UPWARD FLUX   DIFDOWN FLUX  DIRDOWN FLUX  DOWNWARD FLUX   NET FLUX    HEATING RATE
          mb          W/m2          W/m2          W/m2        W/m2          W/m2       degree/day
  51    .06700        1.1457        0.0000        6.0047        6.0047       4.858937       0.00000
  50    .07753        1.1457        0.0000        6.0008        6.0008       4.855115       3.06377
  49    .09103        1.1457        0.0000        6.0000        6.0000       4.854269       0.52874
  48    0.1069        1.1457        0.0000        5.9990        5.9990       4.853327       0.50127
  47    0.1255        1.1457        0.0000        5.9980        5.9980       4.852267       0.48084
  46    0.1487        1.1457        0.0000        5.9967        5.9967       4.850984       0.46752
  45    0.1794        1.1457        0.0000        5.9951        5.9951       4.849370       0.44319
  44    0.2165        1.1457        0.0000        5.9934        5.9934       4.847656       0.38985
  43    0.2613        1.1457        0.0000        5.9916        5.9916       4.845854       0.33962
  42    0.3336        1.1457        0.0000        5.9890        5.9890       4.843245       0.30420
  41    0.4307        1.1457        0.0000        5.9859        5.9859       4.840141       0.26992
  40    0.5894        1.1457        0.0000        5.9810        5.9810       4.835245       0.26035
  39     1.339        1.1457        0.0000        5.9584        5.9584       4.812636       0.25453
  38     1.782        1.1457        0.0000        5.9458        5.9458       4.800101       0.23865
  37     2.292        1.1457        0.0000        5.9318        5.9318       4.786094       0.23200
  36     2.964        1.1457        0.0000        5.9141        5.9141       4.768411       0.22197
  35     3.853        1.1457        0.0000        5.8919        5.8919       4.746176       0.21101
  34     5.035        1.1457        0.0000        5.8641        5.8641       4.718338       0.19887
  33     6.613        1.1457        0.0000        5.8289        5.8289       4.683154       0.18809
  32     8.786        1.1457        0.0000        5.7837        5.7837       4.637931       0.17563
  31     11.80        1.1458        0.0000        5.7260        5.7260       4.580209       0.16161
  30     15.07        1.1458        0.0000        5.6763        5.6763       4.530542       0.12823
  29     18.79        1.1458        0.0000        5.6354        5.6354       4.489636       0.09274
  28     23.16        1.1458        0.0000        5.6031        5.6031       4.457285       0.06256
  27     28.12        1.1458        0.0000        5.5778        5.5778       4.431961       0.04305
  26     33.73        1.1458        0.0000        5.5559        5.5559       4.410054       0.03294
  25     40.54        1.1459        0.0000        5.5323        5.5323       4.386486       0.02924
  24     48.69        1.1459        0.0000        5.5050        5.5050       4.359137       0.02830
  23     57.69        1.1459        0.0000        5.4753        5.4753       4.329369       0.02790
  22     68.43        1.1460        0.0000        5.4402        5.4402       4.294209       0.02764
  21     81.20        1.1460        0.0000        5.3995        5.3995       4.253483       0.02691
  20     96.49        1.1461        0.0000        5.3523        5.3523       4.206207       0.02609
  19     114.6        1.1462        0.0000        5.2981        5.2981       4.151918       0.02535
  18     136.5        1.1463        0.0000        5.2369        5.2369       4.090602       0.02358
  17     162.9        1.1464        0.0000        5.1636        5.1637       4.017208       0.02346
  16     196.4        1.1467        0.0000        5.0599        5.0599       3.913262       0.02616
  15     218.7        1.1469        0.0000        4.9714        4.9714       3.824500       0.03370
  14     243.0        1.1473        0.0000        4.8450        4.8450       3.697784       0.04395
  13     269.0        1.1478        0.0000        4.6873        4.6873       3.539560       0.05133
  12     297.5        1.1486        0.0000        4.5137        4.5137       3.365190       0.05172
  11     328.5        1.1496        0.0000        4.3460        4.3460       3.196390       0.04590
  10     361.9        1.1510        0.0000        4.1552        4.1552       3.004263       0.04861
   9     398.1        1.1527        0.0000        3.9297        3.9297       2.776995       0.05295
   8     437.6        1.1549        0.0000        3.6818        3.6819       2.526946       0.05346
   7     480.5        1.1576        0.0000        3.4536        3.4536       2.296024       0.04535
   6     533.0        1.1616        0.0000        3.2527        3.2528       2.091182       0.03295
   5     589.8        1.1673        0.0001        3.1073        3.1073       1.940043       0.02243
   4     651.6        1.1768        0.0001        2.9608        2.9609       1.784050       0.02133
   3     718.7        1.1923        0.0001        2.7841        2.7841       1.591770       0.02416
   2     792.3        1.2192        0.0001        2.5761        2.5761       1.356910       0.02694
   1     891.5        1.2826        0.0001        2.3018        2.3018       1.019232       0.02873
   0    1013.0        1.4285        0.0001        1.9893        1.9893       0.560789       0.03183

  Modules and versions used in this calculation:

       rrtmg_sw.1col.f90:  $Revision$                    rrtmg_sw_init.f90:  $Revision$        
     rrtmgsw_cldprop.f90:  $Revision$                  rrtmgsw_cldprmc.f90:  NOT USED          
     rrtmg_sw_reftra.f90:  $Revision$                  rrtmg_sw_spcvrt.f90:  NOT USED          
     rrtmg_sw_spcvmc.f90:  NOT USED                    rrtmgsw_setcoef.f90:  NOT USED          
     rrtmg_sw_taumol.f90:  $Revision$                  rrtmg_sw_vrtqdr.f90:  NOT USED          
                rrtatm.f:  NOT USED                             util_xxx.f:  NOT USED          
                 extra.f:  NOT USED                       rrtmg_sw_k_g.f90:  $Revision$        

