

 Wavenumbers:   820. - 50000. cm-1, ATM      1
 LEVEL PRESSURE   UPWARD FLUX   DIFDOWN FLUX  DIRDOWN FLUX  DOWNWARD FLUX   NET FLUX    HEATING RATE
          mb          W/m2          W/m2          W/m2        W/m2          W/m2       degree/day
  51    .06700      409.2677        0.0000      617.8126      617.8126     208.544925       0.00000
  50    .07753      409.2673        0.0014      617.7949      617.7963     208.528974      12.78485
  49    .09103      409.2668        0.0031      617.7782      617.7812     208.514393       9.11359
  48    0.1069      409.2664        0.0050      617.7588      617.7638     208.497384       9.05384
  47    0.1255      409.2659        0.0072      617.7349      617.7422     208.476320       9.54936
  46    0.1487      409.2653        0.0101      617.7022      617.7123     208.446984      10.69324
  45    0.1794      409.2646        0.0139      617.6539      617.6678     208.403217      12.01511
  44    0.2165      409.2639        0.0185      617.5918      617.6103     208.346436      12.91688
  43    0.2613      409.2632        0.0239      617.5119      617.5358     208.272563      13.92472
  42    0.3336      409.2624        0.0327      617.3682      617.4009     208.138552      15.62439
  41    0.4307      409.2618        0.0444      617.1648      617.2091     207.947365      16.62324
  40    0.5894      409.2617        0.0632      616.8086      616.8718     207.610021      17.93953
  39     1.339      409.2801        0.1483      614.9629      615.1112     205.831075      20.02770
  38     1.782      409.3038        0.1962      613.9911      614.1873     204.883468      18.04090
  37     2.292      409.3429        0.2506      613.0358      613.2865     203.943558      15.56737
  36     2.964      409.4118        0.3215      611.9947      612.3162     202.904353      13.04516
  35     3.853      409.5274        0.4143      610.8482      611.2625     201.735115      11.09628
  34     5.035      409.7051        0.5369      609.5893      610.1262     200.421073       9.38697
  33     6.613      409.9553        0.6996      608.2160      608.9156     198.960331       7.80913
  32     8.786      410.2812        0.9178      606.7099      607.6277     197.346523       6.26744
  31     11.80      410.7033        1.2286      604.9515      606.1801     195.476737       5.23481
  30     15.07      411.1052        1.5602      603.3628      604.9231     193.817836       4.28296
  29     18.79      411.5133        1.9333      601.7860      603.7193     192.205996       3.65454
  28     23.16      411.9371        2.3669      600.1448      602.5117     190.574624       3.15454
  27     28.12      412.3599        2.8604      598.4588      601.3192     188.959382       2.74580
  26     33.73      412.7424        3.4106      596.7847      600.1953     187.452849       2.26511
  25     40.54      413.0991        4.0730      594.9823      599.0553     185.956207       1.85675
  24     48.69      413.4270        4.8679      593.0174      597.8853     184.458266       1.55013
  23     57.69      413.6880        5.7368      591.0479      596.7847     183.096674       1.27629
  22     68.43      413.8914        6.7663      588.8944      595.6607     181.769324       1.04348
  21     81.20      413.9841        7.9869      586.5697      594.5565     180.572401       0.79091
  20     96.49      413.9561        9.4321      584.0239      593.4560     179.499879       0.59195
  19     114.6      413.8658       11.1325      581.1375      592.2700     178.404177       0.51162
  18     136.5      413.7132       13.1236      577.8471      590.9707     177.257539       0.44091
  17     162.9      413.4922       15.4604      574.0473      589.5077     176.015553       0.39699
  16     196.4      413.1155       18.4408      569.2491      587.6899     174.574401       0.36276
  15     218.7      412.8378       20.3679      565.9599      586.3279     173.490057       0.41169
  14     243.0      412.5252       22.4352      562.1263      584.5615     172.036331       0.50420
  13     269.0      412.1764       24.6442      557.6076      582.2518     170.075440       0.63610
  12     297.5      411.7925       26.9955      552.2503      579.2458     167.453336       0.77769
  11     328.5      411.3814       29.4956      546.3152      575.8108     164.429394       0.82220
  10     361.9      410.9459       32.1408      539.8840      572.0249     161.078975       0.84769
   9     398.1      410.4890       34.9361      532.8943      567.8304     157.341375       0.87078
   8     437.6      410.0189       37.8804      525.1871      563.0675     153.048607       0.91782
   7     480.5      409.5426       40.9720      516.7775      557.7495     148.206857       0.95090
   6     533.0      409.0068       44.6903      506.3129      551.0032     141.996352       0.99907
   5     589.8      408.5174       48.5926      494.8811      543.4737     134.956279       1.04498
   4     651.6      408.1584       52.6706      482.0046      534.6752     126.516835       1.15412
   3     718.7      408.0342       56.9169      468.0204      524.9373     116.903107       1.20818
   2     792.3      408.3696       61.3105      452.8979      514.2084     105.838879       1.26894
   1     891.5      409.9711       67.0021      432.8366      499.8388      89.867667       1.35907
   0    1013.0      414.6299       73.4972      409.9261      483.4233      68.793388       1.46330



 Wavenumbers:  2600. -  3250. cm-1, ATM      1
 LEVEL PRESSURE   UPWARD FLUX   DIFDOWN FLUX  DIRDOWN FLUX  DOWNWARD FLUX   NET FLUX    HEATING RATE
          mb          W/m2          W/m2          W/m2        W/m2          W/m2       degree/day
  51    .06700        0.0333        0.0000        5.4450        5.4450       5.411702       0.00000
  50    .07753        0.0333        0.0000        5.4450        5.4450       5.411694       0.00640
  49    .09103        0.0333        0.0000        5.4450        5.4450       5.411684       0.00627
  48    0.1069        0.0333        0.0000        5.4450        5.4450       5.411673       0.00613
  47    0.1255        0.0333        0.0000        5.4450        5.4450       5.411660       0.00599
  46    0.1487        0.0333        0.0000        5.4450        5.4450       5.411643       0.00608
  45    0.1794        0.0333        0.0000        5.4450        5.4450       5.411620       0.00625
  44    0.2165        0.0333        0.0000        5.4449        5.4449       5.411593       0.00612
  43    0.2613        0.0333        0.0000        5.4449        5.4449       5.411562       0.00600
  42    0.3336        0.0333        0.0000        5.4448        5.4448       5.411509       0.00617
  41    0.4307        0.0333        0.0000        5.4448        5.4448       5.411437       0.00620
  40    0.5894        0.0333        0.0000        5.4446        5.4446       5.411318       0.00637
  39     1.339        0.0333        0.0000        5.4439        5.4439       5.410610       0.00797
  38     1.782        0.0333        0.0000        5.4434        5.4434       5.410067       0.01034
  37     2.292        0.0333        0.0000        5.4427        5.4427       5.409351       0.01186
  36     2.964        0.0333        0.0000        5.4416        5.4416       5.408313       0.01304
  35     3.853        0.0333        0.0000        5.4402        5.4402       5.406835       0.01402
  34     5.035        0.0333        0.0000        5.4381        5.4381       5.404780       0.01468
  33     6.613        0.0333        0.0000        5.4353        5.4353       5.401999       0.01487
  32     8.786        0.0333        0.0000        5.4317        5.4317       5.398367       0.01411
  31     11.80        0.0333        0.0000        5.4269        5.4269       5.393587       0.01338
  30     15.07        0.0333        0.0000        5.4224        5.4224       5.389061       0.01169
  29     18.79        0.0333        0.0000        5.4180        5.4180       5.384649       0.01000
  28     23.16        0.0333        0.0000        5.4135        5.4135       5.380164       0.00867
  27     28.12        0.0333        0.0000        5.4088        5.4088       5.375518       0.00790
  26     33.73        0.0333        0.0000        5.4036        5.4036       5.370278       0.00788
  25     40.54        0.0333        0.0000        5.3966        5.3967       5.363339       0.00861
  24     48.69        0.0333        0.0000        5.3872        5.3872       5.353866       0.00980
  23     57.69        0.0333        0.0000        5.3754        5.3754       5.342086       0.01104
  22     68.43        0.0333        0.0000        5.3599        5.3599       5.326605       0.01217
  21     81.20        0.0333        0.0000        5.3401        5.3401       5.306781       0.01310
  20     96.49        0.0333        0.0000        5.3155        5.3155       5.282227       0.01355
  19     114.6        0.0333        0.0000        5.2858        5.2858       5.252531       0.01387
  18     136.5        0.0333        0.0000        5.2513        5.2514       5.218074       0.01325
  17     162.9        0.0333        0.0001        5.2126        5.2127       5.179370       0.01237
  16     196.4        0.0333        0.0001        5.1670        5.1671       5.133791       0.01147
  15     218.7        0.0333        0.0001        5.1388        5.1389       5.105622       0.01069
  14     243.0        0.0333        0.0001        5.1079        5.1080       5.074734       0.01071
  13     269.0        0.0333        0.0001        5.0718        5.0719       5.038604       0.01172
  12     297.5        0.0333        0.0001        5.0296        5.0297       4.996386       0.01252
  11     328.5        0.0333        0.0001        4.9816        4.9817       4.948344       0.01306
  10     361.9        0.0334        0.0001        4.9257        4.9258       4.892451       0.01414
   9     398.1        0.0334        0.0001        4.8582        4.8583       4.824867       0.01575
   8     437.6        0.0335        0.0001        4.7728        4.7729       4.739435       0.01827
   7     480.5        0.0336        0.0002        4.6663        4.6665       4.632895       0.02092
   6     533.0        0.0337        0.0002        4.5137        4.5138       4.480084       0.02458
   5     589.8        0.0340        0.0002        4.3238        4.3240       4.289988       0.02822
   4     651.6        0.0343        0.0002        4.0869        4.0871       4.052761       0.03244
   3     718.7        0.0349        0.0002        3.8190        3.8192       3.784343       0.03373
   2     792.3        0.0358        0.0002        3.5271        3.5273       3.491499       0.03359
   1     891.5        0.0377        0.0002        3.1370        3.1372       3.099426       0.03336
   0    1013.0        0.0421        0.0002        2.6822        2.6824       2.640245       0.03188



 Wavenumbers:  3250. -  4000. cm-1, ATM      1
 LEVEL PRESSURE   UPWARD FLUX   DIFDOWN FLUX  DIRDOWN FLUX  DOWNWARD FLUX   NET FLUX    HEATING RATE
          mb          W/m2          W/m2          W/m2        W/m2          W/m2       degree/day
  51    .06700        0.0011        0.0000        9.1795        9.1795       9.178397       0.00000
  50    .07753        0.0011        0.0000        9.1748        9.1748       9.173656       3.79958
  49    .09103        0.0011        0.0000        9.1715        9.1715       9.170384       2.04517
  48    0.1069        0.0011        0.0000        9.1691        9.1691       9.167978       1.28092
  47    0.1255        0.0011        0.0000        9.1670        9.1670       9.165840       0.96911
  46    0.1487        0.0011        0.0000        9.1647        9.1647       9.163541       0.83809
  45    0.1794        0.0011        0.0000        9.1620        9.1620       9.160835       0.74291
  44    0.2165        0.0011        0.0000        9.1592        9.1592       9.158098       0.62251
  43    0.2613        0.0011        0.0000        9.1565        9.1565       9.155332       0.52145
  42    0.3336        0.0011        0.0000        9.1526        9.1526       9.151492       0.44764
  41    0.4307        0.0011        0.0000        9.1483        9.1483       9.147171       0.37568
  40    0.5894        0.0011        0.0000        9.1420        9.1420       9.140876       0.33477
  39     1.339        0.0011        0.0000        9.1176        9.1176       9.116486       0.27459
  38     1.782        0.0011        0.0000        9.1067        9.1067       9.105589       0.20746
  37     2.292        0.0011        0.0000        9.0962        9.0962       9.095106       0.17363
  36     2.964        0.0011        0.0000        9.0844        9.0844       9.083314       0.14802
  35     3.853        0.0011        0.0000        9.0705        9.0705       9.069362       0.13241
  34     5.035        0.0011        0.0000        9.0530        9.0530       9.051833       0.12522
  33     6.613        0.0011        0.0000        9.0297        9.0297       9.028557       0.12443
  32     8.786        0.0011        0.0000        8.9972        8.9972       8.996090       0.12609
  31     11.80        0.0011        0.0000        8.9487        8.9487       8.947586       0.13580
  30     15.07        0.0011        0.0000        8.8948        8.8948       8.893697       0.13913
  29     18.79        0.0011        0.0000        8.8327        8.8328       8.831650       0.14068
  28     23.16        0.0011        0.0000        8.7607        8.7607       8.759593       0.13933
  27     28.12        0.0011        0.0000        8.6812        8.6812       8.680150       0.13505
  26     33.73        0.0011        0.0000        8.5985        8.5986       8.597504       0.12426
  25     40.54        0.0011        0.0001        8.5082        8.5083       8.507199       0.11203
  24     48.69        0.0011        0.0001        8.4118        8.4118       8.410768       0.09979
  23     57.69        0.0011        0.0001        8.3159        8.3160       8.314896       0.08987
  22     68.43        0.0010        0.0001        8.2084        8.2085       8.207424       0.08449
  21     81.20        0.0010        0.0001        8.0838        8.0839       8.082876       0.08230
  20     96.49        0.0010        0.0001        7.9387        7.9388       7.937806       0.08007
  19     114.6        0.0010        0.0001        7.7704        7.7705       7.769530       0.07857
  18     136.5        0.0010        0.0002        7.5853        7.5854       7.584474       0.07116
  17     162.9        0.0009        0.0002        7.3790        7.3792       7.378298       0.06590
  16     196.4        0.0009        0.0002        7.1112        7.1114       7.110553       0.06739
  15     218.7        0.0009        0.0002        6.8785        6.8787       6.877875       0.08834
  14     243.0        0.0008        0.0003        6.5594        6.5596       6.558799       0.11067
  13     269.0        0.0008        0.0003        6.1650        6.1653       6.164452       0.12792
  12     297.5        0.0008        0.0003        5.7075        5.7078       5.706978       0.13568
  11     328.5        0.0008        0.0003        5.2335        5.2338       5.233009       0.12887
  10     361.9        0.0008        0.0003        4.7356        4.7359       4.735159       0.12596
   9     398.1        0.0007        0.0003        4.2270        4.2273       4.226545       0.11850
   8     437.6        0.0007        0.0003        3.7265        3.7268       3.726082       0.10700
   7     480.5        0.0007        0.0003        3.2616        3.2618       3.261117       0.09132
   6     533.0        0.0007        0.0002        2.7673        2.7675       2.766837       0.07951
   5     589.8        0.0007        0.0002        2.2966        2.2969       2.296162       0.06986
   4     651.6        0.0007        0.0002        1.8190        1.8192       1.818461       0.06533
   3     718.7        0.0008        0.0002        1.3595        1.3596       1.358800       0.05777
   2     792.3        0.0010        0.0001        0.9216        0.9217       0.920730       0.05024
   1     891.5        0.0016        0.0001        0.4801        0.4801       0.478528       0.03763
   0    1013.0        0.0042        0.0000        0.1616        0.1616       0.157458       0.02229



 Wavenumbers:  4000. -  4650. cm-1, ATM      1
 LEVEL PRESSURE   UPWARD FLUX   DIFDOWN FLUX  DIRDOWN FLUX  DOWNWARD FLUX   NET FLUX    HEATING RATE
          mb          W/m2          W/m2          W/m2        W/m2          W/m2       degree/day
  51    .06700        1.3368        0.0000       10.7795       10.7795       9.442789       0.00000
  50    .07753        1.3368        0.0000       10.7795       10.7795       9.442788       0.00081
  49    .09103        1.3368        0.0000       10.7795       10.7795       9.442787       0.00079
  48    0.1069        1.3368        0.0000       10.7795       10.7795       9.442786       0.00077
  47    0.1255        1.3368        0.0000       10.7795       10.7795       9.442784       0.00075
  46    0.1487        1.3368        0.0000       10.7795       10.7795       9.442782       0.00077
  45    0.1794        1.3368        0.0000       10.7795       10.7795       9.442779       0.00079
  44    0.2165        1.3368        0.0000       10.7795       10.7795       9.442776       0.00077
  43    0.2613        1.3368        0.0000       10.7795       10.7795       9.442772       0.00076
  42    0.3336        1.3368        0.0000       10.7795       10.7795       9.442765       0.00078
  41    0.4307        1.3368        0.0000       10.7795       10.7795       9.442756       0.00078
  40    0.5894        1.3368        0.0000       10.7795       10.7795       9.442741       0.00080
  39     1.339        1.3368        0.0000       10.7794       10.7794       9.442651       0.00102
  38     1.782        1.3368        0.0000       10.7793       10.7793       9.442580       0.00134
  37     2.292        1.3367        0.0000       10.7792       10.7792       9.442485       0.00157
  36     2.964        1.3367        0.0000       10.7791       10.7791       9.442343       0.00178
  35     3.853        1.3367        0.0000       10.7789       10.7789       9.442133       0.00199
  34     5.035        1.3367        0.0000       10.7785       10.7786       9.441823       0.00221
  33     6.613        1.3367        0.0000       10.7781       10.7781       9.441367       0.00244
  32     8.786        1.3367        0.0000       10.7774       10.7774       9.440694       0.00261
  31     11.80        1.3367        0.0000       10.7763       10.7764       9.439637       0.00296
  30     15.07        1.3367        0.0001       10.7750       10.7751       9.438397       0.00320
  29     18.79        1.3367        0.0001       10.7735       10.7736       9.436897       0.00340
  28     23.16        1.3367        0.0001       10.7716       10.7717       9.435036       0.00360
  27     28.12        1.3367        0.0001       10.7694       10.7695       9.432784       0.00383
  26     33.73        1.3367        0.0001       10.7665       10.7667       9.430007       0.00417
  25     40.54        1.3367        0.0002       10.7627       10.7629       9.426242       0.00467
  24     48.69        1.3366        0.0002       10.7577       10.7579       9.421227       0.00519
  23     57.69        1.3366        0.0002       10.7517       10.7519       9.415285       0.00557
  22     68.43        1.3366        0.0003       10.7442       10.7445       9.407842       0.00585
  21     81.20        1.3366        0.0003       10.7350       10.7353       9.398683       0.00605
  20     96.49        1.3366        0.0004       10.7238       10.7242       9.387550       0.00614
  19     114.6        1.3367        0.0004       10.7102       10.7106       9.373932       0.00636
  18     136.5        1.3367        0.0005       10.6938       10.6943       9.357549       0.00630
  17     162.9        1.3368        0.0006       10.6739       10.6745       9.337662       0.00636
  16     196.4        1.3370        0.0007       10.6472       10.6479       9.310964       0.00672
  15     218.7        1.3372        0.0008       10.6282       10.6290       9.291823       0.00727
  14     243.0        1.3374        0.0009       10.6048       10.6057       9.268321       0.00815
  13     269.0        1.3378        0.0010       10.5751       10.5761       9.238312       0.00973
  12     297.5        1.3384        0.0011       10.5371       10.5382       9.199819       0.01142
  11     328.5        1.3392        0.0012       10.4912       10.4924       9.153228       0.01267
  10     361.9        1.3402        0.0013       10.4357       10.4371       9.096835       0.01427
   9     398.1        1.3416        0.0015       10.3670       10.3685       9.026861       0.01630
   8     437.6        1.3435        0.0016       10.2792       10.2808       8.937365       0.01913
   7     480.5        1.3458        0.0017       10.1701       10.1719       8.826080       0.02186
   6     533.0        1.3491        0.0019       10.0178       10.0197       8.670571       0.02502
   5     589.8        1.3536        0.0021        9.8358        9.8378       8.484238       0.02766
   4     651.6        1.3599        0.0022        9.6166        9.6188       8.258934       0.03081
   3     718.7        1.3691        0.0024        9.3613        9.3637       7.994678       0.03321
   2     792.3        1.3833        0.0026        9.0383        9.0409       7.657639       0.03865
   1     891.5        1.4140        0.0028        8.5218        8.5245       7.110492       0.04656
   0    1013.0        1.4838        0.0029        7.8945        7.8974       6.413590       0.04839



 Wavenumbers:  4650. -  5150. cm-1, ATM      1
 LEVEL PRESSURE   UPWARD FLUX   DIFDOWN FLUX  DIRDOWN FLUX  DOWNWARD FLUX   NET FLUX    HEATING RATE
          mb          W/m2          W/m2          W/m2        W/m2          W/m2       degree/day
  51    .06700        0.3403        0.0000       10.2033       10.2033       9.863016       0.00000
  50    .07753        0.3403        0.0000       10.2031       10.2031       9.862782       0.18690
  49    .09103        0.3403        0.0000       10.2028       10.2028       9.862491       0.18223
  48    0.1069        0.3403        0.0000       10.2025       10.2025       9.862158       0.17732
  47    0.1255        0.3403        0.0000       10.2021       10.2021       9.861778       0.17233
  46    0.1487        0.3403        0.0000       10.2016       10.2016       9.861302       0.17343
  45    0.1794        0.3403        0.0000       10.2010       10.2010       9.860659       0.17655
  44    0.2165        0.3403        0.0000       10.2002       10.2002       9.859908       0.17088
  43    0.2613        0.3403        0.0000       10.1994       10.1994       9.859032       0.16508
  42    0.3336        0.3403        0.0000       10.1979       10.1979       9.857615       0.16521
  41    0.4307        0.3403        0.0000       10.1961       10.1961       9.855794       0.15831
  40    0.5894        0.3403        0.0000       10.1933       10.1933       9.852951       0.15120
  39     1.339        0.3403        0.0000       10.1818       10.1818       9.841479       0.12915
  38     1.782        0.3403        0.0000       10.1763       10.1763       9.836006       0.10420
  37     2.292        0.3403        0.0000       10.1709       10.1709       9.830604       0.08948
  36     2.964        0.3403        0.0000       10.1650       10.1650       9.824737       0.07364
  35     3.853        0.3403        0.0000       10.1589       10.1589       9.818579       0.05844
  34     5.035        0.3403        0.0000       10.1526       10.1526       9.812296       0.04488
  33     6.613        0.3403        0.0000       10.1461       10.1462       9.805886       0.03427
  32     8.786        0.3403        0.0000       10.1391       10.1392       9.798917       0.02707
  31     11.80        0.3403        0.0001       10.1301       10.1302       9.789920       0.02519
  30     15.07        0.3402        0.0001       10.1203       10.1203       9.780086       0.02539
  29     18.79        0.3402        0.0001       10.1083       10.1084       9.768131       0.02710
  28     23.16        0.3402        0.0001       10.0930       10.0931       9.752895       0.02946
  27     28.12        0.3402        0.0002       10.0739       10.0741       9.733887       0.03231
  26     33.73        0.3402        0.0002       10.0509       10.0511       9.710900       0.03456
  25     40.54        0.3402        0.0002       10.0211       10.0213       9.681139       0.03692
  24     48.69        0.3401        0.0003        9.9830        9.9833       9.643154       0.03931
  23     57.69        0.3401        0.0003        9.9396        9.9399       9.599836       0.04060
  22     68.43        0.3401        0.0004        9.8871        9.8875       9.547382       0.04124
  21     81.20        0.3401        0.0004        9.8250        9.8254       9.485341       0.04100
  20     96.49        0.3400        0.0005        9.7535        9.7540       9.413958       0.03940
  19     114.6        0.3400        0.0006        9.6739        9.6745       9.334488       0.03711
  18     136.5        0.3400        0.0007        9.5881        9.5888       9.248767       0.03296
  17     162.9        0.3401        0.0009        9.4967        9.4976       9.157506       0.02917
  16     196.4        0.3401        0.0010        9.3915        9.3926       9.052427       0.02645
  15     218.7        0.3402        0.0011        9.3271        9.3282       8.988015       0.02445
  14     243.0        0.3403        0.0012        9.2583        9.2595       8.919230       0.02386
  13     269.0        0.3405        0.0014        9.1829        9.1842       8.843765       0.02448
  12     297.5        0.3407        0.0015        9.0974        9.0989       8.758210       0.02537
  11     328.5        0.3410        0.0016        8.9998        9.0014       8.660371       0.02660
  10     361.9        0.3415        0.0018        8.8867        8.8885       8.547033       0.02868
   9     398.1        0.3421        0.0019        8.7557        8.7576       8.415518       0.03064
   8     437.6        0.3429        0.0021        8.6050        8.6071       8.264222       0.03235
   7     480.5        0.3440        0.0022        8.4325        8.4348       8.090785       0.03406
   6     533.0        0.3456        0.0024        8.2062        8.2086       7.863027       0.03664
   5     589.8        0.3478        0.0026        7.9468        7.9494       7.601593       0.03881
   4     651.6        0.3510        0.0028        7.6459        7.6487       7.297678       0.04156
   3     718.7        0.3556        0.0029        7.3084        7.3113       6.955770       0.04297
   2     792.3        0.3623        0.0031        6.9365        6.9396       6.577335       0.04340
   1     891.5        0.3754        0.0032        6.4435        6.4467       6.071303       0.04306
   0    1013.0        0.4007        0.0034        5.8893        5.8927       5.492021       0.04022



 Wavenumbers:  5150. -  6150. cm-1, ATM      1
 LEVEL PRESSURE   UPWARD FLUX   DIFDOWN FLUX  DIRDOWN FLUX  DOWNWARD FLUX   NET FLUX    HEATING RATE
          mb          W/m2          W/m2          W/m2        W/m2          W/m2       degree/day
  51    .06700        2.7860        0.0000       25.5798       25.5798      22.793850       0.00000
  50    .07753        2.7860        0.0000       25.5798       25.5798      22.793832       0.01395
  49    .09103        2.7860        0.0000       25.5798       25.5798      22.793810       0.01416
  48    0.1069        2.7860        0.0000       25.5798       25.5798      22.793783       0.01438
  47    0.1255        2.7860        0.0000       25.5797       25.5797      22.793751       0.01460
  46    0.1487        2.7860        0.0000       25.5797       25.5797      22.793708       0.01538
  45    0.1794        2.7860        0.0000       25.5796       25.5796      22.793649       0.01637
  44    0.2165        2.7860        0.0000       25.5795       25.5795      22.793576       0.01662
  43    0.2613        2.7860        0.0000       25.5794       25.5795      22.793486       0.01688
  42    0.3336        2.7860        0.0000       25.5793       25.5793      22.793333       0.01784
  41    0.4307        2.7860        0.0000       25.5791       25.5791      22.793125       0.01810
  40    0.5894        2.7860        0.0000       25.5787       25.5787      22.792776       0.01857
  39     1.339        2.7859        0.0000       25.5770       25.5770      22.791083       0.01905
  38     1.782        2.7859        0.0000       25.5760       25.5760      22.790090       0.01892
  37     2.292        2.7859        0.0001       25.5748       25.5749      22.788958       0.01875
  36     2.964        2.7859        0.0001       25.5733       25.5734      22.787509       0.01819
  35     3.853        2.7859        0.0001       25.5714       25.5715      22.785650       0.01764
  34     5.035        2.7859        0.0001       25.5690       25.5691      22.783228       0.01730
  33     6.613        2.7859        0.0002       25.5657       25.5659      22.780040       0.01704
  32     8.786        2.7858        0.0002       25.5614       25.5616      22.775830       0.01635
  31     11.80        2.7858        0.0003       25.5554       25.5558      22.769991       0.01635
  30     15.07        2.7857        0.0004       25.5493       25.5497      22.763963       0.01556
  29     18.79        2.7857        0.0005       25.5426       25.5431      22.757467       0.01473
  28     23.16        2.7856        0.0006       25.5352       25.5358      22.750235       0.01398
  27     28.12        2.7855        0.0007       25.5271       25.5279      22.742356       0.01339
  26     33.73        2.7855        0.0009       25.5186       25.5195      22.734050       0.01249
  25     40.54        2.7854        0.0011       25.5089       25.5100      22.724619       0.01170
  24     48.69        2.7853        0.0013       25.4981       25.4994      22.714096       0.01089
  23     57.69        2.7852        0.0015       25.4869       25.4885      22.703224       0.01019
  22     68.43        2.7852        0.0018       25.4743       25.4761      22.690976       0.00963
  21     81.20        2.7851        0.0022       25.4599       25.4621      22.677020       0.00922
  20     96.49        2.7850        0.0026       25.4432       25.4458      22.660779       0.00896
  19     114.6        2.7849        0.0030       25.4235       25.4265      22.641651       0.00893
  18     136.5        2.7848        0.0036       25.4000       25.4037      22.618882       0.00876
  17     162.9        2.7847        0.0043       25.3651       25.3694      22.584755       0.01091
  16     196.4        2.7845        0.0052       25.2920       25.2972      22.512669       0.01814
  15     218.7        2.7845        0.0057       25.1887       25.1945      22.410016       0.03897
  14     243.0        2.7844        0.0063       25.0044       25.0107      22.226327       0.06371
  13     269.0        2.7844        0.0069       24.6789       24.6858      21.901406       0.10540
  12     297.5        2.7845        0.0075       24.1673       24.1748      21.390337       0.15158
  11     328.5        2.7847        0.0081       23.5944       23.6025      20.817816       0.15567
  10     361.9        2.7850        0.0088       22.9996       23.0084      20.223378       0.15040
   9     398.1        2.7855        0.0094       22.3318       22.3412      19.555666       0.15556
   8     437.6        2.7863        0.0100       21.5342       21.5442      18.757857       0.17058
   7     480.5        2.7875        0.0105       20.6442       20.6547      17.867243       0.17491
   6     533.0        2.7896        0.0111       19.5600       19.5712      16.781576       0.17465
   5     589.8        2.7930        0.0117       18.4173       18.4290      15.635955       0.17005
   4     651.6        2.7992        0.0121       17.2064       17.2185      14.419256       0.16639
   3     718.7        2.8102        0.0126       16.0967       16.1093      13.299059       0.14078
   2     792.3        2.8304        0.0131       15.1472       15.1603      12.329913       0.11115
   1     891.5        2.8801        0.0139       14.2088       14.2227      11.342591       0.08402
   0    1013.0        3.0035        0.0149       13.2955       13.3104      10.306980       0.07191



 Wavenumbers:  6150. -  7700. cm-1, ATM      1
 LEVEL PRESSURE   UPWARD FLUX   DIFDOWN FLUX  DIRDOWN FLUX  DOWNWARD FLUX   NET FLUX    HEATING RATE
          mb          W/m2          W/m2          W/m2        W/m2          W/m2       degree/day
  51    .06700        4.6553        0.0000       47.3109       47.3109      42.655537       0.00000
  50    .07753        4.6553        0.0000       47.3108       47.3108      42.655503       0.02727
  49    .09103        4.6553        0.0000       47.3108       47.3108      42.655460       0.02726
  48    0.1069        4.6553        0.0000       47.3107       47.3107      42.655409       0.02724
  47    0.1255        4.6553        0.0000       47.3107       47.3107      42.655348       0.02723
  46    0.1487        4.6553        0.0000       47.3106       47.3106      42.655271       0.02824
  45    0.1794        4.6553        0.0000       47.3105       47.3105      42.655163       0.02965
  44    0.2165        4.6553        0.0000       47.3103       47.3103      42.655033       0.02969
  43    0.2613        4.6553        0.0000       47.3102       47.3102      42.654875       0.02975
  42    0.3336        4.6553        0.0000       47.3099       47.3099      42.654608       0.03105
  41    0.4307        4.6553        0.0000       47.3095       47.3095      42.654249       0.03120
  40    0.5894        4.6553        0.0001       47.3089       47.3089      42.653653       0.03170
  39     1.339        4.6552        0.0001       47.3058       47.3060      42.650795       0.03218
  38     1.782        4.6552        0.0002       47.3041       47.3043      42.649123       0.03184
  37     2.292        4.6551        0.0003       47.3021       47.3023      42.647211       0.03165
  36     2.964        4.6550        0.0003       47.2995       47.2998      42.644749       0.03091
  35     3.853        4.6550        0.0004       47.2961       47.2965      42.641565       0.03021
  34     5.035        4.6548        0.0006       47.2917       47.2922      42.637403       0.02974
  33     6.613        4.6547        0.0007       47.2859       47.2866      42.631917       0.02933
  32     8.786        4.6545        0.0010       47.2782       47.2791      42.624654       0.02821
  31     11.80        4.6542        0.0013       47.2674       47.2687      42.614527       0.02835
  30     15.07        4.6539        0.0017       47.2562       47.2578      42.603989       0.02721
  29     18.79        4.6535        0.0021       47.2439       47.2460      42.592507       0.02603
  28     23.16        4.6531        0.0026       47.2301       47.2327      42.579584       0.02499
  27     28.12        4.6526        0.0031       47.2148       47.2179      42.565355       0.02419
  26     33.73        4.6521        0.0038       47.1985       47.2022      42.550165       0.02284
  25     40.54        4.6514        0.0045       47.1796       47.1841      42.532736       0.02162
  24     48.69        4.6506        0.0054       47.1582       47.1636      42.512992       0.02043
  23     57.69        4.6497        0.0064       47.1357       47.1422      42.492434       0.01927
  22     68.43        4.6487        0.0076       47.1102       47.1178      42.469147       0.01831
  21     81.20        4.6475        0.0090       47.0810       47.0901      42.442595       0.01754
  20     96.49        4.6460        0.0107       47.0472       47.0579      42.411938       0.01692
  19     114.6        4.6442        0.0127       47.0078       47.0206      42.376336       0.01662
  18     136.5        4.6422        0.0151       46.9616       46.9767      42.334579       0.01606
  17     162.9        4.6397        0.0180       46.8988       46.9168      42.277097       0.01837
  16     196.4        4.6365        0.0217       46.7816       46.8032      42.166753       0.02778
  15     218.7        4.6344        0.0240       46.6257       46.6497      42.015298       0.05750
  14     243.0        4.6323        0.0266       46.3477       46.3743      41.742020       0.09478
  13     269.0        4.6300        0.0292       45.8987       45.9279      41.297916       0.14407
  12     297.5        4.6278        0.0319       45.1884       45.2203      40.592479       0.20922
  11     328.5        4.6257        0.0345       44.2717       44.3062      39.680530       0.24796
  10     361.9        4.6237        0.0372       43.2169       43.2541      38.630408       0.26569
   9     398.1        4.6221        0.0400       42.0558       42.0957      37.473660       0.26950
   8     437.6        4.6211        0.0427       40.7345       40.7771      36.156034       0.28172
   7     480.5        4.6211        0.0452       39.2214       39.2667      34.645598       0.29664
   6     533.0        4.6230        0.0479       37.2709       37.3188      32.695839       0.31365
   5     589.8        4.6286        0.0502       35.1189       35.1692      30.540613       0.31991
   4     651.6        4.6419        0.0520       32.6784       32.7304      28.088557       0.33533
   3     718.7        4.6683        0.0534       30.1728       30.2262      25.557891       0.31803
   2     792.3        4.7195        0.0544       27.6796       27.7340      23.014473       0.29170
   1     891.5        4.8509        0.0554       24.7571       24.8124      19.961533       0.25979
   0    1013.0        5.1936        0.0564       21.9504       22.0068      16.813233       0.21860



 Wavenumbers:  7700. -  8050. cm-1, ATM      1
 LEVEL PRESSURE   UPWARD FLUX   DIFDOWN FLUX  DIRDOWN FLUX  DOWNWARD FLUX   NET FLUX    HEATING RATE
          mb          W/m2          W/m2          W/m2        W/m2          W/m2       degree/day
  51    .06700        5.7116        0.0000       11.1810       11.1810       5.469325       0.00000
  50    .07753        5.7116        0.0000       11.1809       11.1809       5.469303       0.01734
  49    .09103        5.7117        0.0000       11.1809       11.1809       5.469276       0.01699
  48    0.1069        5.7117        0.0000       11.1809       11.1809       5.469245       0.01663
  47    0.1255        5.7117        0.0000       11.1809       11.1809       5.469209       0.01628
  46    0.1487        5.7117        0.0000       11.1808       11.1808       5.469163       0.01652
  45    0.1794        5.7117        0.0000       11.1808       11.1808       5.469101       0.01700
  44    0.2165        5.7117        0.0000       11.1807       11.1807       5.469028       0.01667
  43    0.2613        5.7117        0.0000       11.1806       11.1806       5.468941       0.01636
  42    0.3336        5.7117        0.0000       11.1805       11.1805       5.468798       0.01674
  41    0.4307        5.7118        0.0000       11.1804       11.1804       5.468607       0.01656
  40    0.5894        5.7118        0.0000       11.1801       11.1801       5.468296       0.01654
  39     1.339        5.7121        0.0001       11.1788       11.1789       5.466825       0.01656
  38     1.782        5.7122        0.0001       11.1781       11.1782       5.465961       0.01645
  37     2.292        5.7124        0.0001       11.1772       11.1773       5.464960       0.01657
  36     2.964        5.7126        0.0002       11.1761       11.1762       5.463647       0.01649
  35     3.853        5.7129        0.0002       11.1746       11.1748       5.461912       0.01647
  34     5.035        5.7133        0.0003       11.1726       11.1729       5.459607       0.01646
  33     6.613        5.7138        0.0004       11.1700       11.1703       5.456528       0.01646
  32     8.786        5.7145        0.0005       11.1664       11.1669       5.452382       0.01611
  31     11.80        5.7155        0.0006       11.1613       11.1619       5.446453       0.01660
  30     15.07        5.7166        0.0008       11.1558       11.1567       5.440093       0.01642
  29     18.79        5.7178        0.0010       11.1497       11.1507       5.432916       0.01627
  28     23.16        5.7192        0.0013       11.1425       11.1438       5.424545       0.01619
  27     28.12        5.7209        0.0015       11.1343       11.1358       5.414987       0.01625
  26     33.73        5.7227        0.0018       11.1252       11.1270       5.404311       0.01605
  25     40.54        5.7249        0.0022       11.1142       11.1164       5.391444       0.01596
  24     48.69        5.7276        0.0026       11.1010       11.1036       5.375978       0.01601
  23     57.69        5.7306        0.0031       11.0866       11.0897       5.359048       0.01587
  22     68.43        5.7342        0.0037       11.0695       11.0732       5.338967       0.01579
  21     81.20        5.7385        0.0044       11.0493       11.0537       5.315159       0.01573
  20     96.49        5.7437        0.0052       11.0255       11.0307       5.286957       0.01557
  19     114.6        5.7500        0.0062       10.9975       11.0037       5.253704       0.01553
  18     136.5        5.7574        0.0073       10.9647       10.9720       5.214606       0.01503
  17     162.9        5.7664        0.0087       10.9262       10.9349       5.168472       0.01475
  16     196.4        5.7783        0.0105       10.8771       10.8876       5.109295       0.01490
  15     218.7        5.7863        0.0116       10.8454       10.8571       5.070787       0.01462
  14     243.0        5.7951        0.0129       10.8114       10.8243       5.029208       0.01442
  13     269.0        5.8047        0.0143       10.7749       10.7892       4.984426       0.01453
  12     297.5        5.8154        0.0158       10.7359       10.7516       4.936277       0.01428
  11     328.5        5.8271        0.0173       10.6942       10.7116       4.884483       0.01408
  10     361.9        5.8401        0.0191       10.6499       10.6690       4.828895       0.01406
   9     398.1        5.8544        0.0209       10.6026       10.6235       4.769156       0.01392
   8     437.6        5.8702        0.0229       10.5522       10.5751       4.704887       0.01374
   7     480.5        5.8879        0.0250       10.4985       10.5235       4.635667       0.01359
   6     533.0        5.9106        0.0276       10.4325       10.4601       4.549501       0.01386
   5     589.8        5.9365        0.0304       10.3608       10.3912       4.454704       0.01407
   4     651.6        5.9666        0.0334       10.2824       10.3158       4.349147       0.01444
   3     718.7        6.0020        0.0366       10.1953       10.2319       4.229901       0.01499
   2     792.3        6.0443        0.0400       10.0972       10.1372       4.092894       0.01571
   1     891.5        6.1108        0.0446        9.9544        9.9990       3.888253       0.01741
   0    1013.0        6.2072        0.0500        9.7663        9.8162       3.609081       0.01938



 Wavenumbers:  8050. - 12850. cm-1, ATM      1
 LEVEL PRESSURE   UPWARD FLUX   DIFDOWN FLUX  DIRDOWN FLUX  DOWNWARD FLUX   NET FLUX    HEATING RATE
          mb          W/m2          W/m2          W/m2        W/m2          W/m2       degree/day
  51    .06700      103.2019        0.0000      156.5418      156.5418      53.339895       0.00000
  50    .07753      103.2018        0.0000      156.5417      156.5417      53.339895       0.00000
  49    .09103      103.2018        0.0001      156.5417      156.5417      53.339895      -0.00000
  48    0.1069      103.2018        0.0001      156.5416      156.5417      53.339895      -0.00000
  47    0.1255      103.2018        0.0002      156.5415      156.5417      53.339895       0.00000
  46    0.1487      103.2018        0.0002      156.5414      156.5417      53.339895       0.00000
  45    0.1794      103.2017        0.0003      156.5413      156.5416      53.339895       0.00000
  44    0.2165      103.2017        0.0004      156.5412      156.5416      53.339895       0.00000
  43    0.2613      103.2017        0.0006      156.5410      156.5415      53.339895       0.00000
  42    0.3336      103.2016        0.0008      156.5407      156.5415      53.339895      -0.00000
  41    0.4307      103.2015        0.0011      156.5403      156.5414      53.339895      -0.00000
  40    0.5894      103.2013        0.0015      156.5397      156.5412      53.339895      -0.00000
  39     1.339      103.2005        0.0037      156.5367      156.5404      53.339895       0.00000
  38     1.782      103.2001        0.0050      156.5350      156.5400      53.339895      -0.00000
  37     2.292      103.1996        0.0065      156.5330      156.5395      53.339895       0.00000
  36     2.964      103.1989        0.0084      156.5303      156.5388      53.339895       0.00000
  35     3.853      103.1980        0.0110      156.5268      156.5379      53.339895      -0.00000
  34     5.035      103.1967        0.0144      156.5222      156.5366      53.339895       0.00000
  33     6.613      103.1951        0.0190      156.5160      156.5350      53.339895      -0.00000
  32     8.786      103.1929        0.0252      156.5076      156.5328      53.339895       0.00000
  31     11.80      103.1898        0.0340      156.4957      156.5297      53.339895      -0.00000
  30     15.07      103.1864        0.0435      156.4828      156.5263      53.339895       0.00000
  29     18.79      103.1826        0.0543      156.4682      156.5225      53.339895       0.00000
  28     23.16      103.1782        0.0669      156.4512      156.5181      53.339895      -0.00000
  27     28.12      103.1731        0.0812      156.4317      156.5129      53.339895       0.00000
  26     33.73      103.1673        0.0974      156.4099      156.5072      53.339895      -0.00000
  25     40.54      103.1604        0.1169      156.3834      156.5003      53.339895       0.00000
  24     48.69      103.1521        0.1404      156.3515      156.4920      53.339895      -0.00000
  23     57.69      103.1429        0.1663      156.3164      156.4828      53.339895       0.00000
  22     68.43      103.1319        0.1972      156.2746      156.4718      53.339895       0.00000
  21     81.20      103.1188        0.2341      156.2246      156.4587      53.339895       0.00000
  20     96.49      103.1032        0.2782      156.1649      156.4431      53.339895      -0.00000
  19     114.6      103.0847        0.3305      156.0913      156.4219      53.337146       0.00128
  18     136.5      103.0627        0.3927      156.0037      156.3965      53.333727       0.00131
  17     162.9      103.0365        0.4670      155.8976      156.3646      53.328039       0.00182
  16     196.4      103.0025        0.5636      155.7523      156.3159      53.313364       0.00369
  15     218.7      102.9803        0.6271      155.6387      156.2658      53.285535       0.01057
  14     243.0      102.9566        0.6963      155.4780      156.1742      53.217652       0.02354
  13     269.0      102.9319        0.7712      155.2334      156.0046      53.072725       0.04701
  12     297.5      102.9073        0.8522      154.8702      155.7224      52.815125       0.07640
  11     328.5      102.8833        0.9396      154.4102      155.3498      52.466511       0.09479
  10     361.9      102.8614        1.0336      153.8581      154.8917      52.030347       0.11035
   9     398.1      102.8437        1.1347      153.1963      154.3310      51.487312       0.12651
   8     437.6      102.8344        1.2429      152.3785      153.6215      50.787101       0.14971
   7     480.5      102.8380        1.3583      151.3643      152.7226      49.884624       0.17724
   6     533.0      102.8682        1.4992      149.8997      151.3989      48.530703       0.21780
   5     589.8      102.9475        1.6487      148.0052      149.6539      46.706350       0.27079
   4     651.6      103.1302        1.8051      145.4144      147.2195      44.089352       0.35788
   3     718.7      103.4855        1.9668      142.0893      144.0562      40.570686       0.44220
   2     792.3      104.1626        2.1310      137.9362      140.0672      35.904575       0.53515
   1     891.5      105.8513        2.3380      131.7555      134.0935      28.242206       0.65203
   0    1013.0      109.8305        2.5669      124.1641      126.7310      16.900499       0.78751



 Wavenumbers: 12850. - 16000. cm-1, ATM      1
 LEVEL PRESSURE   UPWARD FLUX   DIFDOWN FLUX  DIRDOWN FLUX  DOWNWARD FLUX   NET FLUX    HEATING RATE
          mb          W/m2          W/m2          W/m2        W/m2          W/m2       degree/day
  51    .06700       82.4491        0.0000       98.0872       98.0872      15.638163       0.00000
  50    .07753       82.4491        0.0001       98.0864       98.0864      15.637370       0.63577
  49    .09103       82.4491        0.0002       98.0853       98.0855      15.636373       0.62287
  48    0.1069       82.4491        0.0003       98.0841       98.0843      15.635228       0.60975
  47    0.1255       82.4491        0.0004       98.0826       98.0830      15.633911       0.59695
  46    0.1487       82.4491        0.0005       98.0809       98.0814      15.632248       0.60609
  45    0.1794       82.4492        0.0007       98.0784       98.0792      15.629985       0.62132
  44    0.2165       82.4493        0.0010       98.0756       98.0766      15.627321       0.60606
  43    0.2613       82.4494        0.0013       98.0723       98.0736      15.624185       0.59105
  42    0.3336       82.4497        0.0017       98.0670       98.0688      15.619062       0.59728
  41    0.4307       82.4501        0.0024       98.0602       98.0626      15.612430       0.57667
  40    0.5894       82.4510        0.0034       98.0496       98.0530      15.601961       0.55673
  39     1.339       82.4584        0.0083       98.0043       98.0127      15.554235       0.53731
  38     1.782       82.4651        0.0112       97.9793       97.9905      15.525395       0.54906
  37     2.292       82.4749        0.0145       97.9498       97.9643      15.489348       0.59704
  36     2.964       82.4912        0.0189       97.9088       97.9277      15.436479       0.66367
  35     3.853       82.5174        0.0246       97.8503       97.8750      15.357599       0.74858
  34     5.035       82.5567        0.0323       97.7680       97.8003      15.243548       0.81473
  33     6.613       82.6116        0.0425       97.6562       97.6987      15.087047       0.83666
  32     8.786       82.6832        0.0562       97.5107       97.5669      14.883755       0.78951
  31     11.80       82.7764        0.0759       97.3179       97.3938      14.617370       0.74579
  30     15.07       82.8659        0.0970       97.1283       97.2253      14.359437       0.66593
  29     18.79       82.9574        0.1208       96.9300       97.0508      14.093383       0.60323
  28     23.16       83.0533        0.1485       96.7166       96.8651      13.811783       0.54452
  27     28.12       83.1502        0.1803       96.4935       96.6738      13.523607       0.48988
  26     33.73       83.2401        0.2158       96.2731       96.4889      13.248756       0.41325
  25     40.54       83.3276        0.2587       96.0408       96.2995      12.971948       0.34341
  24     48.69       83.4123        0.3105       95.7946       96.1051      12.692795       0.28888
  23     57.69       83.4853        0.3674       95.5573       95.9247      12.439347       0.23757
  22     68.43       83.5506        0.4351       95.3106       95.7458      12.195172       0.19195
  21     81.20       83.5986        0.5160       95.0644       95.5804      11.981730       0.14104
  20     96.49       83.6284        0.6125       94.8153       95.4278      11.799392       0.10064
  19     114.6       83.6616        0.7281       94.5411       95.2693      11.607681       0.08952
  18     136.5       83.6892        0.8652       94.2322       95.0974      11.408212       0.07670
  17     162.9       83.7113        1.0285       93.8757       94.9042      11.192902       0.06882
  16     196.4       83.7170        1.2402       93.4353       94.6755      10.958483       0.05901
  15     218.7       83.7126        1.3793       93.1525       94.5318      10.819192       0.05288
  14     243.0       83.7042        1.5305       92.8466       94.3771      10.672829       0.05076
  13     269.0       83.6917        1.6943       92.5170       94.2113      10.519614       0.04970
  12     297.5       83.6753        1.8713       92.1620       94.0333      10.358016       0.04793
  11     328.5       83.6569        2.0626       91.7782       93.8408      10.183881       0.04735
  10     361.9       83.6370        2.2685       91.3642       93.6328       9.995716       0.04761
   9     398.1       83.6165        2.4902       90.9178       93.4080       9.791460       0.04759
   8     437.6       83.5972        2.7282       90.4346       93.1628       9.565558       0.04830
   7     480.5       83.5806        2.9833       89.9114       92.8947       9.314077       0.04939
   6     533.0       83.5687        3.2973       89.2558       92.5530       8.984314       0.05305
   5     589.8       83.5719        3.6353       88.5268       92.1621       8.590210       0.05850
   4     651.6       83.6074        3.9977       87.6952       91.6929       8.085491       0.06902
   3     718.7       83.6959        4.3850       86.7376       91.1227       7.426749       0.08279
   2     792.3       83.8807        4.7955       85.6128       90.4083       6.527558       0.10313
   1     891.5       84.3197        5.3393       83.9448       89.2841       4.964419       0.13302
   0    1013.0       85.2078        5.9755       81.7910       87.7665       2.558749       0.16704



 Wavenumbers: 16000. - 22650. cm-1, ATM      1
 LEVEL PRESSURE   UPWARD FLUX   DIFDOWN FLUX  DIRDOWN FLUX  DOWNWARD FLUX   NET FLUX    HEATING RATE
          mb          W/m2          W/m2          W/m2        W/m2          W/m2       degree/day
  51    .06700      141.2757        0.0000      156.3892      156.3892      15.113512       0.00000
  50    .07753      141.2757        0.0004      156.3887      156.3891      15.113364       0.11863
  49    .09103      141.2757        0.0009      156.3879      156.3888      15.113149       0.13456
  48    0.1069      141.2757        0.0015      156.3871      156.3885      15.112861       0.15344
  47    0.1255      141.2757        0.0021      156.3861      156.3882      15.112475       0.17490
  46    0.1487      141.2758        0.0030      156.3847      156.3877      15.111906       0.20725
  45    0.1794      141.2759        0.0041      156.3828      156.3869      15.111017       0.24403
  44    0.2165      141.2761        0.0054      156.3805      156.3859      15.109812       0.27426
  43    0.2613      141.2765        0.0070      156.3776      156.3846      15.108176       0.30833
  42    0.3336      141.2772        0.0097      156.3726      156.3823      15.105066       0.36259
  41    0.4307      141.2785        0.0132      156.3657      156.3789      15.100378       0.40759
  40    0.5894      141.2811        0.0189      156.3537      156.3725      15.091438       0.47544
  39     1.339      141.3039        0.0459      156.2834      156.3293      15.025385       0.74364
  38     1.782      141.3249        0.0617      156.2324      156.2941      14.969115       1.07128
  37     2.292      141.3565        0.0801      156.1641      156.2442      14.887665       1.34903
  36     2.964      141.4089        0.1041      156.0605      156.1646      14.755714       1.65638
  35     3.853      141.4937        0.1359      155.9041      156.0400      14.546339       1.98701
  34     5.035      141.6215        0.1781      155.6774      155.8555      14.233966       2.23146
  33     6.613      141.8002        0.2344      155.3656      155.6000      13.799854       2.32076
  32     8.786      142.0328        0.3102      154.9577      155.2678      13.234971       2.19380
  31     11.80      142.3357        0.4184      154.4153      154.8336      12.497933       2.06347
  30     15.07      142.6259        0.5344      153.8804      154.4148      11.788915       1.83055
  29     18.79      142.9221        0.6653      153.3191      153.9844      11.062225       1.64763
  28     23.16      143.2318        0.8179      152.7126      153.5305      10.298649       1.47651
  27     28.12      143.5434        0.9922      152.0755      153.0677       9.524240       1.31644
  26     33.73      143.8311        1.1870      151.4409      152.6279       8.796825       1.09369
  25     40.54      144.1080        1.4222      150.7637      152.1859       8.077865       0.89195
  24     48.69      144.3732        1.7055      150.0338      151.7393       7.366070       0.73660
  23     57.69      144.5982        2.0162      149.3151      151.3314       6.733201       0.59322
  22     68.43      144.7945        2.3860      148.5476      150.9336       6.139094       0.46705
  21     81.20      144.9302        2.8262      147.7517      150.5779       5.647621       0.32476
  20     96.49      145.0009        3.3502      146.9127      150.2629       5.261933       0.21287
  19     114.6      145.0378        3.9706      145.9763      149.9469       4.909137       0.16473
  18     136.5      145.0499        4.7032      144.9088      149.6120       4.562078       0.13345
  17     162.9      145.0357        5.5715      143.6786      149.2501       4.214433       0.11112
  16     196.4      144.9552        6.6919      142.1651      148.8570       3.901809       0.07869
  15     218.7      144.8796        7.4240      141.2035      148.6275       3.747897       0.05843
  14     243.0      144.7870        8.2164      140.1758      148.3922       3.605157       0.04951
  13     269.0      144.6757        9.0713      139.0807      148.1519       3.476215       0.04183
  12     297.5      144.5449        9.9906      137.9161      147.9067       3.361769       0.03394
  11     328.5      144.3987       10.9787      136.6714      147.6500       3.251280       0.03004
  10     361.9      144.2367       12.0364      135.3455      147.3819       3.145192       0.02684
   9     398.1      144.0583       13.1679      133.9335      147.1014       3.043115       0.02378
   8     437.6      143.8641       14.3751      132.4316      146.8067       2.942688       0.02147
   7     480.5      143.6534       15.6601      130.8377      146.4978       2.844415       0.01930
   6     533.0      143.3925       17.2296      128.8953      146.1248       2.732304       0.01804
   5     589.8      143.1125       18.9063      126.8217      145.7279       2.615467       0.01734
   4     651.6      142.8165       20.6918      124.6105      145.3023       2.485787       0.01773
   3     718.7      142.5076       22.5878      122.2560      144.8438       2.336248       0.01879
   2     792.3      142.1938       24.5926      119.7514      144.3440       2.150246       0.02133
   1     891.5      141.8104       27.2553      116.3884      143.6437       1.833294       0.02697
   0    1013.0      141.4144       30.3864      112.3818      142.7683       1.353887       0.03329



 Wavenumbers: 22650. - 29000. cm-1, ATM      1
 LEVEL PRESSURE   UPWARD FLUX   DIFDOWN FLUX  DIRDOWN FLUX  DOWNWARD FLUX   NET FLUX    HEATING RATE
          mb          W/m2          W/m2          W/m2        W/m2          W/m2       degree/day
  51    .06700       58.6820        0.0000       59.0156       59.0156       0.333638       0.00000
  50    .07753       58.6819        0.0005       59.0151       59.0155       0.333638       0.00000
  49    .09103       58.6818        0.0010       59.0144       59.0154       0.333638       0.00000
  48    0.1069       58.6816        0.0017       59.0136       59.0153       0.333638      -0.00000
  47    0.1255       58.6815        0.0025       59.0127       59.0151       0.333638       0.00000
  46    0.1487       58.6813        0.0035       59.0115       59.0149       0.333638      -0.00000
  45    0.1794       58.6811        0.0048       59.0099       59.0147       0.333638       0.00000
  44    0.2165       58.6807        0.0063       59.0080       59.0144       0.333638       0.00000
  43    0.2613       58.6804        0.0082       59.0058       59.0140       0.333638       0.00000
  42    0.3336       58.6798        0.0113       59.0022       59.0134       0.333638      -0.00000
  41    0.4307       58.6790        0.0154       58.9973       59.0127       0.333638      -0.00000
  40    0.5894       58.6777        0.0220       58.9894       59.0114       0.333638       0.00000
  39     1.339       58.6717        0.0535       58.9518       59.0053       0.333638       0.00000
  38     1.782       58.6681        0.0720       58.9297       59.0017       0.333638       0.00000
  37     2.292       58.6640        0.0934       58.9042       58.9976       0.333638      -0.00000
  36     2.964       58.6586        0.1216       58.8706       58.9922       0.333638       0.00000
  35     3.853       58.6514        0.1587       58.8264       58.9851       0.333638      -0.00000
  34     5.035       58.6419        0.2080       58.7676       58.9756       0.333638       0.00000
  33     6.613       58.6293        0.2738       58.6891       58.9629       0.333638       0.00000
  32     8.786       58.6122        0.3624       58.5834       58.9458       0.333638       0.00000
  31     11.80       58.5878        0.4890       58.4324       58.9215       0.333638      -0.00000
  30     15.07       58.5617        0.6247       58.2706       58.8953       0.333638       0.00000
  29     18.79       58.5322        0.7776       58.0882       58.8659       0.333638       0.00000
  28     23.16       58.4979        0.9559       57.8757       58.8316       0.333638       0.00000
  27     28.12       58.4588        1.1591       57.6333       58.7924       0.333638       0.00000
  26     33.73       58.4151        1.3857       57.3631       58.7488       0.333638       0.00000
  25     40.54       58.3626        1.6584       57.0379       58.6963       0.333638      -0.00000
  24     48.69       58.2996        1.9854       56.6479       58.6333       0.333638       0.00000
  23     57.69       58.2309        2.3424       56.2221       58.5645       0.333638       0.00000
  22     68.43       58.1495        2.7646       55.7186       58.4832       0.333638       0.00000
  21     81.20       58.0534        3.2632       55.1239       58.3871       0.333638      -0.00000
  20     96.49       57.9401        3.8510       54.4228       58.2738       0.333638       0.00000
  19     114.6       57.8073        4.5400       53.6010       58.1410       0.333638      -0.00000
  18     136.5       57.6522        5.3441       52.6418       57.9859       0.333638       0.00000
  17     162.9       57.4709        6.2842       51.5204       57.8045       0.333638      -0.00000
  16     196.4       57.2410        7.4752       50.0995       57.5747       0.333638      -0.00000
  15     218.7       57.0933        8.2406       49.1863       57.4269       0.333638       0.00000
  14     243.0       56.9354        9.0577       48.2113       57.2691       0.333638      -0.00000
  13     269.0       56.7676        9.9262       47.1751       57.1013       0.333638       0.00000
  12     297.5       56.5900       10.8451       46.0786       56.9236       0.333638      -0.00000
  11     328.5       56.4022       11.8158       44.9201       56.7359       0.333638       0.00000
  10     361.9       56.2049       12.8358       43.7027       56.5385       0.333638      -0.00000
   9     398.1       55.9978       13.9051       42.4263       56.3314       0.333638       0.00000
   8     437.6       55.7815       15.0215       41.0936       56.1151       0.333638       0.00000
   7     480.5       55.5563       16.1826       39.7074       55.8900       0.333638      -0.00000
   6     533.0       55.2883       17.5636       38.0584       55.6220       0.333638       0.00000
   5     589.8       55.0105       18.9937       36.3504       55.3441       0.333638       0.00000
   4     651.6       54.7239       20.4668       34.5907       55.0575       0.333638      -0.00000
   3     718.7       54.4295       21.9779       32.7853       54.7631       0.333638      -0.00000
   2     792.3       54.1296       23.5149       30.9483       54.4632       0.333638       0.00000
   1     891.5       53.7478       25.4672       28.6142       54.0815       0.333638       0.00000
   0    1013.0       53.3222       27.6377       26.0181       53.6558       0.333638       0.00000



 Wavenumbers: 29000. - 38000. cm-1, ATM      1
 LEVEL PRESSURE   UPWARD FLUX   DIFDOWN FLUX  DIRDOWN FLUX  DOWNWARD FLUX   NET FLUX    HEATING RATE
          mb          W/m2          W/m2          W/m2        W/m2          W/m2       degree/day
  51    .06700        8.7676        0.0000       20.8114       20.8114      12.043755       0.00000
  50    .07753        8.7674        0.0003       20.8070       20.8074      12.039948       3.05155
  49    .09103        8.7672        0.0007       20.8009       20.8016      12.034411       3.46085
  48    0.1069        8.7669        0.0012       20.7928       20.7939      12.027001       3.94429
  47    0.1255        8.7667        0.0017       20.7820       20.7837      12.017096       4.49034
  46    0.1487        8.7663        0.0024       20.7665       20.7688      12.002533       5.30844
  45    0.1794        8.7658        0.0033       20.7424       20.7457      11.979868       6.22204
  44    0.2165        8.7653        0.0044       20.7103       20.7147      11.949345       6.94340
  43    0.2613        8.7648        0.0056       20.6675       20.6731      11.908351       7.72732
  42    0.3336        8.7639        0.0077       20.5880       20.5957      11.831790       8.92625
  41    0.4307        8.7628        0.0104       20.4722       20.4826      11.719837       9.73402
  40    0.5894        8.7612        0.0147       20.2637       20.2784      11.517154      10.77846
  39     1.339        8.7578        0.0331       19.0984       19.1315      10.373676      12.87348
  38     1.782        8.7583        0.0427       18.4394       18.4821       9.723752      12.37351
  37     2.292        8.7610        0.0530       17.7714       17.8244       9.063407      10.93703
  36     2.964        8.7676        0.0657       17.0421       17.1078       8.340283       9.07739
  35     3.853        8.7804        0.0816       16.2679       16.3495       7.569105       7.31863
  34     5.035        8.8015        0.1018       15.4803       15.5821       6.780611       5.63267
  33     6.613        8.8322        0.1276       14.7157       14.8433       6.011029       4.11419
  32     8.786        8.8729        0.1614       13.9936       14.1549       5.282083       2.83096
  31     11.80        8.9259        0.2084       13.2835       13.4920       4.566123       2.00446
  30     15.07        8.9770        0.2573       12.7394       12.9966       4.019653       1.41088
  29     18.79        9.0298        0.3114       12.2666       12.5780       3.548210       1.06891
  28     23.16        9.0858        0.3729       11.8300       12.2029       3.117074       0.83368
  27     28.12        9.1433        0.4418       11.4279       11.8697       2.726382       0.66415
  26     33.73        9.1964        0.5178       11.0695       11.5872       2.390877       0.50444
  25     40.54        9.2467        0.6085       10.7209       11.3294       2.082709       0.38232
  24     48.69        9.2942        0.7162       10.3742       11.0904       1.796150       0.29654
  23     57.69        9.3333        0.8328       10.0549       10.8877       1.554387       0.22662
  22     68.43        9.3649        0.9695        9.7327       10.7022       1.337345       0.17062
  21     81.20        9.3801        1.1309        9.4134       10.5443       1.164274       0.11436
  20     96.49        9.3769        1.3207        9.0887       10.4095       1.032525       0.07272
  19     114.6        9.3635        1.5400        8.7388       10.2788       0.915251       0.05476
  18     136.5        9.3429        1.7907        8.3549       10.1456       0.802722       0.04327
  17     162.9        9.3151        2.0765        7.9311       10.0076       0.692542       0.03522
  16     196.4        9.2683        2.4305        7.4333        9.8638       0.595560       0.02441
  15     218.7        9.2345        2.6532        7.1296        9.7828       0.548259       0.01796
  14     243.0        9.1975        2.8860        6.8161        9.7021       0.504581       0.01515
  13     269.0        9.1571        3.1280        6.4944        9.6224       0.465360       0.01272
  12     297.5        9.1133        3.3782        6.1658        9.5441       0.430786       0.01025
  11     328.5        9.0676        3.6357        5.8296        9.4652       0.397682       0.00900
  10     361.9        9.0204        3.8978        5.4888        9.3866       0.366198       0.00797
   9     398.1        8.9719        4.1640        5.1442        9.3082       0.336361       0.00695
   8     437.6        8.9226        4.4330        4.7972        9.2302       0.307600       0.00615
   7     480.5        8.8728        4.7025        4.4506        9.1531       0.280295       0.00536
   6     533.0        8.8158        5.0093        4.0570        9.0663       0.250535       0.00479
   5     589.8        8.7598        5.3113        3.6702        8.9815       0.221718       0.00428
   4     651.6        8.7054        5.6062        3.2927        8.8989       0.193519       0.00386
   3     718.7        8.6534        5.8910        2.9283        8.8193       0.165898       0.00347
   2     792.3        8.6045        6.1629        2.5805        8.7434       0.138860       0.00310
   1     891.5        8.5486        6.4822        2.1719        8.6541       0.105472       0.00284
   0    1013.0        8.4953        6.8028        1.7611        8.5640       0.068615       0.00256



 Wavenumbers: 38000. - 50000. cm-1, ATM      1
 LEVEL PRESSURE   UPWARD FLUX   DIFDOWN FLUX  DIRDOWN FLUX  DOWNWARD FLUX   NET FLUX    HEATING RATE
          mb          W/m2          W/m2          W/m2        W/m2          W/m2       degree/day
  51    .06700        0.0061        0.0000        1.2836        1.2836       1.277518       0.00000
  50    .07753        0.0061        0.0001        1.2812        1.2812       1.275183       1.87150
  49    .09103        0.0060        0.0002        1.2777        1.2778       1.271851       2.08247
  48    0.1069        0.0059        0.0002        1.2731        1.2734       1.267473       2.33059
  47    0.1255        0.0058        0.0004        1.2672        1.2675       1.261717       2.60908
  46    0.1487        0.0057        0.0005        1.2586        1.2591       1.253391       3.03499
  45    0.1794        0.0055        0.0007        1.2455        1.2462       1.240623       3.50520
  44    0.2165        0.0054        0.0009        1.2282        1.2291       1.223697       3.85037
  43    0.2613        0.0052        0.0011        1.2054        1.2065       1.201348       4.21261
  42    0.3336        0.0049        0.0015        1.1639        1.1654       1.160524       4.75970
  41    0.4307        0.0045        0.0020        1.1051        1.1070       1.102565       5.03943
  40    0.5894        0.0039        0.0026        1.0039        1.0064       1.002524       5.32007
  39     1.339        0.0022        0.0035        0.5438        0.5473       0.545105       5.14971
  38     1.782        0.0016        0.0032        0.3635        0.3666       0.365006       3.42879
  37     2.292        0.0012        0.0027        0.2356        0.2383       0.237058       2.11916
  36     2.964        0.0009        0.0022        0.1455        0.1477       0.146786       1.13318
  35     3.853        0.0006        0.0017        0.0858        0.0875       0.086906       0.56828
  34     5.035        0.0004        0.0013        0.0488        0.0501       0.049701       0.26578
  33     6.613        0.0003        0.0010        0.0273        0.0282       0.027974       0.11615
  32     8.786        0.0002        0.0007        0.0144        0.0151       0.014928       0.05067
  31     11.80        0.0001        0.0004        0.0065        0.0070       0.006903       0.02247
  30     15.07        0.0000        0.0003        0.0031        0.0034       0.003329       0.00923
  29     18.79        0.0000        0.0002        0.0014        0.0016       0.001583       0.00396
  28     23.16        0.0000        0.0001        0.0006        0.0007       0.000720       0.00167
  27     28.12        0.0000        0.0001        0.0003        0.0003       0.000317       0.00069
  26     33.73        0.0000        0.0000        0.0001        0.0001       0.000140       0.00027
  25     40.54        0.0000        0.0000        0.0000        0.0001       0.000057       0.00010
  24     48.69        0.0000        0.0000        0.0000        0.0000       0.000021       0.00004
  23     57.69        0.0000        0.0000        0.0000        0.0000       0.000008       0.00001
  22     68.43        0.0000        0.0000        0.0000        0.0000       0.000003       0.00000
  21     81.20        0.0000        0.0000        0.0000        0.0000       0.000001       0.00000
  20     96.49        0.0000        0.0000        0.0000        0.0000       0.000000       0.00000
  19     114.6        0.0000        0.0000        0.0000        0.0000       0.000000       0.00000
  18     136.5        0.0000        0.0000        0.0000        0.0000       0.000000       0.00000
  17     162.9        0.0000        0.0000        0.0000        0.0000       0.000000       0.00000
  16     196.4        0.0000        0.0000        0.0000        0.0000       0.000000       0.00000
  15     218.7        0.0000        0.0000        0.0000        0.0000       0.000000       0.00000
  14     243.0        0.0000        0.0000        0.0000        0.0000       0.000000       0.00000
  13     269.0        0.0000        0.0000        0.0000        0.0000       0.000000       0.00000
  12     297.5        0.0000        0.0000        0.0000        0.0000       0.000000       0.00000
  11     328.5        0.0000        0.0000        0.0000        0.0000       0.000000       0.00000
  10     361.9        0.0000        0.0000        0.0000        0.0000       0.000000       0.00000
   9     398.1        0.0000        0.0000        0.0000        0.0000       0.000000       0.00000
   8     437.6        0.0000        0.0000        0.0000        0.0000       0.000000       0.00000
   7     480.5        0.0000        0.0000        0.0000        0.0000       0.000000       0.00000
   6     533.0        0.0000        0.0000        0.0000        0.0000       0.000000       0.00000
   5     589.8        0.0000        0.0000        0.0000        0.0000       0.000000       0.00000
   4     651.6        0.0000        0.0000        0.0000        0.0000       0.000000       0.00000
   3     718.7        0.0000        0.0000        0.0000        0.0000       0.000000       0.00000
   2     792.3        0.0000        0.0000        0.0000        0.0000       0.000000       0.00000
   1     891.5        0.0000        0.0000        0.0000        0.0000       0.000000       0.00000
   0    1013.0        0.0000        0.0000        0.0000        0.0000       0.000000       0.00000



 Wavenumbers:   820. -  2600. cm-1, ATM      1
 LEVEL PRESSURE   UPWARD FLUX   DIFDOWN FLUX  DIRDOWN FLUX  DOWNWARD FLUX   NET FLUX    HEATING RATE
          mb          W/m2          W/m2          W/m2        W/m2          W/m2       degree/day
  51    .06700        0.0208        0.0000        6.0047        6.0047       5.983828       0.00000
  50    .07753        0.0208        0.0000        6.0008        6.0008       5.980016       3.05515
  49    .09103        0.0208        0.0000        6.0000        6.0000       5.979184       0.51999
  48    0.1069        0.0208        0.0000        5.9991        5.9991       5.978259       0.49237
  47    0.1255        0.0208        0.0000        5.9980        5.9980       5.977219       0.47179
  46    0.1487        0.0208        0.0000        5.9968        5.9968       5.975962       0.45797
  45    0.1794        0.0208        0.0000        5.9952        5.9952       5.974385       0.43303
  44    0.2165        0.0208        0.0000        5.9935        5.9935       5.972717       0.37952
  43    0.2613        0.0208        0.0000        5.9918        5.9918       5.970970       0.32913
  42    0.3336        0.0208        0.0000        5.9893        5.9893       5.968456       0.29313
  41    0.4307        0.0208        0.0000        5.9863        5.9863       5.965481       0.25870
  40    0.5894        0.0208        0.0000        5.9816        5.9816       5.960801       0.24888
  39     1.339        0.0208        0.0000        5.9600        5.9600       5.939212       0.24305
  38     1.782        0.0208        0.0000        5.9481        5.9481       5.927251       0.22772
  37     2.292        0.0208        0.0000        5.9347        5.9347       5.913872       0.22159
  36     2.964        0.0208        0.0000        5.9178        5.9178       5.896946       0.21246
  35     3.853        0.0208        0.0000        5.8964        5.8964       5.875597       0.20261
  34     5.035        0.0208        0.0000        5.8696        5.8696       5.848744       0.19183
  33     6.613        0.0208        0.0000        5.8354        5.8354       5.814599       0.18254
  32     8.786        0.0208        0.0000        5.7911        5.7911       5.770321       0.17196
  31     11.80        0.0208        0.0000        5.7340        5.7340       5.713174       0.15999
  30     15.07        0.0208        0.0000        5.6845        5.6845       5.663683       0.12777
  29     18.79        0.0208        0.0000        5.6437        5.6437       5.622843       0.09260
  28     23.16        0.0208        0.0000        5.6116        5.6116       5.590814       0.06193
  27     28.12        0.0208        0.0000        5.5871        5.5871       5.566266       0.04173
  26     33.73        0.0208        0.0000        5.5663        5.5663       5.545503       0.03122
  25     40.54        0.0208        0.0000        5.5442        5.5442       5.523377       0.02745
  24     48.69        0.0208        0.0000        5.5184        5.5184       5.497615       0.02666
  23     57.69        0.0208        0.0000        5.4902        5.4902       5.469389       0.02646
  22     68.43        0.0208        0.0000        5.4566        5.4567       5.435834       0.02638
  21     81.20        0.0208        0.0000        5.4176        5.4176       5.396786       0.02580
  20     96.49        0.0208        0.0000        5.3721        5.3721       5.351280       0.02512
  19     114.6        0.0208        0.0000        5.3200        5.3200       5.299152       0.02434
  18     136.5        0.0208        0.0000        5.2610        5.2610       5.240232       0.02266
  17     162.9        0.0208        0.0000        5.1916        5.1917       5.170840       0.02218
  16     196.4        0.0208        0.0000        5.0959        5.0959       5.075097       0.02410
  15     218.7        0.0208        0.0000        5.0169        5.0169       4.996100       0.02999
  14     243.0        0.0208        0.0000        4.9046        4.9047       4.883836       0.03894
  13     269.0        0.0208        0.0000        4.7598        4.7598       4.739006       0.04698
  12     297.5        0.0208        0.0000        4.5943        4.5944       4.573515       0.04908
  11     328.5        0.0209        0.0000        4.4394        4.4395       4.418621       0.04212
  10     361.9        0.0209        0.0000        4.2746        4.2746       4.253724       0.04172
   9     398.1        0.0209        0.0000        4.0781        4.0781       4.057217       0.04578
   8     437.6        0.0209        0.0000        3.8470        3.8471       3.826141       0.04941
   7     480.5        0.0210        0.0000        3.6114        3.6114       3.590425       0.04629
   6     533.0        0.0210        0.0000        3.3784        3.3785       3.357422       0.03748
   5     589.8        0.0211        0.0000        3.2067        3.2068       3.185643       0.02550
   4     651.6        0.0213        0.0000        3.0655        3.0655       3.044255       0.01934
   3     718.7        0.0215        0.0000        2.9109        2.9109       2.889446       0.01946
   2     792.3        0.0219        0.0000        2.7213        2.7214       2.699520       0.02178
   1     891.5        0.0227        0.0000        2.4592        2.4592       2.436512       0.02238
   0    1013.0        0.0247        0.0000        2.1701        2.1701       2.145393       0.02021

  Modules and versions used in this calculation:

       rrtmg_sw.1col.f90:  $Revision$                    rrtmg_sw_init.f90:  $Revision$        
     rrtmgsw_cldprop.f90:  $Revision$                  rrtmgsw_cldprmc.f90:  NOT USED          
     rrtmg_sw_reftra.f90:  $Revision$                  rrtmg_sw_spcvrt.f90:  NOT USED          
     rrtmg_sw_spcvmc.f90:  NOT USED                    rrtmgsw_setcoef.f90:  NOT USED          
     rrtmg_sw_taumol.f90:  $Revision$                  rrtmg_sw_vrtqdr.f90:  NOT USED          
                rrtatm.f:  NOT USED                             util_xxx.f:  NOT USED          
                 extra.f:  NOT USED                       rrtmg_sw_k_g.f90:  $Revision$        

