

 Wavenumbers:   820. - 50000. cm-1, ATM      1
 LEVEL PRESSURE   UPWARD FLUX   DIFDOWN FLUX  DIRDOWN FLUX  DOWNWARD FLUX   NET FLUX    HEATING RATE
          mb          W/m2          W/m2          W/m2        W/m2          W/m2       degree/day
  51    .06700      390.0463        0.0000      617.8126      617.8126     227.766275       0.00000
  50    .07753      390.0459        0.0013      617.7947      617.7960     227.750077      12.98278
  49    .09103      390.0455        0.0030      617.7776      617.7807     227.735204       9.29585
  48    0.1069      390.0450        0.0050      617.7579      617.7629     227.717870       9.22692
  47    0.1255      390.0445        0.0072      617.7337      617.7409     227.696444       9.71373
  46    0.1487      390.0439        0.0100      617.7005      617.7105     227.666659      10.85678
  45    0.1794      390.0432        0.0139      617.6516      617.6655     227.622296      12.17893
  44    0.2165      390.0424        0.0184      617.5888      617.6072     227.564821      13.07448
  43    0.2613      390.0417        0.0238      617.5080      617.5318     227.490126      14.07975
  42    0.3336      390.0408        0.0326      617.3629      617.3955     227.354730      15.78582
  41    0.4307      390.0400        0.0443      617.1575      617.2017     227.161701      16.78342
  40    0.5894      390.0398        0.0630      616.7981      616.8611     226.821343      18.09979
  39     1.339      390.0566        0.1479      614.9388      615.0867     225.030100      20.16614
  38     1.782      390.0790        0.1956      613.9600      614.1556     224.076623      18.15266
  37     2.292      390.1162        0.2499      612.9971      613.2471     223.130844      15.66457
  36     2.964      390.1823        0.3206      611.9468      612.2674     222.085137      13.12678
  35     3.853      390.2933        0.4132      610.7891      611.2022     220.908938      11.16235
  34     5.035      390.4642        0.5354      609.5163      610.0517     219.587494       9.43985
  33     6.613      390.7050        0.6976      608.1264      608.8239     218.118910       7.85105
  32     8.786      391.0186        0.9152      606.6006      607.5158     216.497179       6.29822
  31     11.80      391.4246        1.2250      604.8194      606.0444     214.619813       5.25604
  30     15.07      391.8107        1.5556      603.2104      604.7660     212.955259       4.29755
  29     18.79      392.2024        1.9275      601.6133      603.5408     211.338383       3.66595
  28     23.16      392.6088        2.3598      599.9503      602.3101     209.701268       3.16565
  27     28.12      393.0136        2.8517      598.2410      601.0927     208.079177       2.75745
  26     33.73      393.3788        3.4002      596.5434      599.9436     206.564764       2.27696
  25     40.54      393.7179        4.0605      594.7162      598.7767     205.058802       1.86832
  24     48.69      394.0277        4.8528      592.7251      597.5780     203.550323       1.56104
  23     57.69      394.2718        5.7190      590.7296      596.4486     202.176799       1.28747
  22     68.43      394.4583        6.7451      588.5477      595.2927     200.834465       1.05525
  21     81.20      394.5355        7.9616      586.1922      594.1538     199.618315       0.80361
  20     96.49      394.4930        9.4020      583.6131      593.0151     198.522154       0.60500
  19     114.6      394.3914       11.0968      580.6786      591.7753     197.383906       0.53148
  18     136.5      394.2259       13.0812      577.3331      590.4144     196.188408       0.45970
  17     162.9      393.9902       15.4101      573.4424      588.8525     194.862311       0.42387
  16     196.4      393.5954       18.3801      568.4276      586.8076     193.212192       0.41535
  15     218.7      393.3062       20.3003      564.8356      585.1359     191.829692       0.52488
  14     243.0      392.9814       22.3599      560.4022      582.7621     189.780734       0.71065
  13     269.0      392.6198       24.5603      554.8523      579.4127     186.792867       0.96925
  12     297.5      392.2231       26.9022      548.2437      575.1459     182.922758       1.14783
  11     328.5      391.7992       29.3920      541.1310      570.5229     178.723713       1.14171
  10     361.9      391.3514       32.0259      533.4185      565.4443     174.092980       1.17162
   9     398.1      390.8834       34.8084      524.9458      559.7543     168.870876       1.21663
   8     437.6      390.4050       37.7383      515.6643      553.4026     162.997594       1.25574
   7     480.5      389.9249       40.8137      505.7593      546.5729     156.648009       1.24703
   6     533.0      389.3942       44.5113      493.6627      538.1739     148.779666       1.26577
   5     589.8      388.9284       48.3912      480.5633      528.9545     140.026107       1.29932
   4     651.6      388.6304       52.4414      465.8986      518.3401     129.709674       1.41080
   3     718.7      388.6181       56.6527      450.1443      506.7969     118.178822       1.44911
   2     792.3      389.1694       61.0046      433.0196      494.0242     104.854831       1.52811
   1     891.5      391.3426       66.6247      409.9158      476.5405      85.197936       1.67271
   0    1013.0      397.4548       73.0218      383.9395      456.9613      59.506438       1.78389



 Wavenumbers:  2600. -  3250. cm-1, ATM      1
 LEVEL PRESSURE   UPWARD FLUX   DIFDOWN FLUX  DIRDOWN FLUX  DOWNWARD FLUX   NET FLUX    HEATING RATE
          mb          W/m2          W/m2          W/m2        W/m2          W/m2       degree/day
  51    .06700        0.0226        0.0000        5.4450        5.4450       5.422418       0.00000
  50    .07753        0.0226        0.0000        5.4450        5.4450       5.422410       0.00640
  49    .09103        0.0226        0.0000        5.4450        5.4450       5.422400       0.00627
  48    0.1069        0.0226        0.0000        5.4450        5.4450       5.422388       0.00613
  47    0.1255        0.0226        0.0000        5.4450        5.4450       5.422375       0.00599
  46    0.1487        0.0226        0.0000        5.4450        5.4450       5.422358       0.00608
  45    0.1794        0.0226        0.0000        5.4450        5.4450       5.422335       0.00625
  44    0.2165        0.0226        0.0000        5.4449        5.4449       5.422309       0.00612
  43    0.2613        0.0226        0.0000        5.4449        5.4449       5.422277       0.00600
  42    0.3336        0.0226        0.0000        5.4448        5.4448       5.422224       0.00617
  41    0.4307        0.0226        0.0000        5.4448        5.4448       5.422153       0.00620
  40    0.5894        0.0226        0.0000        5.4446        5.4446       5.422033       0.00637
  39     1.339        0.0226        0.0000        5.4439        5.4439       5.421325       0.00797
  38     1.782        0.0226        0.0000        5.4434        5.4434       5.420782       0.01034
  37     2.292        0.0226        0.0000        5.4427        5.4427       5.420066       0.01186
  36     2.964        0.0226        0.0000        5.4416        5.4416       5.419028       0.01304
  35     3.853        0.0226        0.0000        5.4402        5.4402       5.417550       0.01402
  34     5.035        0.0226        0.0000        5.4381        5.4381       5.415495       0.01468
  33     6.613        0.0226        0.0000        5.4353        5.4353       5.412714       0.01487
  32     8.786        0.0226        0.0000        5.4317        5.4317       5.409082       0.01411
  31     11.80        0.0226        0.0000        5.4269        5.4269       5.404302       0.01338
  30     15.07        0.0226        0.0000        5.4224        5.4224       5.399776       0.01169
  29     18.79        0.0226        0.0000        5.4180        5.4180       5.395365       0.01000
  28     23.16        0.0226        0.0000        5.4135        5.4135       5.390879       0.00867
  27     28.12        0.0226        0.0000        5.4088        5.4088       5.386233       0.00790
  26     33.73        0.0226        0.0000        5.4036        5.4036       5.380994       0.00788
  25     40.54        0.0226        0.0000        5.3966        5.3967       5.374055       0.00861
  24     48.69        0.0226        0.0000        5.3872        5.3872       5.364582       0.00980
  23     57.69        0.0226        0.0000        5.3754        5.3754       5.352803       0.01104
  22     68.43        0.0226        0.0000        5.3599        5.3599       5.337322       0.01217
  21     81.20        0.0226        0.0000        5.3401        5.3401       5.317498       0.01310
  20     96.49        0.0226        0.0000        5.3155        5.3155       5.292946       0.01355
  19     114.6        0.0226        0.0000        5.2852        5.2852       5.262658       0.01414
  18     136.5        0.0226        0.0000        5.2502        5.2502       5.227673       0.01345
  17     162.9        0.0226        0.0001        5.2106        5.2107       5.188142       0.01264
  16     196.4        0.0226        0.0001        5.1632        5.1633       5.140707       0.01194
  15     218.7        0.0226        0.0001        5.1314        5.1315       5.108942       0.01206
  14     243.0        0.0226        0.0001        5.0932        5.0933       5.070712       0.01326
  13     269.0        0.0226        0.0001        5.0459        5.0460       5.023481       0.01532
  12     297.5        0.0226        0.0001        4.9873        4.9874       4.964817       0.01740
  11     328.5        0.0226        0.0001        4.9176        4.9178       4.895172       0.01894
  10     361.9        0.0226        0.0001        4.8319        4.8321       4.809455       0.02169
   9     398.1        0.0226        0.0001        4.7232        4.7233       4.700703       0.02534
   8     437.6        0.0227        0.0001        4.5834        4.5836       4.560891       0.02989
   7     480.5        0.0228        0.0001        4.4130        4.4131       4.390337       0.03350
   6     533.0        0.0229        0.0002        4.1837        4.1838       4.160925       0.03691
   5     589.8        0.0231        0.0002        3.9218        3.9219       3.898862       0.03890
   4     651.6        0.0234        0.0002        3.6298        3.6300       3.606631       0.03996
   3     718.7        0.0238        0.0002        3.3129        3.3130       3.289198       0.03989
   2     792.3        0.0246        0.0002        2.9525        2.9526       2.928006       0.04142
   1     891.5        0.0265        0.0002        2.4661        2.4663       2.439780       0.04155
   0    1013.0        0.0309        0.0001        1.9657        1.9659       1.935018       0.03505



 Wavenumbers:  3250. -  4000. cm-1, ATM      1
 LEVEL PRESSURE   UPWARD FLUX   DIFDOWN FLUX  DIRDOWN FLUX  DOWNWARD FLUX   NET FLUX    HEATING RATE
          mb          W/m2          W/m2          W/m2        W/m2          W/m2       degree/day
  51    .06700        0.0005        0.0000        9.1795        9.1795       9.179078       0.00000
  50    .07753        0.0005        0.0000        9.1747        9.1747       9.174202       3.90829
  49    .09103        0.0005        0.0000        9.1712        9.1712       9.170782       2.13714
  48    0.1069        0.0005        0.0000        9.1687        9.1687       9.168222       1.36263
  47    0.1255        0.0005        0.0000        9.1664        9.1664       9.165926       1.04111
  46    0.1487        0.0005        0.0000        9.1639        9.1639       9.163444       0.90478
  45    0.1794        0.0005        0.0000        9.1610        9.1610       9.160514       0.80415
  44    0.2165        0.0005        0.0000        9.1580        9.1580       9.157540       0.67657
  43    0.2613        0.0005        0.0000        9.1550        9.1550       9.154506       0.57201
  42    0.3336        0.0005        0.0000        9.1507        9.1507       9.150221       0.49958
  41    0.4307        0.0005        0.0000        9.1458        9.1458       9.145323       0.42589
  40    0.5894        0.0005        0.0000        9.1386        9.1386       9.138105       0.38385
  39     1.339        0.0005        0.0000        9.1113        9.1113       9.110867       0.30664
  38     1.782        0.0005        0.0000        9.0995        9.0995       9.099092       0.22418
  37     2.292        0.0005        0.0000        9.0883        9.0883       9.087863       0.18599
  36     2.964        0.0004        0.0000        9.0757        9.0757       9.075238       0.15848
  35     3.853        0.0004        0.0000        9.0606        9.0606       9.060198       0.14274
  34     5.035        0.0004        0.0000        9.0415        9.0415       9.041096       0.13645
  33     6.613        0.0004        0.0000        9.0160        9.0160       9.015581       0.13640
  32     8.786        0.0004        0.0000        8.9805        8.9805       8.980076       0.13789
  31     11.80        0.0004        0.0000        8.9281        8.9281       8.927638       0.14681
  30     15.07        0.0004        0.0000        8.8703        8.8703       8.869916       0.14903
  29     18.79        0.0004        0.0000        8.8047        8.8047       8.804262       0.14886
  28     23.16        0.0004        0.0000        8.7295        8.7296       8.729157       0.14523
  27     28.12        0.0004        0.0000        8.6480        8.6480       8.647615       0.13862
  26     33.73        0.0004        0.0000        8.5642        8.5643       8.563846       0.12595
  25     40.54        0.0004        0.0001        8.4733        8.4733       8.472925       0.11280
  24     48.69        0.0004        0.0001        8.3756        8.3757       8.375294       0.10103
  23     57.69        0.0004        0.0001        8.2772        8.2772       8.276873       0.09226
  22     68.43        0.0004        0.0001        8.1651        8.1652       8.164834       0.08808
  21     81.20        0.0003        0.0001        8.0343        8.0344       8.034063       0.08641
  20     96.49        0.0003        0.0001        7.8819        7.8821       7.881742       0.08407
  19     114.6        0.0003        0.0001        7.6999        7.7001       7.699755       0.08497
  18     136.5        0.0003        0.0002        7.4997        7.4998       7.499551       0.07698
  17     162.9        0.0003        0.0002        7.2657        7.2659       7.265671       0.07476
  16     196.4        0.0002        0.0002        6.9249        6.9252       6.924944       0.08576
  15     218.7        0.0002        0.0002        6.6122        6.6124       6.612205       0.11874
  14     243.0        0.0002        0.0002        6.1904        6.1906       6.190467       0.14627
  13     269.0        0.0002        0.0002        5.6644        5.6646       5.664499       0.17062
  12     297.5        0.0001        0.0002        5.0520        5.0523       5.052166       0.18161
  11     328.5        0.0001        0.0002        4.4356        4.4358       4.435701       0.16762
  10     361.9        0.0001        0.0002        3.8517        3.8520       3.851888       0.14771
   9     398.1        0.0001        0.0002        3.3187        3.3189       3.318869       0.12418
   8     437.6        0.0001        0.0002        2.8352        2.8354       2.835315       0.10339
   7     480.5        0.0000        0.0002        2.3959        2.3961       2.396082       0.08626
   6     533.0        0.0000        0.0002        1.9307        1.9308       1.930811       0.07485
   5     589.8        0.0000        0.0001        1.4876        1.4878       1.487771       0.06576
   4     651.6        0.0000        0.0001        1.0350        1.0351       1.035075       0.06191
   3     718.7        0.0000        0.0001        0.6362        0.6363       0.636295       0.05012
   2     792.3        0.0000        0.0000        0.3187        0.3188       0.318760       0.03642
   1     891.5        0.0000        0.0000        0.0738        0.0738       0.073833       0.02084
   0    1013.0        0.0001        0.0000        0.0039        0.0039       0.003791       0.00486



 Wavenumbers:  4000. -  4650. cm-1, ATM      1
 LEVEL PRESSURE   UPWARD FLUX   DIFDOWN FLUX  DIRDOWN FLUX  DOWNWARD FLUX   NET FLUX    HEATING RATE
          mb          W/m2          W/m2          W/m2        W/m2          W/m2       degree/day
  51    .06700        1.1288        0.0000       10.7795       10.7795       9.650704       0.00000
  50    .07753        1.1288        0.0000       10.7795       10.7795       9.650703       0.00080
  49    .09103        1.1288        0.0000       10.7795       10.7795       9.650701       0.00078
  48    0.1069        1.1288        0.0000       10.7795       10.7795       9.650700       0.00076
  47    0.1255        1.1288        0.0000       10.7795       10.7795       9.650698       0.00075
  46    0.1487        1.1288        0.0000       10.7795       10.7795       9.650696       0.00076
  45    0.1794        1.1288        0.0000       10.7795       10.7795       9.650693       0.00078
  44    0.2165        1.1288        0.0000       10.7795       10.7795       9.650690       0.00076
  43    0.2613        1.1288        0.0000       10.7795       10.7795       9.650686       0.00075
  42    0.3336        1.1288        0.0000       10.7795       10.7795       9.650680       0.00077
  41    0.4307        1.1288        0.0000       10.7795       10.7795       9.650671       0.00077
  40    0.5894        1.1288        0.0000       10.7795       10.7795       9.650656       0.00079
  39     1.339        1.1288        0.0000       10.7794       10.7794       9.650567       0.00100
  38     1.782        1.1288        0.0000       10.7793       10.7793       9.650497       0.00133
  37     2.292        1.1288        0.0000       10.7792       10.7792       9.650403       0.00155
  36     2.964        1.1288        0.0000       10.7791       10.7791       9.650263       0.00176
  35     3.853        1.1288        0.0000       10.7789       10.7789       9.650056       0.00197
  34     5.035        1.1288        0.0000       10.7786       10.7786       9.649749       0.00219
  33     6.613        1.1288        0.0000       10.7781       10.7781       9.649299       0.00241
  32     8.786        1.1288        0.0000       10.7774       10.7774       9.648634       0.00258
  31     11.80        1.1288        0.0000       10.7763       10.7764       9.647590       0.00292
  30     15.07        1.1288        0.0001       10.7751       10.7752       9.646365       0.00316
  29     18.79        1.1288        0.0001       10.7736       10.7737       9.644885       0.00336
  28     23.16        1.1288        0.0001       10.7717       10.7718       9.643048       0.00355
  27     28.12        1.1288        0.0001       10.7695       10.7696       9.640826       0.00378
  26     33.73        1.1287        0.0001       10.7667       10.7668       9.638087       0.00412
  25     40.54        1.1287        0.0002       10.7629       10.7631       9.634376       0.00460
  24     48.69        1.1287        0.0002       10.7580       10.7581       9.629436       0.00511
  23     57.69        1.1287        0.0002       10.7520       10.7523       9.623585       0.00548
  22     68.43        1.1287        0.0003       10.7447       10.7449       9.616262       0.00576
  21     81.20        1.1286        0.0003       10.7356       10.7359       9.607259       0.00595
  20     96.49        1.1286        0.0004       10.7246       10.7249       9.596324       0.00604
  19     114.6        1.1286        0.0004       10.7108       10.7112       9.582598       0.00641
  18     136.5        1.1286        0.0005       10.6942       10.6947       9.566092       0.00635
  17     162.9        1.1286        0.0006       10.6739       10.6745       9.545882       0.00646
  16     196.4        1.1287        0.0007       10.6459       10.6467       9.518002       0.00702
  15     218.7        1.1288        0.0008       10.6245       10.6253       9.496554       0.00814
  14     243.0        1.1289        0.0009       10.5960       10.5969       9.467995       0.00991
  13     269.0        1.1292        0.0010       10.5572       10.5582       9.429017       0.01264
  12     297.5        1.1297        0.0011       10.5052       10.5063       9.376622       0.01554
  11     328.5        1.1303        0.0012       10.4385       10.4397       9.309331       0.01830
  10     361.9        1.1312        0.0013       10.3521       10.3535       9.222258       0.02203
   9     398.1        1.1323        0.0014       10.2416       10.2430       9.110711       0.02599
   8     437.6        1.1337        0.0016       10.1041       10.1056       8.971964       0.02966
   7     480.5        1.1354        0.0017        9.9454        9.9471       8.811714       0.03147
   6     533.0        1.1380        0.0018        9.7453        9.7471       8.609117       0.03259
   5     589.8        1.1418        0.0020        9.5176        9.5195       8.377793       0.03434
   4     651.6        1.1475        0.0021        9.2167        9.2188       8.071255       0.04192
   3     718.7        1.1567        0.0023        8.8169        8.8192       7.662501       0.05137
   2     792.3        1.1721        0.0024        8.3168        8.3191       7.147050       0.05912
   1     891.5        1.2082        0.0025        7.6368        7.6393       6.431045       0.06093
   0    1013.0        1.2944        0.0025        6.8869        6.8894       5.594995       0.05805



 Wavenumbers:  4650. -  5150. cm-1, ATM      1
 LEVEL PRESSURE   UPWARD FLUX   DIFDOWN FLUX  DIRDOWN FLUX  DOWNWARD FLUX   NET FLUX    HEATING RATE
          mb          W/m2          W/m2          W/m2        W/m2          W/m2       degree/day
  51    .06700        0.2928        0.0000       10.2033       10.2033       9.910578       0.00000
  50    .07753        0.2928        0.0000       10.2031       10.2031       9.910342       0.18912
  49    .09103        0.2928        0.0000       10.2028       10.2028       9.910047       0.18439
  48    0.1069        0.2928        0.0000       10.2025       10.2025       9.909710       0.17942
  47    0.1255        0.2928        0.0000       10.2021       10.2021       9.909326       0.17436
  46    0.1487        0.2928        0.0000       10.2016       10.2016       9.908844       0.17546
  45    0.1794        0.2928        0.0000       10.2010       10.2010       9.908194       0.17861
  44    0.2165        0.2928        0.0000       10.2002       10.2002       9.907434       0.17288
  43    0.2613        0.2928        0.0000       10.1993       10.1993       9.906548       0.16700
  42    0.3336        0.2928        0.0000       10.1979       10.1979       9.905114       0.16712
  41    0.4307        0.2928        0.0000       10.1960       10.1960       9.903273       0.16012
  40    0.5894        0.2928        0.0000       10.1932       10.1932       9.900397       0.15292
  39     1.339        0.2928        0.0000       10.1815       10.1816       9.888799       0.13058
  38     1.782        0.2928        0.0000       10.1760       10.1760       9.883267       0.10532
  37     2.292        0.2928        0.0000       10.1705       10.1706       9.877808       0.09042
  36     2.964        0.2927        0.0000       10.1646       10.1646       9.871882       0.07439
  35     3.853        0.2927        0.0000       10.1584       10.1584       9.865665       0.05900
  34     5.035        0.2927        0.0000       10.1520       10.1521       9.859328       0.04527
  33     6.613        0.2927        0.0000       10.1456       10.1456       9.852870       0.03452
  32     8.786        0.2927        0.0000       10.1385       10.1386       9.845860       0.02722
  31     11.80        0.2927        0.0001       10.1295       10.1295       9.836825       0.02530
  30     15.07        0.2927        0.0001       10.1196       10.1196       9.826953       0.02549
  29     18.79        0.2927        0.0001       10.1075       10.1076       9.814956       0.02720
  28     23.16        0.2927        0.0001       10.0922       10.0923       9.799667       0.02956
  27     28.12        0.2926        0.0002       10.0731       10.0732       9.780594       0.03242
  26     33.73        0.2926        0.0002       10.0499       10.0501       9.757529       0.03468
  25     40.54        0.2926        0.0002       10.0200       10.0202       9.727668       0.03705
  24     48.69        0.2925        0.0003        9.9818        9.9821       9.689556       0.03944
  23     57.69        0.2925        0.0003        9.9383        9.9386       9.646096       0.04074
  22     68.43        0.2925        0.0004        9.8856        9.8859       9.593474       0.04137
  21     81.20        0.2924        0.0004        9.8232        9.8237       9.531239       0.04112
  20     96.49        0.2924        0.0005        9.7515        9.7520       9.459642       0.03952
  19     114.6        0.2923        0.0006        9.6716        9.6722       9.379884       0.03724
  18     136.5        0.2923        0.0007        9.5854        9.5861       9.293856       0.03308
  17     162.9        0.2922        0.0008        9.4936        9.4944       9.202193       0.02930
  16     196.4        0.2922        0.0010        9.3877        9.3887       9.096453       0.02662
  15     218.7        0.2922        0.0011        9.3220        9.3232       9.030954       0.02487
  14     243.0        0.2922        0.0012        9.2505        9.2517       8.959485       0.02479
  13     269.0        0.2923        0.0014        9.1687        9.1701       8.877781       0.02650
  12     297.5        0.2924        0.0015        9.0707        9.0722       8.779789       0.02906
  11     328.5        0.2926        0.0016        8.9567        8.9583       8.665682       0.03103
  10     361.9        0.2929        0.0018        8.8223        8.8240       8.531125       0.03404
   9     398.1        0.2933        0.0019        8.6645        8.6664       8.373044       0.03683
   8     437.6        0.2939        0.0021        8.4776        8.4796       8.185737       0.04005
   7     480.5        0.2947        0.0022        8.2613        8.2635       7.968831       0.04260
   6     533.0        0.2959        0.0024        7.9755        7.9778       7.681899       0.04616
   5     589.8        0.2977        0.0025        7.6485        7.6510       7.353312       0.04877
   4     651.6        0.3004        0.0026        7.2708        7.2734       6.972968       0.05201
   3     718.7        0.3045        0.0028        6.8548        6.8576       6.553027       0.05277
   2     792.3        0.3109        0.0028        6.4106        6.4135       6.102530       0.05167
   1     891.5        0.3247        0.0029        5.8193        5.8223       5.497570       0.05148
   0    1013.0        0.3524        0.0030        5.1794        5.1824       4.830055       0.04635



 Wavenumbers:  5150. -  6150. cm-1, ATM      1
 LEVEL PRESSURE   UPWARD FLUX   DIFDOWN FLUX  DIRDOWN FLUX  DOWNWARD FLUX   NET FLUX    HEATING RATE
          mb          W/m2          W/m2          W/m2        W/m2          W/m2       degree/day
  51    .06700        2.4847        0.0000       25.5798       25.5798      23.095081       0.00000
  50    .07753        2.4847        0.0000       25.5798       25.5798      23.095035       0.03686
  49    .09103        2.4847        0.0000       25.5797       25.5797      23.094975       0.03743
  48    0.1069        2.4847        0.0000       25.5796       25.5796      23.094904       0.03803
  47    0.1255        2.4847        0.0000       25.5796       25.5796      23.094819       0.03861
  46    0.1487        2.4847        0.0000       25.5794       25.5794      23.094707       0.04068
  45    0.1794        2.4847        0.0000       25.5793       25.5793      23.094550       0.04330
  44    0.2165        2.4847        0.0000       25.5791       25.5791      23.094356       0.04395
  43    0.2613        2.4847        0.0000       25.5788       25.5789      23.094120       0.04462
  42    0.3336        2.4847        0.0000       25.5784       25.5784      23.093715       0.04714
  41    0.4307        2.4847        0.0000       25.5779       25.5779      23.093166       0.04776
  40    0.5894        2.4847        0.0000       25.5770       25.5770      23.092246       0.04892
  39     1.339        2.4847        0.0000       25.5725       25.5725      23.087823       0.04980
  38     1.782        2.4847        0.0000       25.5699       25.5700      23.085254       0.04891
  37     2.292        2.4847        0.0001       25.5670       25.5670      23.082352       0.04806
  36     2.964        2.4847        0.0001       25.5633       25.5634      23.078673       0.04618
  35     3.853        2.4847        0.0001       25.5586       25.5587      23.074011       0.04424
  34     5.035        2.4846        0.0001       25.5525       25.5527      23.068029       0.04274
  33     6.613        2.4846        0.0002       25.5447       25.5449      23.060301       0.04131
  32     8.786        2.4846        0.0002       25.5347       25.5349      23.050345       0.03867
  31     11.80        2.4845        0.0003       25.5212       25.5215      23.036982       0.03741
  30     15.07        2.4845        0.0004       25.5078       25.5082      23.023724       0.03423
  29     18.79        2.4844        0.0005       25.4939       25.4943      23.009957       0.03121
  28     23.16        2.4843        0.0006       25.4789       25.4795      22.995231       0.02848
  27     28.12        2.4842        0.0007       25.4634       25.4642      22.979926       0.02602
  26     33.73        2.4841        0.0009       25.4478       25.4487      22.964575       0.02308
  25     40.54        2.4840        0.0011       25.4310       25.4321      22.948011       0.02055
  24     48.69        2.4839        0.0013       25.4131       25.4144      22.930492       0.01813
  23     57.69        2.4838        0.0015       25.3956       25.3971      22.913265       0.01615
  22     68.43        2.4837        0.0018       25.3766       25.3784      22.894759       0.01455
  21     81.20        2.4835        0.0021       25.3560       25.3581      22.874589       0.01333
  20     96.49        2.4833        0.0025       25.3329       25.3354      22.852033       0.01245
  19     114.6        2.4831        0.0030       25.3064       25.3094      22.826287       0.01202
  18     136.5        2.4829        0.0036       25.2757       25.2792      22.796319       0.01152
  17     162.9        2.4826        0.0042       25.2301       25.2343      22.751707       0.01426
  16     196.4        2.4823        0.0051       25.1321       25.1372      22.654912       0.02436
  15     218.7        2.4821        0.0056       24.9741       24.9798      22.497666       0.05970
  14     243.0        2.4819        0.0062       24.6311       24.6373      22.155359       0.11872
  13     269.0        2.4818        0.0067       24.0393       24.0460      21.564187       0.19177
  12     297.5        2.4817        0.0072       23.3028       23.3101      20.828329       0.21825
  11     328.5        2.4818        0.0077       22.5428       22.5505      20.068734       0.20653
  10     361.9        2.4819        0.0082       21.6734       21.6816      19.199706       0.21987
   9     398.1        2.4822        0.0087       20.7013       20.7100      18.227752       0.22644
   8     437.6        2.4828        0.0091       19.6612       19.6703      17.187584       0.22239
   7     480.5        2.4836        0.0095       18.6097       18.6192      16.135599       0.20661
   6     533.0        2.4851        0.0099       17.4450       17.4550      14.969834       0.18753
   5     589.8        2.4878        0.0104       16.3681       16.3785      13.890698       0.16018
   4     651.6        2.4926        0.0108       15.3777       15.3886      12.896007       0.13603
   3     718.7        2.5011        0.0114       14.5615       14.5729      12.071823       0.10358
   2     792.3        2.5167        0.0119       13.8243       13.8362      11.319535       0.08628
   1     891.5        2.5563        0.0126       12.8401       12.8527      10.296465       0.08706
   0    1013.0        2.6662        0.0133       11.8027       11.8160       9.149781       0.07962



 Wavenumbers:  6150. -  7700. cm-1, ATM      1
 LEVEL PRESSURE   UPWARD FLUX   DIFDOWN FLUX  DIRDOWN FLUX  DOWNWARD FLUX   NET FLUX    HEATING RATE
          mb          W/m2          W/m2          W/m2        W/m2          W/m2       degree/day
  51    .06700        3.7964        0.0000       47.3109       47.3109      43.514463       0.00000
  50    .07753        3.7964        0.0000       47.3108       47.3108      43.514399       0.05102
  49    .09103        3.7964        0.0000       47.3107       47.3107      43.514317       0.05141
  48    0.1069        3.7964        0.0000       47.3106       47.3106      43.514219       0.05182
  47    0.1255        3.7964        0.0000       47.3105       47.3105      43.514104       0.05222
  46    0.1487        3.7964        0.0000       47.3103       47.3103      43.513954       0.05462
  45    0.1794        3.7964        0.0000       47.3101       47.3101      43.513744       0.05776
  44    0.2165        3.7964        0.0000       47.3099       47.3099      43.513488       0.05828
  43    0.2613        3.7964        0.0000       47.3095       47.3096      43.513176       0.05882
  42    0.3336        3.7964        0.0000       47.3090       47.3090      43.512645       0.06181
  41    0.4307        3.7964        0.0000       47.3082       47.3083      43.511928       0.06241
  40    0.5894        3.7963        0.0001       47.3070       47.3071      43.510729       0.06372
  39     1.339        3.7963        0.0001       47.3011       47.3012      43.504969       0.06485
  38     1.782        3.7962        0.0002       47.2976       47.2978      43.501613       0.06390
  37     2.292        3.7962        0.0002       47.2937       47.2940      43.497803       0.06311
  36     2.964        3.7961        0.0003       47.2887       47.2890      43.492937       0.06109
  35     3.853        3.7960        0.0004       47.2823       47.2827      43.486711       0.05908
  34     5.035        3.7959        0.0006       47.2740       47.2746      43.478651       0.05758
  33     6.613        3.7958        0.0007       47.2632       47.2639      43.468135       0.05621
  32     8.786        3.7955        0.0010       47.2490       47.2499      43.454399       0.05335
  31     11.80        3.7952        0.0013       47.2295       47.2308      43.435596       0.05264
  30     15.07        3.7949        0.0017       47.2097       47.2114      43.416454       0.04942
  29     18.79        3.7946        0.0021       47.1886       47.1906      43.396092       0.04617
  28     23.16        3.7941        0.0026       47.1653       47.1679      43.373739       0.04322
  27     28.12        3.7936        0.0031       47.1403       47.1434      43.349752       0.04078
  26     33.73        3.7931        0.0037       47.1143       47.1180      43.324893       0.03738
  25     40.54        3.7924        0.0045       47.0852       47.0897      43.297267       0.03427
  24     48.69        3.7916        0.0054       47.0534       47.0587      43.267105       0.03121
  23     57.69        3.7908        0.0063       47.0211       47.0274      43.236657       0.02854
  22     68.43        3.7897        0.0075       46.9853       46.9928      43.203118       0.02637
  21     81.20        3.7885        0.0089       46.9453       46.9542      43.165762       0.02468
  20     96.49        3.7870        0.0106       46.8997       46.9103      43.123340       0.02341
  19     114.6        3.7852        0.0126       46.8471       46.8596      43.074412       0.02285
  18     136.5        3.7831        0.0149       46.7854       46.8003      43.017158       0.02202
  17     162.9        3.7806        0.0177       46.6973       46.7150      42.934424       0.02645
  16     196.4        3.7774        0.0213       46.5212       46.5425      42.765118       0.04262
  15     218.7        3.7753        0.0236       46.2830       46.3066      42.531346       0.08875
  14     243.0        3.7731        0.0260       45.8249       45.8509      42.077749       0.15732
  13     269.0        3.7709        0.0283       44.9826       45.0110      41.240112       0.27173
  12     297.5        3.7687        0.0306       43.7347       43.7652      39.996563       0.36882
  11     328.5        3.7665        0.0328       42.3858       42.4185      38.652004       0.36558
  10     361.9        3.7646        0.0350       40.9388       40.9738      37.209176       0.36505
   9     398.1        3.7629        0.0371       39.2804       39.3175      35.554523       0.38550
   8     437.6        3.7618        0.0390       37.3949       37.4339      33.672043       0.40249
   7     480.5        3.7616        0.0406       35.4077       35.4483      31.686750       0.38990
   6     533.0        3.7629        0.0423       33.0765       33.1188      29.355940       0.37495
   5     589.8        3.7674        0.0438       30.6901       30.7339      26.966511       0.35467
   4     651.6        3.7784        0.0447       28.1696       28.2143      24.435891       0.34607
   3     718.7        3.8006        0.0454       25.7130       25.7585      21.957860       0.31142
   2     792.3        3.8441        0.0458       23.3288       23.3746      19.530513       0.27839
   1     891.5        3.9573        0.0461       20.5914       20.6375      16.680144       0.24255
   0    1013.0        4.2615        0.0464       18.0110       18.0574      13.795861       0.20027



 Wavenumbers:  7700. -  8050. cm-1, ATM      1
 LEVEL PRESSURE   UPWARD FLUX   DIFDOWN FLUX  DIRDOWN FLUX  DOWNWARD FLUX   NET FLUX    HEATING RATE
          mb          W/m2          W/m2          W/m2        W/m2          W/m2       degree/day
  51    .06700        5.5218        0.0000       11.1810       11.1810       5.659119       0.00000
  50    .07753        5.5218        0.0000       11.1809       11.1809       5.659098       0.01710
  49    .09103        5.5219        0.0000       11.1809       11.1809       5.659071       0.01676
  48    0.1069        5.5219        0.0000       11.1809       11.1809       5.659041       0.01641
  47    0.1255        5.5219        0.0000       11.1809       11.1809       5.659005       0.01606
  46    0.1487        5.5219        0.0000       11.1808       11.1808       5.658960       0.01629
  45    0.1794        5.5219        0.0000       11.1808       11.1808       5.658899       0.01677
  44    0.2165        5.5219        0.0000       11.1807       11.1807       5.658827       0.01645
  43    0.2613        5.5219        0.0000       11.1806       11.1806       5.658741       0.01614
  42    0.3336        5.5219        0.0000       11.1805       11.1805       5.658600       0.01651
  41    0.4307        5.5220        0.0000       11.1803       11.1804       5.658412       0.01633
  40    0.5894        5.5220        0.0000       11.1801       11.1801       5.658105       0.01631
  39     1.339        5.5222        0.0001       11.1788       11.1789       5.656654       0.01634
  38     1.782        5.5224        0.0001       11.1781       11.1782       5.655801       0.01623
  37     2.292        5.5225        0.0001       11.1772       11.1773       5.654814       0.01634
  36     2.964        5.5227        0.0002       11.1761       11.1762       5.653519       0.01626
  35     3.853        5.5230        0.0002       11.1746       11.1748       5.651807       0.01624
  34     5.035        5.5233        0.0003       11.1726       11.1729       5.649534       0.01624
  33     6.613        5.5238        0.0004       11.1700       11.1703       5.646498       0.01623
  32     8.786        5.5245        0.0005       11.1664       11.1669       5.642408       0.01588
  31     11.80        5.5254        0.0006       11.1613       11.1619       5.636561       0.01637
  30     15.07        5.5264        0.0008       11.1558       11.1567       5.630289       0.01619
  29     18.79        5.5275        0.0010       11.1497       11.1507       5.623212       0.01605
  28     23.16        5.5288        0.0013       11.1425       11.1438       5.614957       0.01596
  27     28.12        5.5303        0.0015       11.1343       11.1358       5.605533       0.01602
  26     33.73        5.5320        0.0018       11.1252       11.1270       5.595009       0.01582
  25     40.54        5.5341        0.0022       11.1142       11.1164       5.582325       0.01574
  24     48.69        5.5366        0.0026       11.1010       11.1036       5.567082       0.01577
  23     57.69        5.5393        0.0031       11.0866       11.0897       5.550399       0.01564
  22     68.43        5.5426        0.0037       11.0695       11.0732       5.530615       0.01555
  21     81.20        5.5466        0.0044       11.0494       11.0537       5.507165       0.01550
  20     96.49        5.5513        0.0052       11.0255       11.0307       5.479395       0.01533
  19     114.6        5.5570        0.0061       10.9975       11.0037       5.446660       0.01528
  18     136.5        5.5639        0.0073       10.9648       10.9721       5.408186       0.01479
  17     162.9        5.5721        0.0086       10.9263       10.9349       5.362811       0.01450
  16     196.4        5.5830        0.0104       10.8773       10.8877       5.304638       0.01464
  15     218.7        5.5903        0.0115       10.8455       10.8571       5.266789       0.01437
  14     243.0        5.5983        0.0128       10.8114       10.8242       5.225899       0.01418
  13     269.0        5.6072        0.0142       10.7748       10.7890       5.181789       0.01431
  12     297.5        5.6170        0.0156       10.7356       10.7512       5.134212       0.01411
  11     328.5        5.6279        0.0172       10.6935       10.7107       5.082844       0.01397
  10     361.9        5.6400        0.0189       10.6485       10.6674       5.027425       0.01402
   9     398.1        5.6534        0.0207       10.6001       10.6209       4.967414       0.01398
   8     437.6        5.6686        0.0227       10.5481       10.5707       4.902132       0.01396
   7     480.5        5.6856        0.0248       10.4919       10.5167       4.831029       0.01396
   6     533.0        5.7080        0.0273       10.4218       10.4491       4.741168       0.01446
   5     589.8        5.7341        0.0301       10.3439       10.3740       4.639917       0.01503
   4     651.6        5.7658        0.0331       10.2550       10.2881       4.522269       0.01609
   3     718.7        5.8050        0.0362       10.1518       10.1880       4.383036       0.01750
   2     792.3        5.8552        0.0395       10.0284       10.0679       4.212735       0.01953
   1     891.5        5.9411        0.0439        9.8360        9.8799       3.938753       0.02331
   0    1013.0        6.0793        0.0488        9.5653        9.6141       3.534744       0.02805



 Wavenumbers:  8050. - 12850. cm-1, ATM      1
 LEVEL PRESSURE   UPWARD FLUX   DIFDOWN FLUX  DIRDOWN FLUX  DOWNWARD FLUX   NET FLUX    HEATING RATE
          mb          W/m2          W/m2          W/m2        W/m2          W/m2       degree/day
  51    .06700       90.3813        0.0000      156.5418      156.5418      66.160459       0.00000
  50    .07753       90.3813        0.0000      156.5417      156.5417      66.160459      -0.00000
  49    .09103       90.3813        0.0001      156.5417      156.5417      66.160459      -0.00000
  48    0.1069       90.3812        0.0001      156.5416      156.5417      66.160459       0.00000
  47    0.1255       90.3812        0.0002      156.5415      156.5417      66.160459      -0.00000
  46    0.1487       90.3812        0.0002      156.5414      156.5417      66.160459      -0.00000
  45    0.1794       90.3812        0.0003      156.5413      156.5416      66.160459       0.00000
  44    0.2165       90.3811        0.0004      156.5412      156.5416      66.160459       0.00000
  43    0.2613       90.3811        0.0005      156.5410      156.5415      66.160459       0.00000
  42    0.3336       90.3810        0.0008      156.5407      156.5414      66.160459      -0.00000
  41    0.4307       90.3809        0.0010      156.5403      156.5413      66.160459       0.00000
  40    0.5894       90.3807        0.0015      156.5397      156.5412      66.160459      -0.00000
  39     1.339       90.3798        0.0036      156.5367      156.5403      66.160459       0.00000
  38     1.782       90.3793        0.0048      156.5350      156.5398      66.160459      -0.00000
  37     2.292       90.3788        0.0063      156.5330      156.5392      66.160459       0.00000
  36     2.964       90.3780        0.0081      156.5303      156.5385      66.160459      -0.00000
  35     3.853       90.3770        0.0106      156.5268      156.5375      66.160459       0.00000
  34     5.035       90.3757        0.0139      156.5222      156.5361      66.160459       0.00000
  33     6.613       90.3739        0.0183      156.5160      156.5344      66.160459      -0.00000
  32     8.786       90.3715        0.0243      156.5076      156.5319      66.160459       0.00000
  31     11.80       90.3680        0.0328      156.4957      156.5285      66.160459       0.00000
  30     15.07       90.3643        0.0420      156.4828      156.5248      66.160459       0.00000
  29     18.79       90.3602        0.0524      156.4682      156.5206      66.160459      -0.00000
  28     23.16       90.3553        0.0645      156.4512      156.5157      66.160459       0.00000
  27     28.12       90.3497        0.0784      156.4317      156.5101      66.160459      -0.00000
  26     33.73       90.3434        0.0940      156.4099      156.5038      66.160459       0.00000
  25     40.54       90.3358        0.1128      156.3834      156.4962      66.160459       0.00000
  24     48.69       90.3266        0.1355      156.3515      156.4871      66.160459      -0.00000
  23     57.69       90.3165        0.1605      156.3164      156.4770      66.160459      -0.00000
  22     68.43       90.3045        0.1904      156.2746      156.4649      66.160459      -0.00000
  21     81.20       90.2901        0.2260      156.2246      156.4506      66.160459      -0.00000
  20     96.49       90.2729        0.2685      156.1649      156.4334      66.160459      -0.00000
  19     114.6       90.2527        0.3190      156.0869      156.4059      66.153217       0.00338
  18     136.5       90.2287        0.3790      155.9939      156.3729      66.144239       0.00345
  17     162.9       90.2000        0.4507      155.8787      156.3294      66.129349       0.00476
  16     196.4       90.1629        0.5438      155.7103      156.2542      66.091257       0.00959
  15     218.7       90.1386        0.6051      155.5541      156.1592      66.020522       0.02686
  14     243.0       90.1127        0.6716      155.2966      155.9682      65.855479       0.05724
  13     269.0       90.0857        0.7435      154.8760      155.6195      65.533770       0.10436
  12     297.5       90.0588        0.8209      154.2695      155.0904      65.031630       0.14893
  11     328.5       90.0326        0.9043      153.5462      154.4505      64.417959       0.16686
  10     361.9       90.0085        0.9938      152.6714      153.6652      63.656709       0.19260
   9     398.1       89.9891        1.0893      151.5663      152.6556      62.666537       0.23069
   8     437.6       89.9785        1.1907      150.1523      151.3430      61.364483       0.27839
   7     480.5       89.9820        1.2978      148.4114      149.7092      59.727251       0.32155
   6     533.0       90.0139        1.4273      145.9613      147.3886      57.374695       0.37845
   5     589.8       90.0991        1.5624      142.8844      144.4468      54.347770       0.44929
   4     651.6       90.2966        1.7004      138.8753      140.5757      50.279064       0.55641
   3     718.7       90.6829        1.8404      134.0721      135.9125      45.229600       0.63458
   2     792.3       91.4270        1.9783      128.3373      130.3156      38.888582       0.72724
   1     891.5       93.3103        2.1445      120.0662      122.2107      28.900379       0.84995
   0    1013.0       97.9263        2.3222      110.6732      112.9954      15.069186       0.96037



 Wavenumbers: 12850. - 16000. cm-1, ATM      1
 LEVEL PRESSURE   UPWARD FLUX   DIFDOWN FLUX  DIRDOWN FLUX  DOWNWARD FLUX   NET FLUX    HEATING RATE
          mb          W/m2          W/m2          W/m2        W/m2          W/m2       degree/day
  51    .06700       78.7239        0.0000       98.0872       98.0872      19.363301       0.00000
  50    .07753       78.7239        0.0001       98.0864       98.0864      19.362510       0.63420
  49    .09103       78.7239        0.0002       98.0853       98.0855      19.361517       0.62109
  48    0.1069       78.7239        0.0003       98.0841       98.0843      19.360375       0.60772
  47    0.1255       78.7239        0.0004       98.0826       98.0830      19.359063       0.59463
  46    0.1487       78.7240        0.0005       98.0809       98.0814      19.357408       0.60334
  45    0.1794       78.7240        0.0007       98.0784       98.0792      19.355157       0.61809
  44    0.2165       78.7241        0.0010       98.0756       98.0766      19.352508       0.60242
  43    0.2613       78.7242        0.0012       98.0723       98.0736      19.349394       0.58697
  42    0.3336       78.7244        0.0017       98.0670       98.0687      19.344313       0.59247
  41    0.4307       78.7248        0.0023       98.0602       98.0625      19.337742       0.57127
  40    0.5894       78.7255        0.0033       98.0496       98.0529      19.327392       0.55043
  39     1.339       78.7319        0.0081       98.0043       98.0125      19.280541       0.52745
  38     1.782       78.7378        0.0109       97.9793       97.9902      19.252448       0.53486
  37     2.292       78.7465        0.0142       97.9498       97.9640      19.217480       0.57915
  36     2.964       78.7609        0.0185       97.9088       97.9273      19.166360       0.64171
  35     3.853       78.7842        0.0241       97.8503       97.8744      19.090260       0.72221
  34     5.035       78.8192        0.0316       97.7680       97.7996      18.980362       0.78507
  33     6.613       78.8681        0.0416       97.6562       97.6978      18.829645       0.80573
  32     8.786       78.9318        0.0550       97.5107       97.5657      18.633903       0.76019
  31     11.80       79.0147        0.0743       97.3179       97.3921      18.377408       0.71810
  30     15.07       79.0942        0.0949       97.1283       97.2232      18.129034       0.64125
  29     18.79       79.1754        0.1182       96.9300       97.0482      17.872824       0.58091
  28     23.16       79.2603        0.1454       96.7166       96.8619      17.601624       0.52441
  27     28.12       79.3458        0.1764       96.4935       96.6699      17.324056       0.47185
  26     33.73       79.4250        0.2112       96.2731       96.4843      17.059232       0.39817
  25     40.54       79.5015        0.2532       96.0408       96.2939      16.792408       0.33102
  24     48.69       79.5751        0.3038       95.7946       96.0983      16.523239       0.27855
  23     57.69       79.6379        0.3594       95.5573       95.9167      16.278800       0.22913
  22     68.43       79.6930        0.4257       95.3106       95.7363      16.043252       0.18517
  21     81.20       79.7319        0.5047       95.0643       95.5691      15.837169       0.13618
  20     96.49       79.7534        0.5991       94.8153       95.4143      15.660931       0.09727
  19     114.6       79.7813        0.7123       94.5410       95.2534      15.472081       0.08818
  18     136.5       79.8027        0.8466       94.2320       95.0786      15.275848       0.07546
  17     162.9       79.8176        1.0064       93.8753       94.8817      15.064110       0.06768
  16     196.4       79.8143        1.2138       93.4345       94.6483      14.834046       0.05791
  15     218.7       79.8039        1.3499       93.1510       94.5009      14.697020       0.05202
  14     243.0       79.7892        1.4979       92.8432       94.3411      14.551972       0.05031
  13     269.0       79.7698        1.6584       92.5093       94.1676      14.397804       0.05001
  12     297.5       79.7465        1.8317       92.1456       93.9774      14.230879       0.04951
  11     328.5       79.7211        2.0191       91.7484       93.7675      14.046420       0.05015
  10     361.9       79.6944        2.2208       91.3147       93.5355      13.841101       0.05195
   9     398.1       79.6678        2.4379       90.8394       93.2773      13.609516       0.05395
   8     437.6       79.6441        2.6710       90.3140       92.9850      13.340936       0.05742
   7     480.5       79.6259        2.9207       89.7315       92.6522      13.026261       0.06180
   6     533.0       79.6180        3.2277       88.9789       92.2066      12.588592       0.07041
   5     589.8       79.6371        3.5577       88.1078       91.6655      12.028374       0.08315
   4     651.6       79.7104        3.9100       87.0627       90.9727      11.262307       0.10476
   3     718.7       79.8609        4.2827       85.8262       90.1089      10.247940       0.12748
   2     792.3       80.1558        4.6717       84.3305       89.0022       8.846406       0.16074
   1     891.5       80.8693        5.1769       82.0480       87.2249       6.355615       0.21195
   0    1013.0       82.3583        5.7543       79.0770       84.8313       2.473065       0.26959



 Wavenumbers: 16000. - 22650. cm-1, ATM      1
 LEVEL PRESSURE   UPWARD FLUX   DIFDOWN FLUX  DIRDOWN FLUX  DOWNWARD FLUX   NET FLUX    HEATING RATE
          mb          W/m2          W/m2          W/m2        W/m2          W/m2       degree/day
  51    .06700      140.2274        0.0000      156.3892      156.3892      16.161808       0.00000
  50    .07753      140.2274        0.0004      156.3887      156.3891      16.161661       0.11780
  49    .09103      140.2274        0.0009      156.3879      156.3888      16.161447       0.13361
  48    0.1069      140.2274        0.0015      156.3871      156.3885      16.161161       0.15236
  47    0.1255      140.2274        0.0021      156.3861      156.3882      16.160777       0.17367
  46    0.1487      140.2275        0.0029      156.3847      156.3877      16.160213       0.20580
  45    0.1794      140.2276        0.0041      156.3828      156.3869      16.159330       0.24232
  44    0.2165      140.2278        0.0054      156.3805      156.3859      16.158133       0.27233
  43    0.2613      140.2281        0.0070      156.3776      156.3846      16.156509       0.30617
  42    0.3336      140.2289        0.0096      156.3726      156.3823      16.153421       0.36005
  41    0.4307      140.2301        0.0131      156.3657      156.3788      16.148766       0.40474
  40    0.5894      140.2326        0.0188      156.3537      156.3725      16.139888       0.47211
  39     1.339      140.2549        0.0458      156.2834      156.3292      16.074298       0.73842
  38     1.782      140.2755        0.0616      156.2324      156.2939      16.018424       1.06376
  37     2.292      140.3065        0.0799      156.1641      156.2440      15.937546       1.33956
  36     2.964      140.3579        0.1039      156.0605      156.1644      15.806522       1.64474
  35     3.853      140.4411        0.1357      155.9041      156.0397      15.598621       1.97302
  34     5.035      140.5667        0.1778      155.6774      155.8551      15.288453       2.21572
  33     6.613      140.7421        0.2339      155.3656      155.5996      14.857414       2.30433
  32     8.786      140.9707        0.3096      154.9577      155.2672      14.296546       2.17821
  31     11.80      141.2681        0.4176      154.4153      154.8328      13.564776       2.04873
  30     15.07      141.5529        0.5334      153.8804      154.4138      12.860857       1.81738
  29     18.79      141.8437        0.6640      153.3191      153.9831      12.139424       1.63571
  28     23.16      142.1475        0.8163      152.7126      153.5289      11.381407       1.46576
  27     28.12      142.4531        0.9902      152.0755      153.0657      10.612675       1.30679
  26     33.73      142.7350        1.1847      151.4409      152.6256       9.890627       1.08562
  25     40.54      143.0061        1.4194      150.7637      152.1831       9.177006       0.88533
  24     48.69      143.2654        1.7021      150.0338      151.7360       8.470533       0.73109
  23     57.69      143.4850        2.0123      149.3151      151.3274       7.842427       0.58875
  22     68.43      143.6760        2.3812      148.5476      150.9288       7.252820       0.46351
  21     81.20      143.8071        2.8205      147.7517      150.5722       6.765092       0.32228
  20     96.49      143.8737        3.3434      146.9126      150.2561       6.382359       0.21124
  19     114.6      143.9071        3.9625      145.9763      149.9388       6.031739       0.16372
  18     136.5      143.9155        4.6936      144.9088      149.6023       5.686826       0.13263
  17     162.9      143.8972        5.5600      143.6785      149.2385       5.341330       0.11043
  16     196.4      143.8123        6.6779      142.1650      148.8429       5.030586       0.07822
  15     218.7      143.7342        7.4084      141.2033      148.6117       4.877476       0.05813
  14     243.0      143.6391        8.1991      140.1752      148.3743       4.735222       0.04934
  13     269.0      143.5253        9.0521      139.0794      148.1315       4.606189       0.04186
  12     297.5      143.3922        9.9694      137.9135      147.8829       4.490681       0.03426
  11     328.5      143.2438       10.9554      136.6665      147.6219       4.378073       0.03062
  10     361.9      143.0799       12.0110      135.3373      147.3483       4.268431       0.02774
   9     398.1      142.8999       13.1402      133.9205      147.0607       4.160750       0.02509
   8     437.6      142.7049       14.3450      132.4116      146.7566       4.051712       0.02331
   7     480.5      142.4945       15.6276      130.8078      146.4354       3.940842       0.02177
   6     533.0      142.2359       17.1941      128.8493      146.0434       3.807537       0.02144
   5     589.8      141.9615       18.8679      126.7519      145.6198       3.658285       0.02215
   4     651.6      141.6781       20.6506      124.5028      145.1534       3.475225       0.02503
   3     718.7      141.3925       22.5440      122.0908      144.6348       3.242322       0.02927
   2     792.3      141.1231       24.5460      119.4972      144.0431       2.920037       0.03696
   1     891.5      140.8484       27.2030      115.9607      143.1638       2.315359       0.05146
   0    1013.0      140.6653       30.3250      111.6872      142.0122       1.346896       0.06725



 Wavenumbers: 22650. - 29000. cm-1, ATM      1
 LEVEL PRESSURE   UPWARD FLUX   DIFDOWN FLUX  DIRDOWN FLUX  DOWNWARD FLUX   NET FLUX    HEATING RATE
          mb          W/m2          W/m2          W/m2        W/m2          W/m2       degree/day
  51    .06700       58.6820        0.0000       59.0156       59.0156       0.333644       0.00000
  50    .07753       58.6819        0.0005       59.0151       59.0155       0.333644       0.00000
  49    .09103       58.6818        0.0010       59.0144       59.0154       0.333644      -0.00000
  48    0.1069       58.6816        0.0017       59.0136       59.0153       0.333644       0.00000
  47    0.1255       58.6815        0.0025       59.0127       59.0151       0.333644       0.00000
  46    0.1487       58.6813        0.0035       59.0115       59.0149       0.333644       0.00000
  45    0.1794       58.6810        0.0048       59.0099       59.0147       0.333644      -0.00000
  44    0.2165       58.6807        0.0063       59.0080       59.0144       0.333644       0.00000
  43    0.2613       58.6804        0.0082       59.0058       59.0140       0.333644      -0.00000
  42    0.3336       58.6798        0.0113       59.0022       59.0134       0.333644      -0.00000
  41    0.4307       58.6790        0.0154       58.9973       59.0127       0.333644       0.00000
  40    0.5894       58.6777        0.0220       58.9894       59.0114       0.333644      -0.00000
  39     1.339       58.6717        0.0535       58.9518       59.0053       0.333644       0.00000
  38     1.782       58.6681        0.0720       58.9297       59.0017       0.333644       0.00000
  37     2.292       58.6640        0.0934       58.9042       58.9976       0.333644      -0.00000
  36     2.964       58.6586        0.1216       58.8706       58.9922       0.333644       0.00000
  35     3.853       58.6514        0.1587       58.8264       58.9851       0.333644       0.00000
  34     5.035       58.6419        0.2080       58.7676       58.9756       0.333644       0.00000
  33     6.613       58.6293        0.2738       58.6891       58.9629       0.333644       0.00000
  32     8.786       58.6122        0.3624       58.5834       58.9458       0.333644      -0.00000
  31     11.80       58.5878        0.4890       58.4324       58.9215       0.333644       0.00000
  30     15.07       58.5617        0.6247       58.2706       58.8953       0.333644       0.00000
  29     18.79       58.5322        0.7777       58.0882       58.8659       0.333644       0.00000
  28     23.16       58.4979        0.9559       57.8757       58.8316       0.333644      -0.00000
  27     28.12       58.4588        1.1591       57.6333       58.7924       0.333644       0.00000
  26     33.73       58.4151        1.3857       57.3631       58.7488       0.333644      -0.00000
  25     40.54       58.3626        1.6584       57.0379       58.6963       0.333644       0.00000
  24     48.69       58.2996        1.9854       56.6479       58.6333       0.333644       0.00000
  23     57.69       58.2309        2.3424       56.2221       58.5645       0.333644      -0.00000
  22     68.43       58.1495        2.7646       55.7186       58.4832       0.333644       0.00000
  21     81.20       58.0534        3.2632       55.1239       58.3871       0.333644       0.00000
  20     96.49       57.9401        3.8510       54.4228       58.2738       0.333644      -0.00000
  19     114.6       57.8073        4.5400       53.6010       58.1410       0.333644       0.00000
  18     136.5       57.6522        5.3441       52.6418       57.9859       0.333644       0.00000
  17     162.9       57.4709        6.2842       51.5203       57.8045       0.333644       0.00000
  16     196.4       57.2410        7.4752       50.0994       57.5747       0.333644       0.00000
  15     218.7       57.0932        8.2406       49.1863       57.4269       0.333644       0.00000
  14     243.0       56.9354        9.0578       48.2112       57.2690       0.333644      -0.00000
  13     269.0       56.7676        9.9263       47.1749       57.1012       0.333644       0.00000
  12     297.5       56.5899       10.8454       46.0782       56.9236       0.333644       0.00000
  11     328.5       56.4021       11.8164       44.9194       56.7358       0.333644      -0.00000
  10     361.9       56.2047       12.8367       43.7016       56.5383       0.333644       0.00000
   9     398.1       55.9975       13.9065       42.4246       56.3312       0.333644       0.00000
   8     437.6       55.7811       15.0237       41.0910       56.1147       0.333644       0.00000
   7     480.5       55.5557       16.1858       39.7036       55.8894       0.333644      -0.00000
   6     533.0       55.2874       17.5680       38.0530       55.6211       0.333644       0.00000
   5     589.8       55.0090       19.0012       36.3415       55.3426       0.333644       0.00000
   4     651.6       54.7217       20.4780       34.5773       55.0553       0.333644      -0.00000
   3     718.7       54.4265       21.9931       32.7671       54.7602       0.333644      -0.00000
   2     792.3       54.1250       23.5385       30.9201       54.4586       0.333644      -0.00000
   1     891.5       53.7406       25.5039       28.5704       54.0743       0.333644       0.00000
   0    1013.0       53.3110       27.6947       25.9499       53.6446       0.333644       0.00000



 Wavenumbers: 29000. - 38000. cm-1, ATM      1
 LEVEL PRESSURE   UPWARD FLUX   DIFDOWN FLUX  DIRDOWN FLUX  DOWNWARD FLUX   NET FLUX    HEATING RATE
          mb          W/m2          W/m2          W/m2        W/m2          W/m2       degree/day
  51    .06700        8.7676        0.0000       20.8114       20.8114      12.043740       0.00000
  50    .07753        8.7674        0.0003       20.8070       20.8074      12.039933       3.05155
  49    .09103        8.7672        0.0007       20.8009       20.8016      12.034396       3.46085
  48    0.1069        8.7670        0.0012       20.7928       20.7939      12.026986       3.94429
  47    0.1255        8.7667        0.0017       20.7820       20.7837      12.017081       4.49034
  46    0.1487        8.7663        0.0024       20.7665       20.7688      12.002518       5.30844
  45    0.1794        8.7659        0.0033       20.7424       20.7457      11.979853       6.22204
  44    0.2165        8.7653        0.0044       20.7103       20.7147      11.949331       6.94340
  43    0.2613        8.7648        0.0056       20.6675       20.6731      11.908336       7.72732
  42    0.3336        8.7639        0.0077       20.5880       20.5957      11.831775       8.92625
  41    0.4307        8.7628        0.0104       20.4722       20.4826      11.719822       9.73402
  40    0.5894        8.7612        0.0147       20.2637       20.2784      11.517139      10.77846
  39     1.339        8.7578        0.0331       19.0984       19.1315      10.373662      12.87348
  38     1.782        8.7583        0.0427       18.4394       18.4821       9.723737      12.37351
  37     2.292        8.7610        0.0530       17.7714       17.8244       9.063392      10.93703
  36     2.964        8.7676        0.0657       17.0421       17.1078       8.340269       9.07739
  35     3.853        8.7804        0.0816       16.2678       16.3495       7.569090       7.31863
  34     5.035        8.8015        0.1018       15.4803       15.5821       6.780596       5.63267
  33     6.613        8.8323        0.1276       14.7157       14.8433       6.011014       4.11419
  32     8.786        8.8729        0.1614       13.9936       14.1549       5.282067       2.83097
  31     11.80        8.9259        0.2084       13.2835       13.4920       4.566107       2.00446
  30     15.07        8.9770        0.2573       12.7394       12.9966       4.019637       1.41088
  29     18.79        9.0298        0.3114       12.2666       12.5780       3.548193       1.06891
  28     23.16        9.0859        0.3729       11.8300       12.2029       3.117056       0.83368
  27     28.12        9.1433        0.4418       11.4279       11.8697       2.726364       0.66415
  26     33.73        9.1964        0.5178       11.0695       11.5872       2.390858       0.50444
  25     40.54        9.2467        0.6085       10.7209       11.3294       2.082690       0.38232
  24     48.69        9.2943        0.7162       10.3742       11.0904       1.796131       0.29654
  23     57.69        9.3333        0.8328       10.0549       10.8877       1.554367       0.22662
  22     68.43        9.3649        0.9695        9.7327       10.7022       1.337324       0.17062
  21     81.20        9.3801        1.1309        9.4134       10.5443       1.164253       0.11436
  20     96.49        9.3769        1.3207        9.0887       10.4095       1.032504       0.07272
  19     114.6        9.3636        1.5400        8.7388       10.2788       0.915229       0.05476
  18     136.5        9.3429        1.7907        8.3549       10.1456       0.802699       0.04327
  17     162.9        9.3151        2.0765        7.9311       10.0076       0.692519       0.03522
  16     196.4        9.2683        2.4305        7.4333        9.8638       0.595537       0.02441
  15     218.7        9.2345        2.6532        7.1295        9.7828       0.548235       0.01796
  14     243.0        9.1975        2.8860        6.8161        9.7021       0.504557       0.01515
  13     269.0        9.1571        3.1281        6.4943        9.6224       0.465336       0.01272
  12     297.5        9.1133        3.3783        6.1657        9.5440       0.430762       0.01025
  11     328.5        9.0676        3.6358        5.8294        9.4652       0.397659       0.00900
  10     361.9        9.0204        3.8980        5.4886        9.3865       0.366176       0.00797
   9     398.1        8.9718        4.1643        5.1439        9.3082       0.336341       0.00695
   8     437.6        8.9225        4.4332        4.7969        9.2301       0.307578       0.00615
   7     480.5        8.8727        4.7027        4.4503        9.1530       0.280276       0.00536
   6     533.0        8.8157        5.0100        4.0562        9.0662       0.250512       0.00479
   5     589.8        8.7594        5.3130        3.6681        8.9811       0.221693       0.00428
   4     651.6        8.7049        5.6087        3.2896        8.8984       0.193496       0.00386
   3     718.7        8.6527        5.8942        2.9244        8.8186       0.165879       0.00347
   2     792.3        8.6035        6.1673        2.5750        8.7424       0.138845       0.00310
   1     891.5        8.5472        6.4882        2.1645        8.6527       0.105464       0.00284
   0    1013.0        8.4934        6.8114        1.7507        8.5620       0.068614       0.00256



 Wavenumbers: 38000. - 50000. cm-1, ATM      1
 LEVEL PRESSURE   UPWARD FLUX   DIFDOWN FLUX  DIRDOWN FLUX  DOWNWARD FLUX   NET FLUX    HEATING RATE
          mb          W/m2          W/m2          W/m2        W/m2          W/m2       degree/day
  51    .06700        0.0061        0.0000        1.2836        1.2836       1.277518       0.00000
  50    .07753        0.0061        0.0001        1.2812        1.2812       1.275183       1.87150
  49    .09103        0.0060        0.0002        1.2777        1.2778       1.271851       2.08247
  48    0.1069        0.0059        0.0002        1.2731        1.2734       1.267473       2.33059
  47    0.1255        0.0058        0.0004        1.2672        1.2675       1.261717       2.60908
  46    0.1487        0.0057        0.0005        1.2586        1.2591       1.253391       3.03499
  45    0.1794        0.0055        0.0007        1.2455        1.2462       1.240623       3.50520
  44    0.2165        0.0054        0.0009        1.2282        1.2291       1.223697       3.85037
  43    0.2613        0.0052        0.0011        1.2054        1.2065       1.201348       4.21261
  42    0.3336        0.0049        0.0015        1.1639        1.1654       1.160524       4.75970
  41    0.4307        0.0045        0.0020        1.1051        1.1070       1.102565       5.03943
  40    0.5894        0.0039        0.0026        1.0039        1.0064       1.002524       5.32007
  39     1.339        0.0022        0.0035        0.5438        0.5473       0.545104       5.14971
  38     1.782        0.0016        0.0032        0.3635        0.3666       0.365006       3.42879
  37     2.292        0.0012        0.0027        0.2356        0.2383       0.237058       2.11916
  36     2.964        0.0009        0.0022        0.1455        0.1477       0.146786       1.13318
  35     3.853        0.0006        0.0017        0.0858        0.0875       0.086906       0.56828
  34     5.035        0.0004        0.0013        0.0488        0.0501       0.049701       0.26578
  33     6.613        0.0003        0.0010        0.0273        0.0282       0.027974       0.11615
  32     8.786        0.0002        0.0007        0.0144        0.0151       0.014928       0.05067
  31     11.80        0.0001        0.0004        0.0065        0.0070       0.006903       0.02247
  30     15.07        0.0000        0.0003        0.0031        0.0034       0.003329       0.00923
  29     18.79        0.0000        0.0002        0.0014        0.0016       0.001583       0.00396
  28     23.16        0.0000        0.0001        0.0006        0.0007       0.000720       0.00167
  27     28.12        0.0000        0.0001        0.0003        0.0003       0.000317       0.00069
  26     33.73        0.0000        0.0000        0.0001        0.0001       0.000140       0.00027
  25     40.54        0.0000        0.0000        0.0000        0.0001       0.000057       0.00010
  24     48.69        0.0000        0.0000        0.0000        0.0000       0.000021       0.00004
  23     57.69        0.0000        0.0000        0.0000        0.0000       0.000008       0.00001
  22     68.43        0.0000        0.0000        0.0000        0.0000       0.000003       0.00000
  21     81.20        0.0000        0.0000        0.0000        0.0000       0.000001       0.00000
  20     96.49        0.0000        0.0000        0.0000        0.0000       0.000000       0.00000
  19     114.6        0.0000        0.0000        0.0000        0.0000       0.000000       0.00000
  18     136.5        0.0000        0.0000        0.0000        0.0000       0.000000       0.00000
  17     162.9        0.0000        0.0000        0.0000        0.0000       0.000000       0.00000
  16     196.4        0.0000        0.0000        0.0000        0.0000       0.000000       0.00000
  15     218.7        0.0000        0.0000        0.0000        0.0000       0.000000       0.00000
  14     243.0        0.0000        0.0000        0.0000        0.0000       0.000000       0.00000
  13     269.0        0.0000        0.0000        0.0000        0.0000       0.000000       0.00000
  12     297.5        0.0000        0.0000        0.0000        0.0000       0.000000       0.00000
  11     328.5        0.0000        0.0000        0.0000        0.0000       0.000000       0.00000
  10     361.9        0.0000        0.0000        0.0000        0.0000       0.000000       0.00000
   9     398.1        0.0000        0.0000        0.0000        0.0000       0.000000       0.00000
   8     437.6        0.0000        0.0000        0.0000        0.0000       0.000000       0.00000
   7     480.5        0.0000        0.0000        0.0000        0.0000       0.000000       0.00000
   6     533.0        0.0000        0.0000        0.0000        0.0000       0.000000       0.00000
   5     589.8        0.0000        0.0000        0.0000        0.0000       0.000000       0.00000
   4     651.6        0.0000        0.0000        0.0000        0.0000       0.000000       0.00000
   3     718.7        0.0000        0.0000        0.0000        0.0000       0.000000       0.00000
   2     792.3        0.0000        0.0000        0.0000        0.0000       0.000000       0.00000
   1     891.5        0.0000        0.0000        0.0000        0.0000       0.000000       0.00000
   0    1013.0        0.0000        0.0000        0.0000        0.0000       0.000000       0.00000



 Wavenumbers:   820. -  2600. cm-1, ATM      1
 LEVEL PRESSURE   UPWARD FLUX   DIFDOWN FLUX  DIRDOWN FLUX  DOWNWARD FLUX   NET FLUX    HEATING RATE
          mb          W/m2          W/m2          W/m2        W/m2          W/m2       degree/day
  51    .06700        0.0103        0.0000        6.0047        6.0047       5.994365       0.00000
  50    .07753        0.0103        0.0000        6.0008        6.0008       5.990500       3.09812
  49    .09103        0.0103        0.0000        5.9999        5.9999       5.989598       0.56365
  48    0.1069        0.0103        0.0000        5.9989        5.9989       5.988590       0.53676
  47    0.1255        0.0103        0.0000        5.9977        5.9977       5.987449       0.51690
  46    0.1487        0.0103        0.0000        5.9963        5.9963       5.986062       0.50553
  45    0.1794        0.0103        0.0000        5.9946        5.9946       5.984301       0.48367
  44    0.2165        0.0103        0.0000        5.9927        5.9927       5.982406       0.43095
  43    0.2613        0.0103        0.0000        5.9907        5.9907       5.980383       0.38136
  42    0.3336        0.0103        0.0000        5.9877        5.9877       5.977396       0.34825
  41    0.4307        0.0103        0.0000        5.9841        5.9841       5.973779       0.31448
  40    0.5894        0.0103        0.0000        5.9783        5.9783       5.968028       0.30585
  39     1.339        0.0103        0.0000        5.9517        5.9517       5.941388       0.29991
  38     1.782        0.0103        0.0000        5.9369        5.9369       5.926600       0.28156
  37     2.292        0.0103        0.0000        5.9204        5.9204       5.910157       0.27233
  36     2.964        0.0103        0.0000        5.8998        5.8998       5.889559       0.25857
  35     3.853        0.0103        0.0000        5.8742        5.8742       5.863960       0.24293
  34     5.035        0.0103        0.0000        5.8427        5.8427       5.832399       0.22546
  33     6.613        0.0103        0.0000        5.8036        5.8036       5.793362       0.20869
  32     8.786        0.0103        0.0000        5.7551        5.7551       5.744829       0.18848
  31     11.80        0.0103        0.0000        5.6953        5.6953       5.685023       0.16744
  30     15.07        0.0103        0.0000        5.6451        5.6451       5.634823       0.12961
  29     18.79        0.0103        0.0000        5.6038        5.6038       5.593528       0.09363
  28     23.16        0.0103        0.0000        5.5700        5.5700       5.559680       0.06545
  27     28.12        0.0103        0.0000        5.5415        5.5415       5.531184       0.04844
  26     33.73        0.0103        0.0000        5.5152        5.5152       5.504873       0.03956
  25     40.54        0.0103        0.0000        5.4862        5.4862       5.475913       0.03593
  24     48.69        0.0103        0.0000        5.4530        5.4530       5.442749       0.03432
  23     57.69        0.0103        0.0000        5.4177        5.4177       5.407418       0.03312
  22     68.43        0.0103        0.0000        5.3769        5.3769       5.366580       0.03210
  21     81.20        0.0103        0.0000        5.3304        5.3304       5.320123       0.03070
  20     96.49        0.0103        0.0000        5.2771        5.2771       5.266837       0.02941
  19     114.6        0.0103        0.0000        5.2160        5.2160       5.205744       0.02853
  18     136.5        0.0103        0.0000        5.1466        5.1466       5.136317       0.02670
  17     162.9        0.0103        0.0000        5.0608        5.0608       5.050530       0.02742
  16     196.4        0.0103        0.0000        4.9326        4.9326       4.922349       0.03226
  15     218.7        0.0103        0.0000        4.8186        4.8186       4.808339       0.04329
  14     243.0        0.0103        0.0000        4.6624        4.6625       4.652195       0.05416
  13     269.0        0.0103        0.0000        4.4855        4.4855       4.475256       0.05740
  12     297.5        0.0103        0.0000        4.2829        4.2829       4.272665       0.06009
  11     328.5        0.0103        0.0000        4.0507        4.0508       4.040491       0.06313
  10     361.9        0.0103        0.0000        3.7862        3.7862       3.775885       0.06695
   9     398.1        0.0103        0.0000        3.5214        3.5214       3.511074       0.06170
   8     437.6        0.0103        0.0000        3.2939        3.2939       3.283576       0.04864
   7     480.5        0.0104        0.0000        3.1297        3.1298       3.119394       0.03224
   6     533.0        0.0104        0.0000        2.9854        2.9854       2.974992       0.02323
   5     589.8        0.0105        0.0000        2.8319        2.8320       2.821477       0.02279
   4     651.6        0.0106        0.0000        2.6364        2.6365       2.625842       0.02675
   3     718.7        0.0109        0.0000        2.4165        2.4166       2.405696       0.02767
   2     792.3        0.0113        0.0000        2.1795        2.1795       2.168189       0.02724
   1     891.5        0.0126        0.0000        1.8424        1.8425       1.829884       0.02879
   0    1013.0        0.0158        0.0000        1.3866        1.3866       1.370790       0.03188

  Modules and versions used in this calculation:

       rrtmg_sw.1col.f90:  $Revision$                    rrtmg_sw_init.f90:  $Revision$        
     rrtmgsw_cldprop.f90:  $Revision$                  rrtmgsw_cldprmc.f90:  NOT USED          
     rrtmg_sw_reftra.f90:  $Revision$                  rrtmg_sw_spcvrt.f90:  NOT USED          
     rrtmg_sw_spcvmc.f90:  NOT USED                    rrtmgsw_setcoef.f90:  NOT USED          
     rrtmg_sw_taumol.f90:  $Revision$                  rrtmg_sw_vrtqdr.f90:  NOT USED          
                rrtatm.f:  NOT USED                             util_xxx.f:  NOT USED          
                 extra.f:  NOT USED                       rrtmg_sw_k_g.f90:  $Revision$        

