

 Wavenumbers:   820. - 50000. cm-1, ATM      1
 LEVEL PRESSURE   UPWARD FLUX   DIFDOWN FLUX  DIRDOWN FLUX  DOWNWARD FLUX   NET FLUX    HEATING RATE
          mb          W/m2          W/m2          W/m2        W/m2          W/m2       degree/day
  51    .06700      435.9427        0.0000      617.8126      617.8126     181.869906       0.00000
  50    .07753      435.9423        0.0013      617.7950      617.7964     181.854074      12.68969
  49    .09103      435.9418        0.0030      617.7784      617.7815     181.839638       9.02324
  48    0.1069      435.9414        0.0050      617.7592      617.7642     181.822793       8.96636
  47    0.1255      435.9409        0.0072      617.7355      617.7428     181.801915       9.46529
  46    0.1487      435.9403        0.0101      617.7030      617.7131     181.772807      10.61015
  45    0.1794      435.9396        0.0139      617.6550      617.6689     181.729341      11.93246
  44    0.2165      435.9389        0.0184      617.5933      617.6118     181.672913      12.83630
  43    0.2613      435.9382        0.0238      617.5138      617.5376     181.599463      13.84507
  42    0.3336      435.9373        0.0326      617.3709      617.4035     181.466162      15.54157
  41    0.4307      435.9367        0.0443      617.1684      617.2126     181.275935      16.53981
  40    0.5894      435.9366        0.0631      616.8138      616.8768     180.940172      17.85543
  39     1.339      435.9548        0.1479      614.9750      615.1230     179.168114      19.95016
  38     1.782      435.9784        0.1957      614.0068      614.2025     178.224074      17.97301
  37     2.292      436.0174        0.2501      613.0553      613.3054     177.287995      15.50390
  36     2.964      436.0861        0.3207      612.0189      612.3396     176.253474      12.98637
  35     3.853      436.2014        0.4134      610.8781      611.2914     175.089996      11.04161
  34     5.035      436.3787        0.5356      609.6263      610.1619     173.783178       9.33537
  33     6.613      436.6284        0.6979      608.2617      608.9596     172.331218       7.76218
  32     8.786      436.9537        0.9156      606.7659      607.6816     170.727890       6.22674
  31     11.80      437.3750        1.2256      605.0201      606.2457     168.870726       5.19948
  30     15.07      437.7760        1.5564      603.4428      604.9992     167.223193       4.25361
  29     18.79      438.1833        1.9286      601.8776      603.8062     165.622902       3.62835
  28     23.16      438.6062        2.3611      600.2494      602.6105     164.004335       3.12978
  27     28.12      439.0279        2.8533      598.5779      601.4312     162.403311       2.72163
  26     33.73      439.4096        3.4021      596.9190      600.3211     160.911535       2.24293
  25     40.54      439.7654        4.0628      595.1336      599.1964     159.431021       1.83674
  24     48.69      440.0925        4.8556      593.1871      598.0427     157.950226       1.53239
  23     57.69      440.3530        5.7223      591.2366      596.9589     156.605893       1.26011
  22     68.43      440.5561        6.7491      589.1044      595.8535     155.297447       1.02861
  21     81.20      440.6491        7.9664      586.8037      594.7701     154.121041       0.77735
  20     96.49      440.6220        9.4078      584.2854      593.6932     153.071220       0.57943
  19     114.6      440.5293       11.1033      581.4363      592.5396     152.010285       0.49538
  18     136.5      440.3755       13.0886      578.1898      591.2784     150.902899       0.42582
  17     162.9      440.1549       15.4186      574.4618      589.8804     149.725489       0.37635
  16     196.4      439.7821       18.3900      569.8386      588.2286     148.446583       0.32192
  15     218.7      439.5086       20.3113      566.8350      587.1463     147.637717       0.30710
  14     243.0      439.2019       22.3723      563.5074      585.8797     146.677816       0.33293
  13     269.0      438.8611       24.5747      559.7800      584.3546     145.493557       0.38417
  12     297.5      438.4870       26.9191      555.6295      582.5486     144.061539       0.42472
  11     328.5      438.0876       29.4120      551.1228      580.5348     142.447241       0.43892
  10     361.9      437.6657       32.0498      546.2018      578.2516     140.585892       0.47094
   9     398.1      437.2241       34.8372      540.7923      575.6295     138.405482       0.50799
   8     437.6      436.7702       37.7737      534.8349      572.6086     135.838377       0.54886
   7     480.5      436.3106       40.8577      528.3674      569.2251     132.914511       0.57424
   6     533.0      435.7925       44.5671      520.3212      564.8883     129.095774       0.61431
   5     589.8      435.3142       48.4628      511.4270      559.8898     124.575618       0.67094
   4     651.6      434.9446       52.5378      501.2746      553.8123     118.867727       0.78057
   3     718.7      434.7681       56.7835      490.0230      546.8065     112.038478       0.85825
   2     792.3      434.9567       61.1872      477.6982      538.8854     103.928733       0.93010
   1     891.5      436.1415       66.9027      461.1574      528.0602      91.918706       1.02200
   0    1013.0      439.8645       73.4476      442.1762      515.6238      75.759287       1.12203



 Wavenumbers:  2600. -  3250. cm-1, ATM      1
 LEVEL PRESSURE   UPWARD FLUX   DIFDOWN FLUX  DIRDOWN FLUX  DOWNWARD FLUX   NET FLUX    HEATING RATE
          mb          W/m2          W/m2          W/m2        W/m2          W/m2       degree/day
  51    .06700        2.2202        0.0000        5.4450        5.4450       3.224863       0.00000
  50    .07753        2.2202        0.0000        5.4450        5.4450       3.224855       0.00640
  49    .09103        2.2202        0.0000        5.4450        5.4450       3.224845       0.00627
  48    0.1069        2.2202        0.0000        5.4450        5.4450       3.224833       0.00613
  47    0.1255        2.2202        0.0000        5.4450        5.4450       3.224820       0.00599
  46    0.1487        2.2202        0.0000        5.4450        5.4450       3.224803       0.00608
  45    0.1794        2.2202        0.0000        5.4450        5.4450       3.224780       0.00625
  44    0.2165        2.2202        0.0000        5.4449        5.4449       3.224754       0.00612
  43    0.2613        2.2202        0.0000        5.4449        5.4449       3.224722       0.00600
  42    0.3336        2.2202        0.0000        5.4448        5.4448       3.224669       0.00617
  41    0.4307        2.2202        0.0000        5.4448        5.4448       3.224598       0.00620
  40    0.5894        2.2202        0.0000        5.4446        5.4446       3.224478       0.00637
  39     1.339        2.2202        0.0000        5.4439        5.4439       3.223770       0.00797
  38     1.782        2.2202        0.0000        5.4434        5.4434       3.223227       0.01034
  37     2.292        2.2202        0.0000        5.4427        5.4427       3.222511       0.01186
  36     2.964        2.2202        0.0000        5.4416        5.4416       3.221472       0.01304
  35     3.853        2.2202        0.0000        5.4402        5.4402       3.219994       0.01402
  34     5.035        2.2202        0.0000        5.4381        5.4381       3.217938       0.01469
  33     6.613        2.2202        0.0000        5.4353        5.4353       3.215156       0.01487
  32     8.786        2.2202        0.0000        5.4317        5.4317       3.211521       0.01411
  31     11.80        2.2202        0.0000        5.4269        5.4269       3.206737       0.01340
  30     15.07        2.2202        0.0000        5.4224        5.4224       3.202204       0.01170
  29     18.79        2.2202        0.0000        5.4180        5.4180       3.197782       0.01002
  28     23.16        2.2202        0.0000        5.4135        5.4135       3.193283       0.00870
  27     28.12        2.2202        0.0000        5.4088        5.4088       3.188615       0.00793
  26     33.73        2.2203        0.0000        5.4036        5.4036       3.183347       0.00792
  25     40.54        2.2203        0.0000        5.3966        5.3967       3.176364       0.00866
  24     48.69        2.2204        0.0000        5.3872        5.3872       3.166823       0.00987
  23     57.69        2.2205        0.0000        5.3754        5.3754       3.154951       0.01113
  22     68.43        2.2206        0.0000        5.3599        5.3599       3.139339       0.01227
  21     81.20        2.2208        0.0000        5.3401        5.3401       3.119331       0.01322
  20     96.49        2.2210        0.0000        5.3155        5.3155       3.094522       0.01369
  19     114.6        2.2213        0.0001        5.2860        5.2861       3.064717       0.01392
  18     136.5        2.2218        0.0001        5.2518        5.2519       3.030073       0.01332
  17     162.9        2.2224        0.0001        5.2135        5.2136       2.991127       0.01245
  16     196.4        2.2234        0.0001        5.1688        5.1689       2.945497       0.01149
  15     218.7        2.2241        0.0001        5.1424        5.1425       2.918356       0.01030
  14     243.0        2.2251        0.0001        5.1157        5.1158       2.890776       0.00957
  13     269.0        2.2263        0.0001        5.0885        5.0886       2.862326       0.00923
  12     297.5        2.2279        0.0001        5.0598        5.0599       2.832013       0.00899
  11     328.5        2.2301        0.0001        5.0292        5.0294       2.799283       0.00890
  10     361.9        2.2329        0.0002        4.9955        4.9957       2.762779       0.00924
   9     398.1        2.2367        0.0002        4.9568        4.9570       2.720311       0.00989
   8     437.6        2.2415        0.0002        4.9120        4.9122       2.670689       0.01061
   7     480.5        2.2477        0.0002        4.8588        4.8590       2.611285       0.01167
   6     533.0        2.2571        0.0002        4.7839        4.7842       2.527091       0.01354
   5     589.8        2.2697        0.0002        4.6894        4.6896       2.419908       0.01591
   4     651.6        2.2880        0.0003        4.5645        4.5648       2.276858       0.01956
   3     718.7        2.3142        0.0003        4.4061        4.4064       2.092207       0.02321
   2     792.3        2.3533        0.0003        4.2118        4.2121       1.858735       0.02678
   1     891.5        2.4318        0.0003        3.9310        3.9313       1.499537       0.03057
   0    1013.0        2.5876        0.0003        3.6030        3.6034       1.015761       0.03359



 Wavenumbers:  3250. -  4000. cm-1, ATM      1
 LEVEL PRESSURE   UPWARD FLUX   DIFDOWN FLUX  DIRDOWN FLUX  DOWNWARD FLUX   NET FLUX    HEATING RATE
          mb          W/m2          W/m2          W/m2        W/m2          W/m2       degree/day
  51    .06700        0.4672        0.0000        9.1795        9.1795       8.712355       0.00000
  50    .07753        0.4672        0.0000        9.1749        9.1749       8.707677       3.74987
  49    .09103        0.4672        0.0000        9.1716        9.1716       8.704476       2.00092
  48    0.1069        0.4672        0.0000        9.1693        9.1693       8.702146       1.24022
  47    0.1255        0.4672        0.0000        9.1673        9.1673       8.700089       0.93249
  46    0.1487        0.4672        0.0000        9.1651        9.1651       8.697880       0.80494
  45    0.1794        0.4672        0.0000        9.1625        9.1625       8.695282       0.71336
  44    0.2165        0.4672        0.0000        9.1598        9.1598       8.692663       0.59579
  43    0.2613        0.4672        0.0000        9.1572        9.1572       8.690029       0.49643
  42    0.3336        0.4672        0.0000        9.1536        9.1536       8.686406       0.42247
  41    0.4307        0.4672        0.0000        9.1495        9.1495       8.682373       0.35059
  40    0.5894        0.4672        0.0000        9.1437        9.1437       8.676538       0.31034
  39     1.339        0.4672        0.0000        9.1209        9.1209       8.653681       0.25733
  38     1.782        0.4672        0.0000        9.1104        9.1105       8.643280       0.19801
  37     2.292        0.4672        0.0000        9.1004        9.1004       8.633195       0.16703
  36     2.964        0.4672        0.0000        9.0890        9.0890       8.621824       0.14274
  35     3.853        0.4672        0.0000        9.0755        9.0756       8.608382       0.12757
  34     5.035        0.4672        0.0000        9.0588        9.0588       8.591595       0.11992
  33     6.613        0.4672        0.0000        9.0365        9.0366       8.569391       0.11870
  32     8.786        0.4672        0.0000        9.0055        9.0056       8.538391       0.12039
  31     11.80        0.4672        0.0000        8.9590        8.9590       8.491875       0.13023
  30     15.07        0.4672        0.0000        8.9070        8.9070       8.439834       0.13436
  29     18.79        0.4671        0.0000        8.8467        8.8467       8.379599       0.13657
  28     23.16        0.4671        0.0000        8.7763        8.7763       8.309160       0.13620
  27     28.12        0.4671        0.0000        8.6981        8.6981       8.230969       0.13292
  26     33.73        0.4671        0.0000        8.6161        8.6161       8.148991       0.12326
  25     40.54        0.4671        0.0001        8.5261        8.5262       8.059030       0.11161
  24     48.69        0.4671        0.0001        8.4301        8.4301       7.963008       0.09937
  23     57.69        0.4671        0.0001        8.3353        8.3353       7.868240       0.08883
  22     68.43        0.4671        0.0001        8.2298        8.2299       7.762847       0.08285
  21     81.20        0.4671        0.0001        8.1082        8.1083       7.641207       0.08038
  20     96.49        0.4671        0.0001        7.9668        7.9669       7.499829       0.07803
  19     114.6        0.4670        0.0002        7.8057        7.8058       7.338767       0.07520
  18     136.5        0.4670        0.0002        7.6284        7.6285       7.161529       0.06815
  17     162.9        0.4670        0.0002        7.4365        7.4367       6.969674       0.06132
  16     196.4        0.4670        0.0002        7.2093        7.2096       6.742615       0.05715
  15     218.7        0.4669        0.0003        7.0569        7.0572       6.590218       0.05786
  14     243.0        0.4669        0.0003        6.8716        6.8719       6.404974       0.06425
  13     269.0        0.4670        0.0003        6.6348        6.6351       6.168076       0.07685
  12     297.5        0.4671        0.0003        6.3485        6.3489       5.881764       0.08492
  11     328.5        0.4673        0.0003        6.0601        6.0605       5.593151       0.07847
  10     361.9        0.4677        0.0004        5.7617        5.7621       5.294442       0.07558
   9     398.1        0.4682        0.0004        5.4390        5.4394       4.971153       0.07532
   8     437.6        0.4692        0.0004        5.0716        5.0720       4.602821       0.07875
   7     480.5        0.4706        0.0004        4.6695        4.6699       4.199293       0.07925
   6     533.0        0.4733        0.0004        4.1881        4.1885       3.715171       0.07788
   5     589.8        0.4778        0.0004        3.6991        3.6995       3.221669       0.07325
   4     651.6        0.4862        0.0004        3.1889        3.1893       2.703121       0.07091
   3     718.7        0.5010        0.0004        2.6908        2.6911       2.190107       0.06447
   2     792.3        0.5286        0.0003        2.2055        2.2059       1.677246       0.05882
   1     891.5        0.5995        0.0003        1.6443        1.6446       1.045165       0.05379
   0    1013.0        0.7943        0.0002        1.1059        1.1061       0.311796       0.05092



 Wavenumbers:  4000. -  4650. cm-1, ATM      1
 LEVEL PRESSURE   UPWARD FLUX   DIFDOWN FLUX  DIRDOWN FLUX  DOWNWARD FLUX   NET FLUX    HEATING RATE
          mb          W/m2          W/m2          W/m2        W/m2          W/m2       degree/day
  51    .06700        5.9680        0.0000       10.7795       10.7795       4.811567       0.00000
  50    .07753        5.9680        0.0000       10.7795       10.7795       4.811566       0.00083
  49    .09103        5.9680        0.0000       10.7795       10.7795       4.811565       0.00082
  48    0.1069        5.9680        0.0000       10.7795       10.7795       4.811563       0.00080
  47    0.1255        5.9680        0.0000       10.7795       10.7795       4.811562       0.00078
  46    0.1487        5.9680        0.0000       10.7795       10.7795       4.811560       0.00079
  45    0.1794        5.9680        0.0000       10.7795       10.7795       4.811557       0.00082
  44    0.2165        5.9680        0.0000       10.7795       10.7795       4.811553       0.00080
  43    0.2613        5.9680        0.0000       10.7795       10.7795       4.811549       0.00078
  42    0.3336        5.9680        0.0000       10.7795       10.7795       4.811542       0.00081
  41    0.4307        5.9680        0.0000       10.7795       10.7795       4.811533       0.00081
  40    0.5894        5.9680        0.0000       10.7795       10.7795       4.811517       0.00084
  39     1.339        5.9680        0.0000       10.7794       10.7794       4.811423       0.00106
  38     1.782        5.9680        0.0000       10.7793       10.7793       4.811349       0.00140
  37     2.292        5.9680        0.0000       10.7792       10.7792       4.811250       0.00164
  36     2.964        5.9680        0.0000       10.7791       10.7791       4.811103       0.00185
  35     3.853        5.9680        0.0000       10.7788       10.7789       4.810884       0.00208
  34     5.035        5.9680        0.0000       10.7785       10.7785       4.810561       0.00231
  33     6.613        5.9680        0.0000       10.7780       10.7781       4.810086       0.00254
  32     8.786        5.9680        0.0000       10.7773       10.7774       4.809384       0.00273
  31     11.80        5.9680        0.0001       10.7762       10.7763       4.808279       0.00309
  30     15.07        5.9680        0.0001       10.7749       10.7750       4.806981       0.00335
  29     18.79        5.9680        0.0001       10.7734       10.7735       4.805407       0.00357
  28     23.16        5.9681        0.0001       10.7714       10.7715       4.803449       0.00379
  27     28.12        5.9681        0.0001       10.7691       10.7692       4.801073       0.00404
  26     33.73        5.9682        0.0002       10.7662       10.7664       4.798135       0.00442
  25     40.54        5.9683        0.0002       10.7623       10.7625       4.794137       0.00496
  24     48.69        5.9685        0.0002       10.7571       10.7573       4.788792       0.00553
  23     57.69        5.9688        0.0003       10.7509       10.7512       4.782429       0.00596
  22     68.43        5.9691        0.0003       10.7432       10.7436       4.774419       0.00630
  21     81.20        5.9697        0.0004       10.7338       10.7342       4.764507       0.00655
  20     96.49        5.9704        0.0005       10.7223       10.7227       4.752381       0.00669
  19     114.6        5.9713        0.0006       10.7084       10.7090       4.737668       0.00687
  18     136.5        5.9726        0.0007       10.6918       10.6924       4.719834       0.00686
  17     162.9        5.9744        0.0008       10.6717       10.6725       4.698120       0.00694
  16     196.4        5.9770        0.0009       10.6453       10.6462       4.669215       0.00728
  15     218.7        5.9790        0.0010       10.6274       10.6285       4.649499       0.00749
  14     243.0        5.9814        0.0012       10.6072       10.6083       4.626880       0.00785
  13     269.0        5.9846        0.0013       10.5837       10.5850       4.600401       0.00859
  12     297.5        5.9886        0.0014       10.5562       10.5576       4.569023       0.00931
  11     328.5        5.9935        0.0016       10.5243       10.5259       4.532399       0.00996
  10     361.9        5.9995        0.0017       10.4878       10.4895       4.489942       0.01074
   9     398.1        6.0070        0.0019       10.4456       10.4475       4.440487       0.01152
   8     437.6        6.0162        0.0021       10.3965       10.3985       4.382367       0.01243
   7     480.5        6.0276        0.0023       10.3392       10.3414       4.313825       0.01346
   6     533.0        6.0440        0.0025       10.2607       10.2632       4.219136       0.01523
   5     589.8        6.0656        0.0027       10.1630       10.1658       4.100220       0.01765
   4     651.6        6.0947        0.0030       10.0350       10.0380       3.943360       0.02145
   3     718.7        6.1349        0.0033        9.8721        9.8753       3.740384       0.02551
   2     792.3        6.1901        0.0035        9.6738        9.6774       3.487276       0.02903
   1     891.5        6.2935        0.0039        9.3866        9.3905       3.097048       0.03321
   0    1013.0        6.4849        0.0043        9.0259        9.0302       2.545292       0.03831



 Wavenumbers:  4650. -  5150. cm-1, ATM      1
 LEVEL PRESSURE   UPWARD FLUX   DIFDOWN FLUX  DIRDOWN FLUX  DOWNWARD FLUX   NET FLUX    HEATING RATE
          mb          W/m2          W/m2          W/m2        W/m2          W/m2       degree/day
  51    .06700        4.1205        0.0000       10.2033       10.2033       6.082801       0.00000
  50    .07753        4.1205        0.0000       10.2031       10.2031       6.082572       0.18383
  49    .09103        4.1205        0.0000       10.2028       10.2028       6.082285       0.17925
  48    0.1069        4.1205        0.0000       10.2025       10.2025       6.081957       0.17442
  47    0.1255        4.1205        0.0000       10.2021       10.2021       6.081584       0.16953
  46    0.1487        4.1205        0.0000       10.2017       10.2017       6.081116       0.17061
  45    0.1794        4.1205        0.0000       10.2010       10.2010       6.080483       0.17369
  44    0.2165        4.1205        0.0000       10.2003       10.2003       6.079744       0.16813
  43    0.2613        4.1205        0.0000       10.1994       10.1994       6.078882       0.16243
  42    0.3336        4.1205        0.0000       10.1980       10.1980       6.077488       0.16257
  41    0.4307        4.1205        0.0000       10.1962       10.1962       6.075696       0.15579
  40    0.5894        4.1205        0.0000       10.1934       10.1934       6.072897       0.14882
  39     1.339        4.1205        0.0000       10.1821       10.1821       6.061602       0.12716
  38     1.782        4.1205        0.0000       10.1767       10.1767       6.056211       0.10264
  37     2.292        4.1205        0.0000       10.1714       10.1714       6.050887       0.08817
  36     2.964        4.1205        0.0000       10.1656       10.1656       6.045104       0.07260
  35     3.853        4.1205        0.0000       10.1595       10.1596       6.039027       0.05767
  34     5.035        4.1205        0.0000       10.1533       10.1534       6.032819       0.04435
  33     6.613        4.1205        0.0000       10.1470       10.1470       6.026471       0.03394
  32     8.786        4.1206        0.0001       10.1400       10.1401       6.019550       0.02688
  31     11.80        4.1206        0.0001       10.1311       10.1312       6.010594       0.02507
  30     15.07        4.1206        0.0001       10.1213       10.1214       6.000787       0.02532
  29     18.79        4.1207        0.0001       10.1094       10.1095       5.988856       0.02705
  28     23.16        4.1207        0.0002       10.0942       10.0944       5.973640       0.02942
  27     28.12        4.1208        0.0002       10.0753       10.0755       5.954647       0.03229
  26     33.73        4.1210        0.0002       10.0524       10.0526       5.931662       0.03456
  25     40.54        4.1212        0.0003       10.0228       10.0231       5.901885       0.03694
  24     48.69        4.1215        0.0003        9.9850        9.9853       5.863846       0.03936
  23     57.69        4.1219        0.0004        9.9419        9.9423       5.820421       0.04070
  22     68.43        4.1224        0.0005        9.8897        9.8902       5.767767       0.04139
  21     81.20        4.1232        0.0006        9.8280        9.8285       5.705374       0.04123
  20     96.49        4.1242        0.0007        9.7570        9.7576       5.633402       0.03972
  19     114.6        4.1256        0.0008        9.6780        9.6787       5.553106       0.03749
  18     136.5        4.1276        0.0009        9.5926        9.5936       5.465949       0.03351
  17     162.9        4.1304        0.0011        9.5019        9.5029       5.372578       0.02985
  16     196.4        4.1345        0.0013        9.3974        9.3986       5.264119       0.02730
  15     218.7        4.1377        0.0014        9.3336        9.3350       5.197341       0.02535
  14     243.0        4.1416        0.0016        9.2663        9.2679       5.126291       0.02464
  13     269.0        4.1463        0.0017        9.1941        9.1958       5.049487       0.02491
  12     297.5        4.1521        0.0019        9.1150        9.1169       4.964796       0.02512
  11     328.5        4.1591        0.0021        9.0276        9.0297       4.870571       0.02562
  10     361.9        4.1677        0.0023        8.9303        8.9326       4.764924       0.02673
   9     398.1        4.1781        0.0025        8.8219        8.8244       4.646273       0.02764
   8     437.6        4.1910        0.0027        8.7003        8.7030       4.512044       0.02870
   7     480.5        4.2069        0.0029        8.5649        8.5679       4.361024       0.02966
   6     533.0        4.2298        0.0032        8.3914        8.3946       4.164800       0.03157
   5     589.8        4.2597        0.0035        8.1958        8.1993       3.939630       0.03342
   4     651.6        4.2999        0.0038        7.9731        7.9768       3.676967       0.03592
   3     718.7        4.3528        0.0041        7.7266        7.7306       3.377780       0.03760
   2     792.3        4.4251        0.0044        7.4531        7.4575       3.032431       0.03961
   1     891.5        4.5545        0.0047        7.0813        7.0860       2.531467       0.04263
   0    1013.0        4.7785        0.0051        6.6488        6.6539       1.875339       0.04556



 Wavenumbers:  5150. -  6150. cm-1, ATM      1
 LEVEL PRESSURE   UPWARD FLUX   DIFDOWN FLUX  DIRDOWN FLUX  DOWNWARD FLUX   NET FLUX    HEATING RATE
          mb          W/m2          W/m2          W/m2        W/m2          W/m2       degree/day
  51    .06700       10.3861        0.0000       25.5798       25.5798      15.193729       0.00000
  50    .07753       10.3861        0.0000       25.5798       25.5798      15.193726       0.00301
  49    .09103       10.3861        0.0000       25.5798       25.5798      15.193721       0.00305
  48    0.1069       10.3861        0.0000       25.5798       25.5798      15.193715       0.00309
  47    0.1255       10.3861        0.0000       25.5798       25.5798      15.193708       0.00313
  46    0.1487       10.3861        0.0000       25.5798       25.5798      15.193699       0.00329
  45    0.1794       10.3861        0.0000       25.5798       25.5798      15.193686       0.00350
  44    0.2165       10.3861        0.0000       25.5798       25.5798      15.193671       0.00354
  43    0.2613       10.3861        0.0000       25.5797       25.5797      15.193652       0.00359
  42    0.3336       10.3861        0.0000       25.5797       25.5797      15.193619       0.00379
  41    0.4307       10.3861        0.0000       25.5797       25.5797      15.193575       0.00385
  40    0.5894       10.3861        0.0000       25.5796       25.5796      15.193501       0.00395
  39     1.339       10.3861        0.0000       25.5792       25.5792      15.193135       0.00412
  38     1.782       10.3861        0.0001       25.5789       25.5790      15.192914       0.00420
  37     2.292       10.3861        0.0001       25.5787       25.5787      15.192658       0.00424
  36     2.964       10.3861        0.0001       25.5783       25.5784      15.192324       0.00420
  35     3.853       10.3861        0.0001       25.5779       25.5780      15.191886       0.00416
  34     5.035       10.3861        0.0002       25.5773       25.5774      15.191301       0.00417
  33     6.613       10.3861        0.0002       25.5764       25.5766      15.190513       0.00421
  32     8.786       10.3862        0.0003       25.5753       25.5756      15.189444       0.00415
  31     11.80       10.3862        0.0004       25.5738       25.5741      15.187909       0.00430
  30     15.07       10.3863        0.0005       25.5721       25.5726      15.186261       0.00425
  29     18.79       10.3864        0.0006       25.5702       25.5708      15.184415       0.00419
  28     23.16       10.3865        0.0007       25.5681       25.5688      15.182274       0.00414
  27     28.12       10.3867        0.0009       25.5656       25.5665      15.179840       0.00414
  26     33.73       10.3869        0.0011       25.5630       25.5640      15.177117       0.00409
  25     40.54       10.3872        0.0013       25.5597       25.5610      15.173799       0.00412
  24     48.69       10.3876        0.0015       25.5559       25.5574      15.169794       0.00414
  23     57.69       10.3882        0.0018       25.5517       25.5535      15.165362       0.00415
  22     68.43       10.3889        0.0022       25.5468       25.5489      15.160059       0.00417
  21     81.20       10.3897        0.0026       25.5408       25.5434      15.153698       0.00420
  20     96.49       10.3908        0.0031       25.5337       25.5368      15.146007       0.00424
  19     114.6       10.3921        0.0036       25.5251       25.5288      15.136647       0.00437
  18     136.5       10.3937        0.0043       25.5146       25.5189      15.125168       0.00441
  17     162.9       10.3957        0.0051       25.4994       25.5045      15.108792       0.00523
  16     196.4       10.3984        0.0062       25.4684       25.4746      15.076187       0.00821
  15     218.7       10.4002        0.0069       25.4223       25.4292      15.028930       0.01794
  14     243.0       10.4023        0.0076       25.3298       25.3374      14.935078       0.03255
  13     269.0       10.4047        0.0084       25.1797       25.1881      14.783372       0.04921
  12     297.5       10.4075        0.0092       24.9786       24.9878      14.580314       0.06022
  11     328.5       10.4107        0.0101       24.7314       24.7415      14.330818       0.06784
  10     361.9       10.4145        0.0110       24.4120       24.4231      14.008584       0.08153
   9     398.1       10.4190        0.0120       24.0185       24.0305      13.611519       0.09251
   8     437.6       10.4246        0.0130       23.5633       23.5763      13.151717       0.09831
   7     480.5       10.4315        0.0140       23.0666       23.0806      12.649124       0.09871
   6     533.0       10.4419        0.0152       22.4227       22.4379      11.996027       0.10506
   5     589.8       10.4566        0.0164       21.6337       21.6501      11.193539       0.11912
   4     651.6       10.4799        0.0175       20.6271       20.6446      10.164786       0.14068
   3     718.7       10.5176        0.0185       19.4930       19.5116       8.993922       0.14715
   2     792.3       10.5830        0.0195       18.2781       18.2976       7.714595       0.14672
   1     891.5       10.7427        0.0206       16.8250       16.8456       6.102880       0.13715
   0    1013.0       11.1730        0.0220       15.5347       15.5568       4.383782       0.11937



 Wavenumbers:  6150. -  7700. cm-1, ATM      1
 LEVEL PRESSURE   UPWARD FLUX   DIFDOWN FLUX  DIRDOWN FLUX  DOWNWARD FLUX   NET FLUX    HEATING RATE
          mb          W/m2          W/m2          W/m2        W/m2          W/m2       degree/day
  51    .06700       18.9101        0.0000       47.3108       47.3108      28.400780       0.00000
  50    .07753       18.9101        0.0000       47.3108       47.3108      28.400760       0.01588
  49    .09103       18.9101        0.0000       47.3108       47.3108      28.400735       0.01567
  48    0.1069       18.9101        0.0000       47.3108       47.3108      28.400706       0.01545
  47    0.1255       18.9101        0.0000       47.3107       47.3107      28.400673       0.01523
  46    0.1487       18.9101        0.0000       47.3107       47.3107      28.400630       0.01557
  45    0.1794       18.9101        0.0000       47.3106       47.3106      28.400571       0.01614
  44    0.2165       18.9100        0.0000       47.3105       47.3106      28.400501       0.01596
  43    0.2613       18.9100        0.0000       47.3104       47.3105      28.400417       0.01578
  42    0.3336       18.9100        0.0000       47.3103       47.3103      28.400278       0.01626
  41    0.4307       18.9100        0.0000       47.3101       47.3101      28.400092       0.01618
  40    0.5894       18.9100        0.0001       47.3097       47.3098      28.399786       0.01626
  39     1.339       18.9100        0.0002       47.3081       47.3083      28.398332       0.01637
  38     1.782       18.9099        0.0002       47.3072       47.3074      28.397479       0.01623
  37     2.292       18.9099        0.0003       47.3061       47.3064      28.396497       0.01626
  36     2.964       18.9098        0.0004       47.3047       47.3051      28.395218       0.01606
  35     3.853       18.9098        0.0005       47.3028       47.3033      28.393542       0.01590
  34     5.035       18.9097        0.0007       47.3003       47.3010      28.391330       0.01580
  33     6.613       18.9096        0.0009       47.2971       47.2980      28.388393       0.01570
  32     8.786       18.9094        0.0012       47.2927       47.2939      28.384467       0.01525
  31     11.80       18.9092        0.0016       47.2865       47.2881      28.378914       0.01555
  30     15.07       18.9089        0.0020       47.2799       47.2820      28.373037       0.01517
  29     18.79       18.9086        0.0025       47.2726       47.2751      28.366505       0.01481
  28     23.16       18.9083        0.0031       47.2642       47.2673      28.359006       0.01450
  27     28.12       18.9079        0.0037       47.2548       47.2585      28.350585       0.01432
  26     33.73       18.9075        0.0045       47.2444       47.2489      28.341367       0.01386
  25     40.54       18.9070        0.0054       47.2321       47.2375      28.330501       0.01348
  24     48.69       18.9064        0.0065       47.2177       47.2242      28.317784       0.01316
  23     57.69       18.9057        0.0077       47.2022       47.2099      28.304199       0.01273
  22     68.43       18.9049        0.0091       47.1843       47.1934      28.288464       0.01237
  21     81.20       18.9040        0.0108       47.1634       47.1742      28.270232       0.01205
  20     96.49       18.9028        0.0128       47.1391       47.1519      28.249068       0.01168
  19     114.6       18.9015        0.0152       47.1107       47.1259      28.224438       0.01150
  18     136.5       18.8999        0.0181       47.0776       47.0957      28.195869       0.01099
  17     162.9       18.8980        0.0215       47.0369       47.0584      28.160433       0.01133
  16     196.4       18.8956        0.0260       46.9753       47.0013      28.105636       0.01379
  15     218.7       18.8942        0.0289       46.9115       46.9404      28.046199       0.02257
  14     243.0       18.8929        0.0320       46.7981       46.8301      27.937172       0.03781
  13     269.0       18.8921        0.0354       46.6042       46.6395      27.747446       0.06155
  12     297.5       18.8918        0.0389       46.3193       46.3583      27.466523       0.08332
  11     328.5       18.8921        0.0428       45.9702       46.0129      27.120815       0.09400
  10     361.9       18.8935        0.0468       45.5330       45.5798      26.686258       0.10995
   9     398.1       18.8966        0.0510       44.9678       45.0188      26.122139       0.13143
   8     437.6       18.9024        0.0553       44.2465       44.3019      25.399462       0.15451
   7     480.5       18.9122        0.0598       43.3917       43.4515      24.539326       0.16893
   6     533.0       18.9308        0.0650       42.2743       42.3393      23.408436       0.18192
   5     589.8       18.9631        0.0703       40.9649       41.0352      22.072072       0.19836
   4     651.6       19.0232        0.0753       39.2913       39.3665      20.343318       0.23641
   3     718.7       19.1299        0.0798       37.2974       37.3772      18.247377       0.26340
   2     792.3       19.3230        0.0839       35.0457       35.1296      15.806606       0.27993
   1     891.5       19.7963        0.0884       32.1208       32.2092      12.412820       0.28879
   0    1013.0       20.9775        0.0931       29.1095       29.2026       8.225157       0.29077



 Wavenumbers:  7700. -  8050. cm-1, ATM      1
 LEVEL PRESSURE   UPWARD FLUX   DIFDOWN FLUX  DIRDOWN FLUX  DOWNWARD FLUX   NET FLUX    HEATING RATE
          mb          W/m2          W/m2          W/m2        W/m2          W/m2       degree/day
  51    .06700        6.6138        0.0000       11.1810       11.1810       4.567141       0.00000
  50    .07753        6.6138        0.0000       11.1809       11.1809       4.567118       0.01792
  49    .09103        6.6138        0.0000       11.1809       11.1809       4.567090       0.01757
  48    0.1069        6.6138        0.0000       11.1809       11.1809       4.567058       0.01720
  47    0.1255        6.6138        0.0000       11.1809       11.1809       4.567021       0.01683
  46    0.1487        6.6139        0.0000       11.1808       11.1808       4.566974       0.01708
  45    0.1794        6.6139        0.0000       11.1808       11.1808       4.566910       0.01757
  44    0.2165        6.6139        0.0000       11.1807       11.1807       4.566834       0.01724
  43    0.2613        6.6139        0.0000       11.1806       11.1806       4.566744       0.01692
  42    0.3336        6.6139        0.0000       11.1805       11.1805       4.566596       0.01731
  41    0.4307        6.6140        0.0000       11.1803       11.1804       4.566399       0.01712
  40    0.5894        6.6140        0.0000       11.1801       11.1801       4.566077       0.01710
  39     1.339        6.6143        0.0001       11.1788       11.1789       4.564556       0.01713
  38     1.782        6.6145        0.0001       11.1781       11.1782       4.563662       0.01701
  37     2.292        6.6147        0.0001       11.1772       11.1773       4.562628       0.01713
  36     2.964        6.6150        0.0002       11.1761       11.1762       4.561270       0.01705
  35     3.853        6.6153        0.0002       11.1746       11.1748       4.559475       0.01703
  34     5.035        6.6158        0.0003       11.1726       11.1729       4.557092       0.01703
  33     6.613        6.6164        0.0004       11.1699       11.1703       4.553908       0.01702
  32     8.786        6.6172        0.0005       11.1664       11.1669       4.549620       0.01666
  31     11.80        6.6184        0.0007       11.1613       11.1619       4.543487       0.01717
  30     15.07        6.6197        0.0009       11.1558       11.1566       4.536909       0.01699
  29     18.79        6.6212        0.0011       11.1496       11.1507       4.529484       0.01683
  28     23.16        6.6229        0.0013       11.1424       11.1437       4.520821       0.01675
  27     28.12        6.6249        0.0016       11.1342       11.1358       4.510929       0.01682
  26     33.73        6.6271        0.0019       11.1251       11.1270       4.499879       0.01661
  25     40.54        6.6298        0.0023       11.1141       11.1164       4.486557       0.01653
  24     48.69        6.6331        0.0028       11.1009       11.1036       4.470539       0.01658
  23     57.69        6.6367        0.0033       11.0864       11.0897       4.453000       0.01644
  22     68.43        6.6410        0.0039       11.0693       11.0732       4.432189       0.01636
  21     81.20        6.6462        0.0046       11.0491       11.0537       4.407505       0.01631
  20     96.49        6.6524        0.0054       11.0253       11.0307       4.378249       0.01615
  19     114.6        6.6599        0.0064       10.9972       11.0037       4.343734       0.01612
  18     136.5        6.6689        0.0076       10.9644       10.9720       4.303121       0.01562
  17     162.9        6.6798        0.0091       10.9259       10.9349       4.255158       0.01533
  16     196.4        6.6941        0.0109       10.8768       10.8877       4.193569       0.01550
  15     218.7        6.7037        0.0121       10.8450       10.8571       4.153460       0.01523
  14     243.0        6.7142        0.0135       10.8109       10.8244       4.110134       0.01503
  13     269.0        6.7259        0.0149       10.7745       10.7893       4.063476       0.01514
  12     297.5        6.7386        0.0164       10.7356       10.7520       4.013349       0.01487
  11     328.5        6.7527        0.0181       10.6941       10.7122       3.959482       0.01465
  10     361.9        6.7681        0.0199       10.6500       10.6699       3.901767       0.01460
   9     398.1        6.7851        0.0218       10.6032       10.6250       3.839915       0.01441
   8     437.6        6.8038        0.0239       10.5536       10.5775       3.773686       0.01416
   7     480.5        6.8244        0.0261       10.5011       10.5272       3.702816       0.01392
   6     533.0        6.8505        0.0288       10.4372       10.4660       3.615536       0.01404
   5     589.8        6.8797        0.0317       10.3691       10.4008       3.521107       0.01402
   4     651.6        6.9125        0.0349       10.2963       10.3312       3.418647       0.01401
   3     718.7        6.9497        0.0383       10.2183       10.2566       3.306902       0.01404
   2     792.3        6.9919        0.0419       10.1343       10.1762       3.184342       0.01406
   1     891.5        7.0535        0.0468       10.0193       10.0660       3.012502       0.01462
   0    1013.0        7.1352        0.0526        9.8780        9.9306       2.795447       0.01507



 Wavenumbers:  8050. - 12850. cm-1, ATM      1
 LEVEL PRESSURE   UPWARD FLUX   DIFDOWN FLUX  DIRDOWN FLUX  DOWNWARD FLUX   NET FLUX    HEATING RATE
          mb          W/m2          W/m2          W/m2        W/m2          W/m2       degree/day
  51    .06700       99.7976        0.0000      156.5418      156.5418      56.744181       0.00000
  50    .07753       99.7976        0.0000      156.5417      156.5417      56.744181      -0.00000
  49    .09103       99.7975        0.0001      156.5417      156.5417      56.744181       0.00000
  48    0.1069       99.7975        0.0001      156.5416      156.5417      56.744181       0.00000
  47    0.1255       99.7975        0.0002      156.5415      156.5417      56.744181       0.00000
  46    0.1487       99.7975        0.0002      156.5414      156.5417      56.744181      -0.00000
  45    0.1794       99.7974        0.0003      156.5413      156.5416      56.744181      -0.00000
  44    0.2165       99.7974        0.0004      156.5412      156.5416      56.744181       0.00000
  43    0.2613       99.7974        0.0006      156.5410      156.5415      56.744181       0.00000
  42    0.3336       99.7973        0.0008      156.5407      156.5415      56.744181      -0.00000
  41    0.4307       99.7972        0.0010      156.5403      156.5414      56.744181       0.00000
  40    0.5894       99.7970        0.0015      156.5397      156.5412      56.744181      -0.00000
  39     1.339       99.7962        0.0036      156.5367      156.5404      56.744181       0.00000
  38     1.782       99.7957        0.0049      156.5350      156.5399      56.744181       0.00000
  37     2.292       99.7951        0.0063      156.5330      156.5393      56.744181       0.00000
  36     2.964       99.7944        0.0083      156.5303      156.5386      56.744181      -0.00000
  35     3.853       99.7935        0.0108      156.5268      156.5376      56.744181       0.00000
  34     5.035       99.7922        0.0141      156.5222      156.5364      56.744181      -0.00000
  33     6.613       99.7905        0.0186      156.5160      156.5346      56.744181      -0.00000
  32     8.786       99.7881        0.0247      156.5076      156.5323      56.744181      -0.00000
  31     11.80       99.7848        0.0334      156.4957      156.5290      56.744181       0.00000
  30     15.07       99.7813        0.0427      156.4828      156.5255      56.744181       0.00000
  29     18.79       99.7773        0.0532      156.4682      156.5214      56.744181       0.00000
  28     23.16       99.7725        0.0655      156.4512      156.5167      56.744181      -0.00000
  27     28.12       99.7672        0.0796      156.4317      156.5113      56.744181       0.00000
  26     33.73       99.7611        0.0954      156.4099      156.5053      56.744181      -0.00000
  25     40.54       99.7538        0.1146      156.3834      156.4980      56.744181       0.00000
  24     48.69       99.7450        0.1377      156.3515      156.4892      56.744181       0.00000
  23     57.69       99.7353        0.1631      156.3164      156.4795      56.744181      -0.00000
  22     68.43       99.7237        0.1934      156.2746      156.4679      56.744181       0.00000
  21     81.20       99.7099        0.2295      156.2246      156.4541      56.744181      -0.00000
  20     96.49       99.6934        0.2727      156.1649      156.4376      56.744181       0.00000
  19     114.6       99.6738        0.3240      156.0934      156.4174      56.743625       0.00026
  18     136.5       99.6505        0.3850      156.0085      156.3935      56.742931       0.00027
  17     162.9       99.6227        0.4578      155.9067      156.3645      56.741773       0.00037
  16     196.4       99.5866        0.5524      155.7729      156.3254      56.738761       0.00076
  15     218.7       99.5629        0.6148      155.6811      156.2959      56.732955       0.00220
  14     243.0       99.5374        0.6826      155.5732      156.2559      56.718415       0.00504
  13     269.0       99.5104        0.7564      155.4399      156.1962      56.685790       0.01058
  12     297.5       99.4825        0.8362      155.2686      156.1048      56.622314       0.01883
  11     328.5       99.4537        0.9226      155.0560      155.9786      56.524821       0.02651
  10     361.9       99.4250        1.0158      154.7948      155.8105      56.385474       0.03526
   9     398.1       99.3976        1.1162      154.4737      155.5899      56.192286       0.04501
   8     437.6       99.3737        1.2243      154.0785      155.3027      55.929068       0.05628
   7     480.5       99.3558        1.3402      153.6029      154.9431      55.587307       0.06712
   6     533.0       99.3484        1.4830      152.9457      154.4287      55.080298       0.08156
   5     589.8       99.3667        1.6368      152.1239      153.7607      54.393997       0.10187
   4     651.6       99.4407        1.8012      151.0164      152.8176      53.376972       0.13908
   3     718.7       99.6071        1.9759      149.5539      151.5298      51.922694       0.18276
   2     792.3       99.9430        2.1593      147.6105      149.7698      49.826761       0.24038
   1     891.5      100.7874        2.3994      144.4193      146.8187      46.031329       0.32297
   0    1013.0      102.6995        2.6763      140.0565      142.7328      40.033237       0.41648



 Wavenumbers: 12850. - 16000. cm-1, ATM      1
 LEVEL PRESSURE   UPWARD FLUX   DIFDOWN FLUX  DIRDOWN FLUX  DOWNWARD FLUX   NET FLUX    HEATING RATE
          mb          W/m2          W/m2          W/m2        W/m2          W/m2       degree/day
  51    .06700       76.7813        0.0000       98.0872       98.0872      21.305902       0.00000
  50    .07753       76.7813        0.0001       98.0864       98.0864      21.305110       0.63534
  49    .09103       76.7813        0.0002       98.0853       98.0855      21.304114       0.62238
  48    0.1069       76.7813        0.0003       98.0841       98.0843      21.302970       0.60918
  47    0.1255       76.7814        0.0004       98.0826       98.0830      21.301654       0.59631
  46    0.1487       76.7814        0.0005       98.0809       98.0814      21.299994       0.60533
  45    0.1794       76.7814        0.0007       98.0784       98.0792      21.297734       0.62043
  44    0.2165       76.7815        0.0010       98.0756       98.0766      21.295074       0.60505
  43    0.2613       76.7816        0.0012       98.0723       98.0736      21.291944       0.58992
  42    0.3336       76.7819        0.0017       98.0670       98.0687      21.286833       0.59595
  41    0.4307       76.7823        0.0023       98.0602       98.0625      21.280217       0.57518
  40    0.5894       76.7831        0.0033       98.0496       98.0529      21.269781       0.55499
  39     1.339       76.7902        0.0081       98.0043       98.0125      21.222297       0.53458
  38     1.782       76.7966        0.0109       97.9793       97.9902      21.193665       0.54512
  37     2.292       76.8061        0.0142       97.9498       97.9640      21.157917       0.59207
  36     2.964       76.8217        0.0185       97.9088       97.9273      21.105533       0.65758
  35     3.853       76.8470        0.0241       97.8503       97.8744      21.027424       0.74127
  34     5.035       76.8851        0.0316       97.7680       97.7996      20.914523       0.80652
  33     6.613       76.9382        0.0416       97.6562       97.6978      20.759621       0.82811
  32     8.786       77.0073        0.0550       97.5107       97.5657      20.558414       0.78141
  31     11.80       77.0974        0.0743       97.3179       97.3921      20.294757       0.73816
  30     15.07       77.1838        0.0949       97.1283       97.2232      20.039458       0.65913
  29     18.79       77.2721        0.1182       96.9300       97.0482      19.776113       0.59708
  28     23.16       77.3646        0.1454       96.7166       96.8619      19.497369       0.53900
  27     28.12       77.4578        0.1764       96.4935       96.6699      19.212101       0.48494
  26     33.73       77.5443        0.2112       96.2731       96.4843      18.939992       0.40912
  25     40.54       77.6281        0.2532       96.0408       96.2940      18.665898       0.34004
  24     48.69       77.7090        0.3038       95.7946       96.0984      18.389410       0.28612
  23     57.69       77.7785        0.3594       95.5573       95.9167      18.138259       0.23542
  22     68.43       77.8403        0.4257       95.3106       95.7364      17.896103       0.19037
  21     81.20       77.8851        0.5048       95.0644       95.5692      17.684094       0.14009
  20     96.49       77.9120        0.5992       94.8153       95.4145      17.502518       0.10022
  19     114.6       77.9387        0.7121       94.5412       95.2532      17.314550       0.08777
  18     136.5       77.9598        0.8459       94.2324       95.0783      17.118456       0.07540
  17     162.9       77.9755        1.0052       93.8760       94.8812      16.905694       0.06801
  16     196.4       77.9753        1.2118       93.4358       94.6476      16.672341       0.05874
  15     218.7       77.9679        1.3475       93.1534       94.5009      16.532970       0.05291
  14     243.0       77.9570        1.4949       92.8484       94.3434      16.386386       0.05084
  13     269.0       77.9420        1.6547       92.5209       94.1756      16.233635       0.04955
  12     297.5       77.9232        1.8273       92.1700       93.9974      16.074182       0.04729
  11     328.5       77.9022        2.0139       91.7927       93.8065      15.904327       0.04618
  10     361.9       77.8794        2.2147       91.3883       93.6030      15.723543       0.04574
   9     398.1       77.8552        2.4308       90.9559       93.3867      15.531476       0.04475
   8     437.6       77.8306        2.6629       90.4932       93.1561      15.325490       0.04404
   7     480.5       77.8062        2.9118       89.9991       92.9109      15.104657       0.04337
   6     533.0       77.7805        3.2181       89.3912       92.6094      14.828899       0.04436
   5     589.8       77.7601        3.5485       88.7336       92.2821      14.521904       0.04557
   4     651.6       77.7512        3.9037       88.0167       91.9204      14.169189       0.04823
   3     718.7       77.7603        4.2847       87.2349       91.5196      13.759304       0.05151
   2     792.3       77.8008        4.6914       86.3774       91.0687      13.267943       0.05635
   1     891.5       77.9234        5.2376       85.1810       90.4186      12.495147       0.06576
   0    1013.0       78.1999        5.8890       83.6994       89.5884      11.388518       0.07684



 Wavenumbers: 16000. - 22650. cm-1, ATM      1
 LEVEL PRESSURE   UPWARD FLUX   DIFDOWN FLUX  DIRDOWN FLUX  DOWNWARD FLUX   NET FLUX    HEATING RATE
          mb          W/m2          W/m2          W/m2        W/m2          W/m2       degree/day
  51    .06700      141.6405        0.0000      156.3892      156.3892      14.748796       0.00000
  50    .07753      141.6404        0.0004      156.3887      156.3891      14.748648       0.11903
  49    .09103      141.6404        0.0009      156.3879      156.3888      14.748431       0.13501
  48    0.1069      141.6404        0.0015      156.3871      156.3885      14.748142       0.15395
  47    0.1255      141.6404        0.0021      156.3861      156.3882      14.747755       0.17549
  46    0.1487      141.6405        0.0030      156.3847      156.3877      14.747185       0.20795
  45    0.1794      141.6406        0.0041      156.3828      156.3869      14.746293       0.24485
  44    0.2165      141.6408        0.0054      156.3805      156.3859      14.745083       0.27518
  43    0.2613      141.6412        0.0070      156.3776      156.3846      14.743442       0.30937
  42    0.3336      141.6420        0.0097      156.3726      156.3823      14.740321       0.36381
  41    0.4307      141.6433        0.0132      156.3657      156.3789      14.735618       0.40896
  40    0.5894      141.6459        0.0189      156.3537      156.3725      14.726647       0.47704
  39     1.339      141.6689        0.0459      156.2834      156.3293      14.660372       0.74614
  38     1.782      141.6902        0.0617      156.2324      156.2941      14.603914       1.07488
  37     2.292      141.7220        0.0801      156.1641      156.2442      14.522189       1.35357
  36     2.964      141.7749        0.1042      156.0605      156.1647      14.389794       1.66196
  35     3.853      141.8603        0.1360      155.9041      156.0401      14.179712       1.99371
  34     5.035      141.9893        0.1782      155.6774      155.8555      13.866283       2.23901
  33     6.613      142.1694        0.2345      155.3656      155.6001      13.430699       2.32863
  32     8.786      142.4041        0.3103      154.9577      155.2680      12.863890       2.20128
  31     11.80      142.7095        0.4186      154.4153      154.8338      12.124326       2.07055
  30     15.07      143.0022        0.5346      153.8804      154.4150      11.412862       1.83686
  29     18.79      143.3010        0.6656      153.3191      153.9847      10.683650       1.65335
  28     23.16      143.6134        0.8182      152.7126      153.5308       9.917404       1.48167
  27     28.12      143.9278        0.9926      152.0755      153.0681       9.140269       1.32108
  26     33.73      144.2182        1.1875      151.4409      152.6285       8.410276       1.09756
  25     40.54      144.4978        1.4228      150.7637      152.1865       7.688750       0.89514
  24     48.69      144.7657        1.7062      150.0339      151.7401       6.974397       0.73924
  23     57.69      144.9931        2.0171      149.3151      151.3323       6.339238       0.59537
  22     68.43      145.1917        2.3870      148.5476      150.9347       5.742967       0.46875
  21     81.20      145.3295        2.8275      147.7517      150.5792       5.249692       0.32595
  20     96.49      145.4018        3.3518      146.9127      150.2644       4.862582       0.21366
  19     114.6      145.4400        3.9725      145.9763      149.9488       4.508787       0.16520
  18     136.5      145.4535        4.7054      144.9088      149.6142       4.160742       0.13383
  17     162.9      145.4407        5.5742      143.6786      149.2528       3.812111       0.11144
  16     196.4      145.3617        6.6951      142.1652      148.8603       3.498628       0.07891
  15     218.7      145.2869        7.4276      141.2037      148.6313       3.344361       0.05857
  14     243.0      145.1950        8.2204      140.1760      148.3965       3.201435       0.04957
  13     269.0      145.0844        9.0757      139.0813      148.1570       3.072635       0.04178
  12     297.5      144.9540        9.9955      137.9174      147.9129       2.958879       0.03374
  11     328.5      144.8080       10.9840      136.6737      147.6577       2.849691       0.02969
  10     361.9      144.6460       12.0423      135.3494      147.3917       2.745727       0.02630
   9     398.1      144.4670       13.1742      133.9397      147.1139       2.646950       0.02301
   8     437.6      144.2716       14.3819      132.4413      146.8231       2.551551       0.02040
   7     480.5      144.0589       15.6674      130.8521      146.5194       2.460594       0.01786
   6     533.0      143.7940       17.2373      128.9175      146.1548       2.360758       0.01606
   5     589.8      143.5073       18.9145      126.8555      145.7700       2.262679       0.01456
   4     651.6      143.1996       20.7003      124.6631      145.3635       2.163935       0.01350
   3     718.7      142.8712       22.5968      122.3374      144.9341       2.062932       0.01269
   2     792.3      142.5241       24.6022      119.8782      144.4804       1.956281       0.01223
   1     891.5      142.0669       27.2671      116.6066      143.8737       1.806812       0.01272
   0    1013.0      141.5370       30.4037      112.7484      143.1521       1.615084       0.01331



 Wavenumbers: 22650. - 29000. cm-1, ATM      1
 LEVEL PRESSURE   UPWARD FLUX   DIFDOWN FLUX  DIRDOWN FLUX  DOWNWARD FLUX   NET FLUX    HEATING RATE
          mb          W/m2          W/m2          W/m2        W/m2          W/m2       degree/day
  51    .06700       58.3821        0.0000       59.0156       59.0156       0.633510       0.00000
  50    .07753       58.3820        0.0005       59.0151       59.0155       0.633510       0.00000
  49    .09103       58.3819        0.0010       59.0144       59.0154       0.633510      -0.00000
  48    0.1069       58.3818        0.0017       59.0136       59.0153       0.633510      -0.00000
  47    0.1255       58.3816        0.0025       59.0127       59.0151       0.633510       0.00000
  46    0.1487       58.3814        0.0034       59.0115       59.0149       0.633510       0.00000
  45    0.1794       58.3812        0.0048       59.0099       59.0147       0.633510      -0.00000
  44    0.2165       58.3809        0.0063       59.0080       59.0144       0.633510       0.00000
  43    0.2613       58.3805        0.0082       59.0058       59.0140       0.633510       0.00000
  42    0.3336       58.3799        0.0113       59.0022       59.0134       0.633510       0.00000
  41    0.4307       58.3791        0.0153       58.9973       59.0126       0.633510       0.00000
  40    0.5894       58.3778        0.0220       58.9894       59.0113       0.633510       0.00000
  39     1.339       58.3717        0.0534       58.9518       59.0052       0.633510       0.00000
  38     1.782       58.3681        0.0719       58.9297       59.0016       0.633510      -0.00000
  37     2.292       58.3639        0.0933       58.9042       58.9974       0.633510       0.00000
  36     2.964       58.3584        0.1213       58.8706       58.9920       0.633510      -0.00000
  35     3.853       58.3512        0.1584       58.8264       58.9847       0.633510       0.00000
  34     5.035       58.3416        0.2076       58.7676       58.9751       0.633510      -0.00000
  33     6.613       58.3288        0.2732       58.6891       58.9623       0.633510      -0.00000
  32     8.786       58.3116        0.3617       58.5834       58.9451       0.633510       0.00000
  31     11.80       58.2869        0.4880       58.4325       58.9205       0.633510      -0.00000
  30     15.07       58.2605        0.6234       58.2706       58.8940       0.633510       0.00000
  29     18.79       58.2308        0.7760       58.0882       58.8643       0.633510       0.00000
  28     23.16       58.1961        0.9539       57.8757       58.8296       0.633510      -0.00000
  27     28.12       58.1565        1.1567       57.6333       58.7900       0.633510       0.00000
  26     33.73       58.1124        1.3828       57.3631       58.7459       0.633510       0.00000
  25     40.54       58.0593        1.6549       57.0379       58.6928       0.633510      -0.00000
  24     48.69       57.9956        1.9812       56.6479       58.6291       0.633510      -0.00000
  23     57.69       57.9260        2.3375       56.2221       58.5596       0.633510       0.00000
  22     68.43       57.8438        2.7587       55.7186       58.4773       0.633510      -0.00000
  21     81.20       57.7466        3.2562       55.1239       58.3801       0.633510       0.00000
  20     96.49       57.6320        3.8427       54.4228       58.2655       0.633510       0.00000
  19     114.6       57.4976        4.5301       53.6010       58.1311       0.633510       0.00000
  18     136.5       57.3407        5.3324       52.6418       57.9742       0.633510      -0.00000
  17     162.9       57.1571        6.2703       51.5204       57.7906       0.633510       0.00000
  16     196.4       56.9244        7.4584       50.0995       57.5579       0.633510       0.00000
  15     218.7       56.7747        8.2219       49.1863       57.4082       0.633510       0.00000
  14     243.0       56.6148        9.0369       48.2114       57.2483       0.633510      -0.00000
  13     269.0       56.4447        9.9031       47.1752       57.0782       0.633510       0.00000
  12     297.5       56.2647       10.8194       46.0787       56.8982       0.633510       0.00000
  11     328.5       56.0743       11.7874       44.9204       56.7078       0.633510      -0.00000
  10     361.9       55.8741       12.8044       43.7032       56.5076       0.633510       0.00000
   9     398.1       55.6640       13.8703       42.4272       56.2975       0.633510       0.00000
   8     437.6       55.4444       14.9830       41.0948       56.0779       0.633510      -0.00000
   7     480.5       55.2157       16.1400       39.7092       55.8492       0.633510       0.00000
   6     533.0       54.9435       17.5149       38.0621       55.5770       0.633510      -0.00000
   5     589.8       54.6611       18.9385       36.3561       55.2946       0.633510       0.00000
   4     651.6       54.3696       20.4046       34.5985       55.0031       0.633510       0.00000
   3     718.7       54.0702       21.9062       32.7975       54.7037       0.633510      -0.00000
   2     792.3       53.7644       23.4354       30.9626       54.3980       0.633510      -0.00000
   1     891.5       53.3757       25.3717       28.6375       54.0092       0.633510       0.00000
   0    1013.0       52.9418       27.5218       26.0534       53.5753       0.633510       0.00000



 Wavenumbers: 29000. - 38000. cm-1, ATM      1
 LEVEL PRESSURE   UPWARD FLUX   DIFDOWN FLUX  DIRDOWN FLUX  DOWNWARD FLUX   NET FLUX    HEATING RATE
          mb          W/m2          W/m2          W/m2        W/m2          W/m2       degree/day
  51    .06700        8.7365        0.0000       20.8114       20.8114      12.074866       0.00000
  50    .07753        8.7363        0.0003       20.8070       20.8074      12.071059       3.05152
  49    .09103        8.7361        0.0007       20.8009       20.8016      12.065522       3.46081
  48    0.1069        8.7358        0.0012       20.7928       20.7939      12.058112       3.94425
  47    0.1255        8.7355        0.0017       20.7820       20.7837      12.048208       4.49029
  46    0.1487        8.7352        0.0024       20.7665       20.7688      12.033645       5.30838
  45    0.1794        8.7347        0.0033       20.7424       20.7457      12.010980       6.22197
  44    0.2165        8.7342        0.0044       20.7103       20.7147      11.980458       6.94332
  43    0.2613        8.7336        0.0056       20.6675       20.6731      11.939464       7.72723
  42    0.3336        8.7327        0.0077       20.5880       20.5956      11.862904       8.92613
  41    0.4307        8.7317        0.0104       20.4722       20.4826      11.750953       9.73389
  40    0.5894        8.7301        0.0147       20.2637       20.2784      11.548272      10.77831
  39     1.339        8.7267        0.0331       19.0984       19.1315      10.404817      12.87322
  38     1.782        8.7271        0.0427       18.4394       18.4820       9.754912      12.37315
  37     2.292        8.7298        0.0530       17.7714       17.8244       9.094594      10.93659
  36     2.964        8.7363        0.0656       17.0421       17.1078       8.371513       9.07685
  35     3.853        8.7490        0.0816       16.2679       16.3494       7.600401       7.31799
  34     5.035        8.7700        0.1017       15.4803       15.5820       6.812006       5.63197
  33     6.613        8.8006        0.1275       14.7157       14.8432       6.042560       4.11346
  32     8.786        8.8410        0.1612       13.9936       14.1548       5.313792       2.83027
  31     11.80        8.8937        0.2082       13.2835       13.4918       4.598067       2.00380
  30     15.07        8.9445        0.2570       12.7394       12.9963       4.051826       1.41029
  29     18.79        8.9970        0.3110       12.2666       12.5776       3.580622       1.06836
  28     23.16        9.0528        0.3725       11.8300       12.2025       3.149744       0.83318
  27     28.12        9.1099        0.4413       11.4279       11.8692       2.759322       0.66369
  26     33.73        9.1625        0.5172       11.0695       11.5866       2.424078       0.50405
  25     40.54        9.2125        0.6078       10.7209       11.3287       2.116177       0.38199
  24     48.69        9.2596        0.7153       10.3742       11.0895       1.829893       0.29626
  23     57.69        9.2982        0.8317       10.0549       10.8866       1.588383       0.22638
  22     68.43        9.3293        0.9682        9.7327       10.7009       1.371588       0.17043
  21     81.20        9.3441        1.1294        9.4134       10.5428       1.198728       0.11422
  20     96.49        9.3405        1.3189        9.0887       10.4076       1.067152       0.07262
  19     114.6        9.3265        1.5378        8.7388       10.2766       0.950041       0.05468
  18     136.5        9.3053        1.7881        8.3549       10.1430       0.837679       0.04321
  17     162.9        9.2768        2.0733        7.9311       10.0045       0.727674       0.03516
  16     196.4        9.2291        2.4267        7.4333        9.8600       0.630859       0.02437
  15     218.7        9.1948        2.6489        7.1296        9.7785       0.583644       0.01793
  14     243.0        9.1572        2.8812        6.8161        9.6973       0.540050       0.01512
  13     269.0        9.1162        3.1227        6.4944        9.6171       0.500908       0.01270
  12     297.5        9.0717        3.3723        6.1659        9.5381       0.466406       0.01023
  11     328.5        9.0253        3.6290        5.8296        9.4587       0.433376       0.00898
  10     361.9        8.9774        3.8904        5.4889        9.3793       0.401965       0.00795
   9     398.1        8.9280        4.1559        5.1444        9.3002       0.372201       0.00693
   8     437.6        8.8778        4.4240        4.7974        9.2214       0.343513       0.00613
   7     480.5        8.8271        4.6926        4.4507        9.1434       0.316281       0.00535
   6     533.0        8.7689        4.9984        4.0571        9.0555       0.286606       0.00477
   5     589.8        8.7116        5.2992        3.6704        8.9695       0.257877       0.00426
   4     651.6        8.6559        5.5928        3.2928        8.8856       0.229769       0.00384
   3     718.7        8.6025        5.8753        2.9295        8.8048       0.202246       0.00346
   2     792.3        8.5521        6.1452        2.5822        8.7274       0.175306       0.00309
   1     891.5        8.4941        6.4619        2.1742        8.6361       0.142050       0.00283
   0    1013.0        8.4383        6.7790        1.7647        8.5437       0.105328       0.00255



 Wavenumbers: 38000. - 50000. cm-1, ATM      1
 LEVEL PRESSURE   UPWARD FLUX   DIFDOWN FLUX  DIRDOWN FLUX  DOWNWARD FLUX   NET FLUX    HEATING RATE
          mb          W/m2          W/m2          W/m2        W/m2          W/m2       degree/day
  51    .06700        0.0061        0.0000        1.2836        1.2836       1.277518       0.00000
  50    .07753        0.0061        0.0001        1.2812        1.2812       1.275183       1.87150
  49    .09103        0.0060        0.0002        1.2777        1.2778       1.271851       2.08247
  48    0.1069        0.0059        0.0002        1.2731        1.2734       1.267473       2.33059
  47    0.1255        0.0058        0.0004        1.2672        1.2675       1.261717       2.60908
  46    0.1487        0.0057        0.0005        1.2586        1.2591       1.253391       3.03499
  45    0.1794        0.0055        0.0007        1.2455        1.2462       1.240623       3.50520
  44    0.2165        0.0054        0.0009        1.2282        1.2291       1.223697       3.85037
  43    0.2613        0.0052        0.0011        1.2054        1.2065       1.201348       4.21261
  42    0.3336        0.0049        0.0015        1.1639        1.1654       1.160524       4.75970
  41    0.4307        0.0045        0.0020        1.1051        1.1070       1.102565       5.03943
  40    0.5894        0.0039        0.0026        1.0039        1.0064       1.002524       5.32007
  39     1.339        0.0022        0.0035        0.5438        0.5473       0.545105       5.14971
  38     1.782        0.0016        0.0032        0.3635        0.3666       0.365006       3.42879
  37     2.292        0.0012        0.0027        0.2356        0.2383       0.237058       2.11916
  36     2.964        0.0009        0.0022        0.1455        0.1477       0.146786       1.13318
  35     3.853        0.0006        0.0017        0.0858        0.0875       0.086906       0.56828
  34     5.035        0.0004        0.0013        0.0488        0.0501       0.049701       0.26578
  33     6.613        0.0003        0.0010        0.0273        0.0282       0.027974       0.11615
  32     8.786        0.0002        0.0007        0.0144        0.0151       0.014928       0.05067
  31     11.80        0.0001        0.0004        0.0065        0.0070       0.006903       0.02247
  30     15.07        0.0000        0.0003        0.0031        0.0034       0.003329       0.00923
  29     18.79        0.0000        0.0002        0.0014        0.0016       0.001583       0.00396
  28     23.16        0.0000        0.0001        0.0006        0.0007       0.000720       0.00167
  27     28.12        0.0000        0.0001        0.0003        0.0003       0.000317       0.00069
  26     33.73        0.0000        0.0000        0.0001        0.0001       0.000140       0.00027
  25     40.54        0.0000        0.0000        0.0000        0.0001       0.000057       0.00010
  24     48.69        0.0000        0.0000        0.0000        0.0000       0.000021       0.00004
  23     57.69        0.0000        0.0000        0.0000        0.0000       0.000008       0.00001
  22     68.43        0.0000        0.0000        0.0000        0.0000       0.000003       0.00000
  21     81.20        0.0000        0.0000        0.0000        0.0000       0.000001       0.00000
  20     96.49        0.0000        0.0000        0.0000        0.0000       0.000000       0.00000
  19     114.6        0.0000        0.0000        0.0000        0.0000       0.000000       0.00000
  18     136.5        0.0000        0.0000        0.0000        0.0000       0.000000       0.00000
  17     162.9        0.0000        0.0000        0.0000        0.0000       0.000000       0.00000
  16     196.4        0.0000        0.0000        0.0000        0.0000       0.000000       0.00000
  15     218.7        0.0000        0.0000        0.0000        0.0000       0.000000       0.00000
  14     243.0        0.0000        0.0000        0.0000        0.0000       0.000000       0.00000
  13     269.0        0.0000        0.0000        0.0000        0.0000       0.000000       0.00000
  12     297.5        0.0000        0.0000        0.0000        0.0000       0.000000       0.00000
  11     328.5        0.0000        0.0000        0.0000        0.0000       0.000000       0.00000
  10     361.9        0.0000        0.0000        0.0000        0.0000       0.000000       0.00000
   9     398.1        0.0000        0.0000        0.0000        0.0000       0.000000       0.00000
   8     437.6        0.0000        0.0000        0.0000        0.0000       0.000000       0.00000
   7     480.5        0.0000        0.0000        0.0000        0.0000       0.000000       0.00000
   6     533.0        0.0000        0.0000        0.0000        0.0000       0.000000       0.00000
   5     589.8        0.0000        0.0000        0.0000        0.0000       0.000000       0.00000
   4     651.6        0.0000        0.0000        0.0000        0.0000       0.000000       0.00000
   3     718.7        0.0000        0.0000        0.0000        0.0000       0.000000       0.00000
   2     792.3        0.0000        0.0000        0.0000        0.0000       0.000000       0.00000
   1     891.5        0.0000        0.0000        0.0000        0.0000       0.000000       0.00000
   0    1013.0        0.0000        0.0000        0.0000        0.0000       0.000000       0.00000



 Wavenumbers:   820. -  2600. cm-1, ATM      1
 LEVEL PRESSURE   UPWARD FLUX   DIFDOWN FLUX  DIRDOWN FLUX  DOWNWARD FLUX   NET FLUX    HEATING RATE
          mb          W/m2          W/m2          W/m2        W/m2          W/m2       degree/day
  51    .06700        1.9128        0.0000        6.0047        6.0047       4.091896       0.00000
  50    .07753        1.9128        0.0000        6.0009        6.0009       4.088110       3.03454
  49    .09103        1.9128        0.0000        6.0001        6.0001       4.087312       0.49904
  48    0.1069        1.9128        0.0000        5.9992        5.9992       4.086427       0.47107
  47    0.1255        1.9128        0.0000        5.9982        5.9982       4.085434       0.45014
  46    0.1487        1.9128        0.0000        5.9970        5.9970       4.084240       0.43514
  45    0.1794        1.9128        0.0000        5.9955        5.9955       4.082751       0.40870
  44    0.2165        1.9128        0.0000        5.9939        5.9939       4.081192       0.35480
  43    0.2613        1.9128        0.0000        5.9923        5.9923       4.079579       0.30402
  42    0.3336        1.9128        0.0000        5.9900        5.9900       4.077292       0.26659
  41    0.4307        1.9128        0.0000        5.9874        5.9874       4.074626       0.23180
  40    0.5894        1.9128        0.0000        5.9832        5.9832       4.070464       0.22135
  39     1.339        1.9128        0.0000        5.9641        5.9641       4.051333       0.21538
  38     1.782        1.9128        0.0000        5.9535        5.9535       4.040763       0.20124
  37     2.292        1.9128        0.0000        5.9417        5.9417       4.028919       0.19617
  36     2.964        1.9128        0.0000        5.9266        5.9266       4.013843       0.18925
  35     3.853        1.9128        0.0000        5.9074        5.9074       3.994673       0.18193
  34     5.035        1.9128        0.0000        5.8831        5.8831       3.970338       0.17383
  33     6.613        1.9128        0.0000        5.8515        5.8515       3.938754       0.16885
  32     8.786        1.9128        0.0000        5.8096        5.8096       3.896799       0.16294
  31     11.80        1.9128        0.0000        5.7540        5.7540       3.841186       0.15570
  30     15.07        1.9128        0.0000        5.7048        5.7048       3.792014       0.12695
  29     18.79        1.9128        0.0000        5.6640        5.6640       3.751195       0.09255
  28     23.16        1.9129        0.0000        5.6326        5.6326       3.719773       0.06076
  27     28.12        1.9129        0.0000        5.6098        5.6098       3.696953       0.03879
  26     33.73        1.9129        0.0000        5.5918        5.5918       3.678860       0.02720
  25     40.54        1.9130        0.0000        5.5732        5.5732       3.660177       0.02318
  24     48.69        1.9131        0.0000        5.5513        5.5513       3.638228       0.02271
  23     57.69        1.9131        0.0000        5.5268        5.5269       3.613713       0.02298
  22     68.43        1.9133        0.0000        5.4973        5.4973       3.584011       0.02335
  21     81.20        1.9134        0.0000        5.4624        5.4624       3.548981       0.02315
  20     96.49        1.9136        0.0000        5.4214        5.4214       3.507818       0.02272
  19     114.6        1.9138        0.0000        5.3745        5.3745       3.460697       0.02200
  18     136.5        1.9141        0.0000        5.3221        5.3222       3.408037       0.02025
  17     162.9        1.9145        0.0000        5.2633        5.2633       3.348844       0.01892
  16     196.4        1.9150        0.0000        5.1906        5.1906       3.275645       0.01843
  15     218.7        1.9154        0.0000        5.1416        5.1417       3.226273       0.01874
  14     243.0        1.9159        0.0000        5.0826        5.0826       3.166714       0.02066
  13     269.0        1.9165        0.0000        5.0090        5.0090       3.092496       0.02408
  12     297.5        1.9174        0.0000        4.9158        4.9159       2.998466       0.02789
  11     328.5        1.9185        0.0000        4.8134        4.8135       2.894997       0.02813
  10     361.9        1.9198        0.0000        4.7067        4.7068       2.786977       0.02733
   9     398.1        1.9214        0.0001        4.5987        4.5987       2.677262       0.02556
   8     437.6        1.9235        0.0001        4.4859        4.4860       2.562459       0.02455
   7     480.5        1.9261        0.0001        4.3615        4.3615       2.435467       0.02494
   6     533.0        1.9298        0.0001        4.1893        4.1893       2.259505       0.02831
   5     589.8        1.9351        0.0001        3.9726        3.9726       2.037506       0.03295
   4     651.6        1.9435        0.0001        3.7107        3.7108       1.767297       0.03695
   3     718.7        1.9565        0.0001        3.4655        3.4656       1.509114       0.03245
   2     792.3        1.9773        0.0001        3.2850        3.2850       1.307702       0.02310
   1     891.5        2.0222        0.0001        3.1305        3.1306       1.108438       0.01696
   0    1013.0        2.1170        0.0001        2.9479        2.9480       0.831036       0.01926

  Modules and versions used in this calculation:

       rrtmg_sw.1col.f90:  $Revision$                    rrtmg_sw_init.f90:  $Revision$        
     rrtmgsw_cldprop.f90:  $Revision$                  rrtmgsw_cldprmc.f90:  NOT USED          
     rrtmg_sw_reftra.f90:  $Revision$                  rrtmg_sw_spcvrt.f90:  NOT USED          
     rrtmg_sw_spcvmc.f90:  NOT USED                    rrtmgsw_setcoef.f90:  NOT USED          
     rrtmg_sw_taumol.f90:  $Revision$                  rrtmg_sw_vrtqdr.f90:  NOT USED          
                rrtatm.f:  NOT USED                             util_xxx.f:  NOT USED          
                 extra.f:  NOT USED                       rrtmg_sw_k_g.f90:  $Revision$        

