

 Wavenumbers:   820. - 50000. cm-1, ATM      1
 LEVEL PRESSURE   UPWARD FLUX   DIFDOWN FLUX  DIRDOWN FLUX  DOWNWARD FLUX   NET FLUX    HEATING RATE
          mb          W/m2          W/m2          W/m2        W/m2          W/m2       degree/day
  51    .06700      398.6384        0.0000      617.8126      617.8126     219.174137       0.00000
  50    .07753      398.6381        0.0013      617.7948      617.7962     219.158091      12.86126
  49    .09103      398.6376        0.0030      617.7780      617.7810     219.143391       9.18753
  48    0.1069      398.6371        0.0050      617.7584      617.7634     219.126253       9.12270
  47    0.1255      398.6366        0.0072      617.7344      617.7416     219.105047       9.61390
  46    0.1487      398.6360        0.0100      617.7015      617.7115     219.075536      10.75724
  45    0.1794      398.6353        0.0139      617.6529      617.6668     219.031538      12.07842
  44    0.2165      398.6345        0.0184      617.5906      617.6090     218.974491      12.97718
  43    0.2613      398.6338        0.0237      617.5103      617.5341     218.900306      13.98364
  42    0.3336      398.6328        0.0325      617.3661      617.3986     218.765775      15.68497
  41    0.4307      398.6320        0.0441      617.1618      617.2059     218.573902      16.68289
  40    0.5894      398.6317        0.0629      616.8043      616.8672     218.235447      17.99862
  39     1.339      398.6482        0.1475      614.9531      615.1006     216.452371      20.07419
  38     1.782      398.6703        0.1951      613.9784      614.1735     215.503144      18.07175
  37     2.292      398.7073        0.2492      613.0200      613.2693     214.561963      15.58842
  36     2.964      398.7729        0.3197      611.9752      612.2948     213.521948      13.05534
  35     3.853      398.8832        0.4120      610.8240      611.2360     212.352746      11.09594
  34     5.035      399.0531        0.5338      609.5594      610.0932     211.040051       9.37735
  33     6.613      399.2926        0.6955      608.1792      608.8747     209.582152       7.79393
  32     8.786      399.6044        0.9124      606.6649      607.5774     207.972944       6.24958
  31     11.80      400.0080        1.2213      604.8969      606.1182     206.110163       5.21520
  30     15.07      400.3918        1.5509      603.2996      604.8505     204.458673       4.26382
  29     18.79      400.7810        1.9217      601.7141      603.6358     202.854722       3.63665
  28     23.16      401.1847        2.3525      600.0634      602.4160     201.231261       3.13925
  27     28.12      401.5866        2.8430      598.3671      601.2100     199.623448       2.73317
  26     33.73      401.9490        3.3897      596.6824      600.0721     198.123096       2.25582
  25     40.54      402.2850        4.0479      594.8688      598.9167     196.631693       1.85025
  24     48.69      402.5915        4.8376      592.8919      597.7295     195.138092       1.54564
  23     57.69      402.8324        5.7010      590.9104      596.6113     193.778954       1.27399
  22     68.43      403.0155        6.7237      588.7435      595.4672     192.451696       1.04340
  21     81.20      403.0893        7.9363      586.4040      594.3403     191.250935       0.79344
  20     96.49      403.0435        9.3719      583.8423      593.2142     190.170680       0.59622
  19     114.6      402.9348       11.0608      580.9336      591.9943     189.059497       0.51884
  18     136.5      402.7621       13.0382      577.6174      590.6556     187.893573       0.44833
  17     162.9      402.5187       15.3588      573.7759      589.1346     186.615929       0.40839
  16     196.4      402.1164       18.3179      568.8791      587.1970     185.080563       0.38647
  15     218.7      401.8234       20.2310      565.4440      585.6749     183.851586       0.46660
  14     243.0      401.4952       22.2829      561.3514      583.6343     182.139071       0.59396
  13     269.0      401.1313       24.4750      556.3595      580.8345     179.703242       0.79017
  12     297.5      400.7333       26.8079      550.3742      577.1821     176.448813       0.96523
  11     328.5      400.3092       29.2880      543.8540      573.1421     172.832909       0.98315
  10     361.9      399.8622       31.9116      536.8269      568.7385     168.876239       1.00108
   9     398.1      399.3962       34.6832      529.1377      563.8209     164.424671       1.03712
   8     437.6      398.9206       37.6016      520.6263      558.2279     159.307343       1.09412
   7     480.5      398.4436       40.6648      511.4281      552.0929     153.649348       1.11121
   6     533.0      397.9168       44.3473      500.1346      544.4819     146.565016       1.13964
   5     589.8      397.4546       48.2103      487.8599      536.0702     138.615680       1.17994
   4     651.6      397.1609       52.2452      474.0482      526.2933     129.132465       1.29686
   3     718.7      397.1644       56.4413      459.1429      515.5842     118.419797       1.34629
   2     792.3      397.7288       60.7820      443.0860      503.8680     106.139120       1.40846
   1     891.5      399.9321       66.3899      421.5844      487.9743      88.042193       1.53996
   0    1013.0      406.2140       72.7756      397.0361      469.8117      63.597726       1.69730



 Wavenumbers:  2600. -  3250. cm-1, ATM      1
 LEVEL PRESSURE   UPWARD FLUX   DIFDOWN FLUX  DIRDOWN FLUX  DOWNWARD FLUX   NET FLUX    HEATING RATE
          mb          W/m2          W/m2          W/m2        W/m2          W/m2       degree/day
  51    .06700        1.2636        0.0000        5.4450        5.4450       4.181419       0.00000
  50    .07753        1.2636        0.0000        5.4450        5.4450       4.181411       0.00640
  49    .09103        1.2636        0.0000        5.4450        5.4450       4.181401       0.00627
  48    0.1069        1.2636        0.0000        5.4450        5.4450       4.181390       0.00613
  47    0.1255        1.2636        0.0000        5.4450        5.4450       4.181377       0.00599
  46    0.1487        1.2636        0.0000        5.4450        5.4450       4.181360       0.00608
  45    0.1794        1.2636        0.0000        5.4450        5.4450       4.181337       0.00625
  44    0.2165        1.2636        0.0000        5.4449        5.4449       4.181310       0.00612
  43    0.2613        1.2636        0.0000        5.4449        5.4449       4.181279       0.00600
  42    0.3336        1.2636        0.0000        5.4448        5.4448       4.181226       0.00617
  41    0.4307        1.2636        0.0000        5.4448        5.4448       4.181154       0.00620
  40    0.5894        1.2636        0.0000        5.4446        5.4446       4.181035       0.00637
  39     1.339        1.2636        0.0000        5.4439        5.4439       4.180327       0.00797
  38     1.782        1.2636        0.0000        5.4434        5.4434       4.179784       0.01034
  37     2.292        1.2636        0.0000        5.4427        5.4427       4.179068       0.01186
  36     2.964        1.2636        0.0000        5.4416        5.4416       4.178029       0.01304
  35     3.853        1.2636        0.0000        5.4402        5.4402       4.176552       0.01402
  34     5.035        1.2636        0.0000        5.4381        5.4381       4.174497       0.01468
  33     6.613        1.2636        0.0000        5.4353        5.4353       4.171715       0.01487
  32     8.786        1.2636        0.0000        5.4317        5.4317       4.168083       0.01411
  31     11.80        1.2636        0.0000        5.4269        5.4269       4.163302       0.01338
  30     15.07        1.2636        0.0000        5.4224        5.4224       4.158775       0.01169
  29     18.79        1.2636        0.0000        5.4180        5.4180       4.154362       0.01001
  28     23.16        1.2636        0.0000        5.4135        5.4135       4.149874       0.00868
  27     28.12        1.2636        0.0000        5.4088        5.4088       4.145223       0.00791
  26     33.73        1.2636        0.0000        5.4036        5.4036       4.139978       0.00789
  25     40.54        1.2636        0.0000        5.3966        5.3967       4.133030       0.00862
  24     48.69        1.2636        0.0000        5.3872        5.3872       4.123544       0.00982
  23     57.69        1.2637        0.0000        5.3754        5.3754       4.111746       0.01106
  22     68.43        1.2637        0.0000        5.3599        5.3599       4.096237       0.01219
  21     81.20        1.2637        0.0000        5.3401        5.3401       4.076374       0.01313
  20     96.49        1.2638        0.0000        5.3155        5.3155       4.051765       0.01358
  19     114.6        1.2638        0.0000        5.2855        5.2856       4.021714       0.01403
  18     136.5        1.2639        0.0001        5.2509        5.2509       3.986972       0.01336
  17     162.9        1.2641        0.0001        5.2118        5.2118       3.947753       0.01254
  16     196.4        1.2643        0.0001        5.1655        5.1655       3.901184       0.01172
  15     218.7        1.2646        0.0001        5.1358        5.1359       3.871328       0.01134
  14     243.0        1.2650        0.0001        5.1015        5.1016       3.836603       0.01204
  13     269.0        1.2657        0.0001        5.0605        5.0606       3.794982       0.01350
  12     297.5        1.2666        0.0001        5.0109        5.0110       3.744423       0.01500
  11     328.5        1.2679        0.0001        4.9532        4.9534       3.685438       0.01604
  10     361.9        1.2697        0.0001        4.8843        4.8844       3.614706       0.01790
   9     398.1        1.2721        0.0002        4.7988        4.7989       3.526808       0.02048
   8     437.6        1.2754        0.0002        4.6889        4.6890       3.413651       0.02419
   7     480.5        1.2797        0.0002        4.5522        4.5524       3.272644       0.02769
   6     533.0        1.2866        0.0002        4.3602        4.3603       3.073709       0.03200
   5     589.8        1.2967        0.0002        4.1321        4.1323       2.835588       0.03535
   4     651.6        1.3126        0.0002        3.8597        3.8600       2.547379       0.03941
   3     718.7        1.3371        0.0002        3.5679        3.5681       2.231071       0.03975
   2     792.3        1.3763        0.0002        3.2494        3.2496       1.873295       0.04103
   1     891.5        1.4633        0.0002        2.8072        2.8074       1.344117       0.04503
   0    1013.0        1.6647        0.0002        2.3180        2.3182       0.653486       0.04795



 Wavenumbers:  3250. -  4000. cm-1, ATM      1
 LEVEL PRESSURE   UPWARD FLUX   DIFDOWN FLUX  DIRDOWN FLUX  DOWNWARD FLUX   NET FLUX    HEATING RATE
          mb          W/m2          W/m2          W/m2        W/m2          W/m2       degree/day
  51    .06700        0.0015        0.0000        9.1795        9.1795       9.178013       0.00000
  50    .07753        0.0015        0.0000        9.1747        9.1747       9.173221       3.84074
  49    .09103        0.0015        0.0000        9.1714        9.1714       9.169887       2.08369
  48    0.1069        0.0015        0.0000        9.1689        9.1689       9.167418       1.31424
  47    0.1255        0.0015        0.0000        9.1667        9.1667       9.165217       0.99805
  46    0.1487        0.0015        0.0000        9.1644        9.1644       9.162843       0.86515
  45    0.1794        0.0015        0.0000        9.1616        9.1616       9.160048       0.76747
  44    0.2165        0.0015        0.0000        9.1587        9.1587       9.157216       0.64415
  43    0.2613        0.0015        0.0000        9.1559        9.1559       9.154341       0.54186
  42    0.3336        0.0015        0.0000        9.1518        9.1518       9.150323       0.46845
  41    0.4307        0.0015        0.0000        9.1473        9.1473       9.145769       0.39603
  40    0.5894        0.0015        0.0000        9.1406        9.1406       9.139092       0.35506
  39     1.339        0.0015        0.0000        9.1150        9.1150       9.113515       0.28795
  38     1.782        0.0015        0.0000        9.1038        9.1038       9.102245       0.21456
  37     2.292        0.0015        0.0000        9.0930        9.0930       9.091447       0.17885
  36     2.964        0.0015        0.0000        9.0808        9.0808       9.079321       0.15222
  35     3.853        0.0015        0.0000        9.0664        9.0664       9.064933       0.13655
  34     5.035        0.0015        0.0000        9.0483        9.0483       9.046779       0.12968
  33     6.613        0.0015        0.0000        9.0241        9.0241       9.022606       0.12923
  32     8.786        0.0015        0.0000        8.9904        8.9904       8.988911       0.13086
  31     11.80        0.0015        0.0000        8.9403        8.9403       8.938789       0.14033
  30     15.07        0.0015        0.0000        8.8848        8.8849       8.883365       0.14309
  29     18.79        0.0015        0.0000        8.8213        8.8214       8.819871       0.14396
  28     23.16        0.0015        0.0000        8.7479        8.7480       8.746489       0.14190
  27     28.12        0.0015        0.0000        8.6676        8.6676       8.666126       0.13661
  26     33.73        0.0015        0.0000        8.5844        8.5845       8.583018       0.12496
  25     40.54        0.0015        0.0001        8.4940        8.4940       8.492555       0.11223
  24     48.69        0.0015        0.0001        8.3971        8.3972       8.395761       0.10017
  23     57.69        0.0014        0.0001        8.3004        8.3004       8.298995       0.09070
  22     68.43        0.0014        0.0001        8.1911        8.1912       8.189755       0.08588
  21     81.20        0.0014        0.0001        8.0639        8.0640       8.062626       0.08400
  20     96.49        0.0014        0.0001        7.9159        7.9160       7.914590       0.08170
  19     114.6        0.0014        0.0001        7.7420        7.7421       7.740764       0.08116
  18     136.5        0.0013        0.0002        7.5505        7.5506       7.549281       0.07363
  17     162.9        0.0013        0.0002        7.3328        7.3330       7.331651       0.06956
  16     196.4        0.0013        0.0002        7.0337        7.0339       7.032666       0.07526
  15     218.7        0.0013        0.0002        6.7532        6.7534       6.752190       0.10649
  14     243.0        0.0012        0.0003        6.3850        6.3852       6.383982       0.12771
  13     269.0        0.0012        0.0003        5.9274        5.9277       5.926486       0.14841
  12     297.5        0.0012        0.0003        5.3940        5.3942       5.393023       0.15822
  11     328.5        0.0012        0.0003        4.8442        4.8445       4.843300       0.14947
  10     361.9        0.0012        0.0003        4.2889        4.2892       4.288042       0.14049
   9     398.1        0.0011        0.0002        3.7582        3.7585       3.757313       0.12365
   8     437.6        0.0011        0.0002        3.2596        3.2598       3.258690       0.10661
   7     480.5        0.0011        0.0002        2.8042        2.8045       2.803307       0.08944
   6     533.0        0.0012        0.0002        2.3266        2.3268       2.325616       0.07685
   5     589.8        0.0012        0.0002        1.8712        1.8714       1.870176       0.06760
   4     651.6        0.0014        0.0002        1.4065        1.4066       1.405264       0.06358
   3     718.7        0.0016        0.0001        0.9631        0.9632       0.961548       0.05576
   2     792.3        0.0023        0.0001        0.5781        0.5782       0.575884       0.04423
   1     891.5        0.0052        0.0000        0.2261        0.2261       0.220848       0.03021
   0    1013.0        0.0268        0.0000        0.0373        0.0373       0.010525       0.01460



 Wavenumbers:  4000. -  4650. cm-1, ATM      1
 LEVEL PRESSURE   UPWARD FLUX   DIFDOWN FLUX  DIRDOWN FLUX  DOWNWARD FLUX   NET FLUX    HEATING RATE
          mb          W/m2          W/m2          W/m2        W/m2          W/m2       degree/day
  51    .06700        4.7330        0.0000       10.7795       10.7795       6.046527       0.00000
  50    .07753        4.7330        0.0000       10.7795       10.7795       6.046526       0.00080
  49    .09103        4.7330        0.0000       10.7795       10.7795       6.046525       0.00078
  48    0.1069        4.7330        0.0000       10.7795       10.7795       6.046523       0.00077
  47    0.1255        4.7330        0.0000       10.7795       10.7795       6.046522       0.00075
  46    0.1487        4.7330        0.0000       10.7795       10.7795       6.046520       0.00076
  45    0.1794        4.7330        0.0000       10.7795       10.7795       6.046517       0.00078
  44    0.2165        4.7330        0.0000       10.7795       10.7795       6.046513       0.00077
  43    0.2613        4.7330        0.0000       10.7795       10.7795       6.046509       0.00075
  42    0.3336        4.7330        0.0000       10.7795       10.7795       6.046503       0.00077
  41    0.4307        4.7330        0.0000       10.7795       10.7795       6.046494       0.00078
  40    0.5894        4.7330        0.0000       10.7795       10.7795       6.046479       0.00080
  39     1.339        4.7330        0.0000       10.7794       10.7794       6.046389       0.00101
  38     1.782        4.7330        0.0000       10.7793       10.7793       6.046319       0.00134
  37     2.292        4.7330        0.0000       10.7792       10.7792       6.046225       0.00156
  36     2.964        4.7330        0.0000       10.7791       10.7791       6.046084       0.00177
  35     3.853        4.7330        0.0000       10.7789       10.7789       6.045875       0.00198
  34     5.035        4.7330        0.0000       10.7785       10.7786       6.045567       0.00220
  33     6.613        4.7330        0.0000       10.7781       10.7781       6.045113       0.00242
  32     8.786        4.7330        0.0000       10.7774       10.7774       6.044444       0.00260
  31     11.80        4.7330        0.0001       10.7763       10.7764       6.043392       0.00295
  30     15.07        4.7330        0.0001       10.7751       10.7751       6.042158       0.00319
  29     18.79        4.7330        0.0001       10.7736       10.7736       6.040665       0.00338
  28     23.16        4.7330        0.0001       10.7717       10.7718       6.038811       0.00358
  27     28.12        4.7330        0.0001       10.7694       10.7695       6.036568       0.00381
  26     33.73        4.7330        0.0002       10.7666       10.7668       6.033800       0.00416
  25     40.54        4.7330        0.0002       10.7628       10.7630       6.030046       0.00466
  24     48.69        4.7330        0.0002       10.7578       10.7580       6.025043       0.00518
  23     57.69        4.7330        0.0003       10.7519       10.7521       6.019110       0.00556
  22     68.43        4.7331        0.0003       10.7444       10.7448       6.011673       0.00585
  21     81.20        4.7332        0.0004       10.7353       10.7357       6.002513       0.00605
  20     96.49        4.7333        0.0004       10.7242       10.7247       5.991364       0.00615
  19     114.6        4.7335        0.0005       10.7105       10.7110       5.977558       0.00645
  18     136.5        4.7338        0.0006       10.6941       10.6947       5.960919       0.00640
  17     162.9        4.7342        0.0007       10.6740       10.6748       5.940585       0.00650
  16     196.4        4.7349        0.0009       10.6468       10.6477       5.912790       0.00700
  15     218.7        4.7356        0.0010       10.6268       10.6278       5.892125       0.00785
  14     243.0        4.7367        0.0011       10.6012       10.6023       5.865650       0.00918
  13     269.0        4.7382        0.0012       10.5674       10.5686       5.830408       0.01143
  12     297.5        4.7405        0.0013       10.5231       10.5245       5.783962       0.01378
  11     328.5        4.7436        0.0015       10.4686       10.4701       5.726539       0.01561
  10     361.9        4.7477        0.0016       10.4002       10.4018       5.654085       0.01833
   9     398.1        4.7530        0.0018       10.3125       10.3142       5.561217       0.02164
   8     437.6        4.7596        0.0019       10.2006       10.2025       5.442924       0.02529
   7     480.5        4.7677        0.0021       10.0652       10.0672       5.299493       0.02817
   6     533.0        4.7797        0.0023        9.8852        9.8875       5.107782       0.03084
   5     589.8        4.7959        0.0025        9.6807        9.6832       4.887300       0.03273
   4     651.6        4.8197        0.0027        9.4322        9.4349       4.615197       0.03721
   3     718.7        4.8555        0.0029        9.1177        9.1206       4.265084       0.04400
   2     792.3        4.9127        0.0031        8.7044        8.7075       3.794792       0.05394
   1     891.5        5.0394        0.0033        8.0904        8.0937       3.054284       0.06301
   0    1013.0        5.3269        0.0035        7.4142        7.4177       2.090773       0.06690



 Wavenumbers:  4650. -  5150. cm-1, ATM      1
 LEVEL PRESSURE   UPWARD FLUX   DIFDOWN FLUX  DIRDOWN FLUX  DOWNWARD FLUX   NET FLUX    HEATING RATE
          mb          W/m2          W/m2          W/m2        W/m2          W/m2       degree/day
  51    .06700        3.3059        0.0000       10.2033       10.2033       6.897479       0.00000
  50    .07753        3.3059        0.0000       10.2031       10.2031       6.897244       0.18861
  49    .09103        3.3059        0.0000       10.2028       10.2028       6.896949       0.18389
  48    0.1069        3.3059        0.0000       10.2025       10.2025       6.896613       0.17893
  47    0.1255        3.3059        0.0000       10.2021       10.2021       6.896230       0.17389
  46    0.1487        3.3059        0.0000       10.2016       10.2016       6.895750       0.17499
  45    0.1794        3.3059        0.0000       10.2010       10.2010       6.895101       0.17813
  44    0.2165        3.3059        0.0000       10.2002       10.2002       6.894343       0.17241
  43    0.2613        3.3059        0.0000       10.1993       10.1993       6.893459       0.16655
  42    0.3336        3.3059        0.0000       10.1979       10.1979       6.892030       0.16667
  41    0.4307        3.3059        0.0000       10.1961       10.1961       6.890193       0.15969
  40    0.5894        3.3059        0.0000       10.1932       10.1932       6.887325       0.15251
  39     1.339        3.3059        0.0000       10.1816       10.1816       6.875757       0.13023
  38     1.782        3.3059        0.0000       10.1761       10.1761       6.870240       0.10505
  37     2.292        3.3059        0.0000       10.1706       10.1706       6.864794       0.09019
  36     2.964        3.3059        0.0000       10.1647       10.1647       6.858882       0.07421
  35     3.853        3.3059        0.0000       10.1585       10.1585       6.852680       0.05886
  34     5.035        3.3058        0.0000       10.1522       10.1522       6.846355       0.04518
  33     6.613        3.3058        0.0000       10.1457       10.1458       6.839908       0.03446
  32     8.786        3.3058        0.0001       10.1387       10.1388       6.832907       0.02719
  31     11.80        3.3058        0.0001       10.1296       10.1297       6.823877       0.02528
  30     15.07        3.3058        0.0001       10.1198       10.1199       6.814008       0.02548
  29     18.79        3.3059        0.0001       10.1077       10.1079       6.802010       0.02720
  28     23.16        3.3059        0.0002       10.0924       10.0926       6.786717       0.02957
  27     28.12        3.3059        0.0002       10.0734       10.0735       6.767635       0.03244
  26     33.73        3.3059        0.0002       10.0503       10.0505       6.744552       0.03470
  25     40.54        3.3060        0.0003       10.0204       10.0207       6.714661       0.03708
  24     48.69        3.3061        0.0003        9.9823        9.9826       6.676499       0.03949
  23     57.69        3.3062        0.0004        9.9388        9.9392       6.632962       0.04081
  22     68.43        3.3064        0.0004        9.8862        9.8867       6.580220       0.04146
  21     81.20        3.3067        0.0005        9.8240        9.8245       6.517799       0.04125
  20     96.49        3.3071        0.0006        9.7524        9.7530       6.445915       0.03967
  19     114.6        3.3076        0.0007        9.6727        9.6734       6.365768       0.03742
  18     136.5        3.3084        0.0009        9.5867        9.5875       6.279155       0.03330
  17     162.9        3.3094        0.0010        9.4951        9.4961       6.186694       0.02955
  16     196.4        3.3111        0.0012        9.3896        9.3908       6.079733       0.02692
  15     218.7        3.3124        0.0014        9.3247        9.3260       6.013631       0.02510
  14     243.0        3.3141        0.0015        9.2547        9.2563       5.942172       0.02478
  13     269.0        3.3163        0.0017        9.1768        9.1784       5.862090       0.02598
  12     297.5        3.3194        0.0018        9.0861        9.0879       5.768522       0.02775
  11     328.5        3.3236        0.0020        8.9801        8.9821       5.658494       0.02992
  10     361.9        3.3289        0.0022        8.8573        8.8595       5.530551       0.03237
   9     398.1        3.3357        0.0024        8.7144        8.7168       5.381037       0.03483
   8     437.6        3.3446        0.0026        8.5472        8.5498       5.205179       0.03760
   7     480.5        3.3560        0.0027        8.3551        8.3578       5.001866       0.03993
   6     533.0        3.3731        0.0030        8.1012        8.1042       4.731130       0.04355
   5     589.8        3.3963        0.0032        7.8097        7.8129       4.416600       0.04669
   4     651.6        3.4296        0.0034        7.4711        7.4745       4.044940       0.05083
   3     718.7        3.4775        0.0036        7.0949        7.0986       3.621077       0.05327
   2     792.3        3.5493        0.0038        6.6847        6.6885       3.139145       0.05527
   1     891.5        3.6935        0.0040        6.1483        6.1523       2.458786       0.05790
   0    1013.0        3.9823        0.0042        5.5410        5.5452       1.562872       0.06221



 Wavenumbers:  5150. -  6150. cm-1, ATM      1
 LEVEL PRESSURE   UPWARD FLUX   DIFDOWN FLUX  DIRDOWN FLUX  DOWNWARD FLUX   NET FLUX    HEATING RATE
          mb          W/m2          W/m2          W/m2        W/m2          W/m2       degree/day
  51    .06700        8.3122        0.0000       25.5798       25.5798      17.267591       0.00000
  50    .07753        8.3122        0.0000       25.5798       25.5798      17.267562       0.02314
  49    .09103        8.3122        0.0000       25.5798       25.5798      17.267524       0.02350
  48    0.1069        8.3122        0.0000       25.5797       25.5797      17.267479       0.02387
  47    0.1255        8.3122        0.0000       25.5797       25.5797      17.267426       0.02423
  46    0.1487        8.3122        0.0000       25.5796       25.5796      17.267356       0.02553
  45    0.1794        8.3122        0.0000       25.5795       25.5795      17.267257       0.02718
  44    0.2165        8.3122        0.0000       25.5794       25.5794      17.267135       0.02759
  43    0.2613        8.3122        0.0000       25.5792       25.5792      17.266987       0.02802
  42    0.3336        8.3122        0.0000       25.5790       25.5790      17.266733       0.02961
  41    0.4307        8.3122        0.0000       25.5786       25.5786      17.266388       0.03002
  40    0.5894        8.3122        0.0000       25.5780       25.5780      17.265809       0.03078
  39     1.339        8.3122        0.0000       25.5752       25.5752      17.263013       0.03147
  38     1.782        8.3122        0.0001       25.5735       25.5736      17.261379       0.03111
  37     2.292        8.3122        0.0001       25.5717       25.5717      17.259525       0.03072
  36     2.964        8.3122        0.0001       25.5693       25.5694      17.257160       0.02968
  35     3.853        8.3122        0.0001       25.5662       25.5663      17.254142       0.02864
  34     5.035        8.3122        0.0002       25.5623       25.5624      17.250234       0.02792
  33     6.613        8.3122        0.0002       25.5571       25.5573      17.245130       0.02729
  32     8.786        8.3122        0.0003       25.5504       25.5506      17.238456       0.02592
  31     11.80        8.3122        0.0004       25.5411       25.5415      17.229322       0.02557
  30     15.07        8.3122        0.0005       25.5318       25.5322      17.220035       0.02398
  29     18.79        8.3122        0.0006       25.5218       25.5224      17.210186       0.02233
  28     23.16        8.3122        0.0007       25.5109       25.5116      17.199407       0.02084
  27     28.12        8.3122        0.0009       25.4992       25.5001      17.187875       0.01960
  26     33.73        8.3123        0.0010       25.4872       25.4882      17.175957       0.01792
  25     40.54        8.3123        0.0012       25.4738       25.4750      17.162704       0.01644
  24     48.69        8.3125        0.0015       25.4592       25.4607      17.148251       0.01496
  23     57.69        8.3126        0.0017       25.4445       25.4462      17.133634       0.01370
  22     68.43        8.3128        0.0021       25.4282       25.4303      17.117471       0.01271
  21     81.20        8.3131        0.0024       25.4101       25.4125      17.099428       0.01192
  20     96.49        8.3135        0.0029       25.3894       25.3923      17.078863       0.01135
  19     114.6        8.3139        0.0035       25.3655       25.3690      17.055065       0.01111
  18     136.5        8.3144        0.0041       25.3375       25.3416      17.027183       0.01072
  17     162.9        8.3151        0.0049       25.2964       25.3013      16.986123       0.01312
  16     196.4        8.3161        0.0059       25.2114       25.2172      16.901127       0.02139
  15     218.7        8.3168        0.0065       25.0883       25.0948      16.778032       0.04673
  14     243.0        8.3176        0.0072       24.8419       24.8491      16.531464       0.08552
  13     269.0        8.3186        0.0078       24.3852       24.3930      16.074393       0.14827
  12     297.5        8.3200        0.0085       23.7440       23.7525      15.432554       0.19036
  11     328.5        8.3217        0.0092       23.0879       23.0971      14.775430       0.17867
  10     361.9        8.3238        0.0099       22.3778       22.3876      14.063818       0.18004
   9     398.1        8.3265        0.0105       21.5483       21.5588      13.232296       0.19373
   8     437.6        8.3301        0.0112       20.6055       20.6167      12.286640       0.20219
   7     480.5        8.3347        0.0118       19.6161       19.6279      11.293186       0.19511
   6     533.0        8.3421        0.0125       18.4618       18.4743      10.132194       0.18677
   5     589.8        8.3533        0.0132       17.3155       17.3287       8.975368       0.17171
   4     651.6        8.3723        0.0138       16.1919       16.2058       7.833421       0.15616
   3     718.7        8.4047        0.0146       15.2319       15.2465       6.841755       0.12462
   2     792.3        8.4630        0.0154       14.4337       14.4491       5.986141       0.09813
   1     891.5        8.6101        0.0165       13.5389       13.5554       4.945361       0.08857
   0    1013.0        9.0075        0.0178       12.5239       12.5416       3.534138       0.09799



 Wavenumbers:  6150. -  7700. cm-1, ATM      1
 LEVEL PRESSURE   UPWARD FLUX   DIFDOWN FLUX  DIRDOWN FLUX  DOWNWARD FLUX   NET FLUX    HEATING RATE
          mb          W/m2          W/m2          W/m2        W/m2          W/m2       degree/day
  51    .06700       12.6255        0.0000       47.3109       47.3109      34.685361       0.00000
  50    .07753       12.6255        0.0000       47.3108       47.3108      34.685316       0.03677
  49    .09103       12.6255        0.0000       47.3107       47.3108      34.685256       0.03692
  48    0.1069       12.6255        0.0000       47.3107       47.3107      34.685187       0.03708
  47    0.1255       12.6255        0.0000       47.3106       47.3106      34.685105       0.03723
  46    0.1487       12.6255        0.0000       47.3105       47.3105      34.684998       0.03879
  45    0.1794       12.6255        0.0000       47.3103       47.3103      34.684849       0.04090
  44    0.2165       12.6255        0.0000       47.3101       47.3102      34.684669       0.04113
  43    0.2613       12.6255        0.0000       47.3099       47.3099      34.684449       0.04138
  42    0.3336       12.6255        0.0000       47.3095       47.3096      34.684077       0.04337
  41    0.4307       12.6255        0.0000       47.3090       47.3090      34.683574       0.04370
  40    0.5894       12.6255        0.0001       47.3081       47.3082      34.682737       0.04453
  39     1.339       12.6254        0.0002       47.3039       47.3041      34.678714       0.04529
  38     1.782       12.6254        0.0002       47.3015       47.3017      34.676364       0.04474
  37     2.292       12.6253        0.0003       47.2987       47.2990      34.673687       0.04434
  36     2.964       12.6252        0.0004       47.2951       47.2955      34.670253       0.04311
  35     3.853       12.6252        0.0005       47.2905       47.2910      34.665836       0.04191
  34     5.035       12.6251        0.0006       47.2845       47.2852      34.660087       0.04107
  33     6.613       12.6249        0.0008       47.2767       47.2775      34.652543       0.04033
  32     8.786       12.6248        0.0011       47.2663       47.2674      34.642614       0.03856
  31     11.80       12.6245        0.0015       47.2519       47.2534      34.628879       0.03845
  30     15.07       12.6242        0.0019       47.2371       47.2389      34.614725       0.03654
  29     18.79       12.6239        0.0023       47.2210       47.2234      34.599468       0.03459
  28     23.16       12.6235        0.0029       47.2032       47.2060      34.582487       0.03284
  27     28.12       12.6231        0.0035       47.1836       47.1871      34.564003       0.03142
  26     33.73       12.6226        0.0042       47.1630       47.1672      34.544540       0.02926
  25     40.54       12.6221        0.0050       47.1396       47.1446      34.522533       0.02730
  24     48.69       12.6214        0.0060       47.1134       47.1194      34.498028       0.02536
  23     57.69       12.6206        0.0071       47.0864       47.0935      34.472882       0.02357
  22     68.43       12.6197        0.0084       47.0560       47.0644      34.444714       0.02214
  21     81.20       12.6186        0.0100       47.0216       47.0316      34.412955       0.02099
  20     96.49       12.6174        0.0119       46.9821       46.9939      34.376577       0.02008
  19     114.6       12.6158        0.0141       46.9362       46.9503      34.334429       0.01968
  18     136.5       12.6140        0.0168       46.8824       46.8991      34.285080       0.01898
  17     162.9       12.6119        0.0199       46.8071       46.8270      34.215110       0.02237
  16     196.4       12.6092        0.0240       46.6608       46.6848      34.075616       0.03511
  15     218.7       12.6075        0.0266       46.4649       46.4915      33.884020       0.07274
  14     243.0       12.6058        0.0294       46.1126       46.1420      33.536186       0.12064
  13     269.0       12.6042        0.0322       45.4974       45.5296      32.925426       0.19813
  12     297.5       12.6030        0.0350       44.5174       44.5524      31.949421       0.28947
  11     328.5       12.6022        0.0378       43.3614       43.3992      30.796973       0.31335
  10     361.9       12.6023        0.0407       42.1201       42.1608      29.558496       0.31335
   9     398.1       12.6035        0.0436       40.7427       40.7863      28.182774       0.32051
   8     437.6       12.6068        0.0464       39.1316       39.1780      26.571260       0.34455
   7     480.5       12.6128        0.0490       37.3391       37.3881      24.775264       0.35273
   6     533.0       12.6254        0.0518       35.1579       35.2097      22.584334       0.35245
   5     589.8       12.6483        0.0543       32.8475       32.9019      20.253559       0.34596
   4     651.6       12.6928        0.0564       30.3251       30.3815      17.688697       0.35075
   3     718.7       12.7741        0.0582       27.8272       27.8855      15.111344       0.32390
   2     792.3       12.9253        0.0597       25.3843       25.4440      12.518709       0.29735
   1     891.5       13.3073        0.0614       22.5483       22.6097       9.302391       0.27369
   0    1013.0       14.3097        0.0633       19.8572       19.9205       5.610784       0.25633



 Wavenumbers:  7700. -  8050. cm-1, ATM      1
 LEVEL PRESSURE   UPWARD FLUX   DIFDOWN FLUX  DIRDOWN FLUX  DOWNWARD FLUX   NET FLUX    HEATING RATE
          mb          W/m2          W/m2          W/m2        W/m2          W/m2       degree/day
  51    .06700        6.3964        0.0000       11.1810       11.1810       4.784533       0.00000
  50    .07753        6.3964        0.0000       11.1809       11.1809       4.784511       0.01764
  49    .09103        6.3964        0.0000       11.1809       11.1809       4.784483       0.01729
  48    0.1069        6.3964        0.0000       11.1809       11.1809       4.784451       0.01693
  47    0.1255        6.3965        0.0000       11.1809       11.1809       4.784415       0.01656
  46    0.1487        6.3965        0.0000       11.1808       11.1808       4.784369       0.01681
  45    0.1794        6.3965        0.0000       11.1808       11.1808       4.784306       0.01729
  44    0.2165        6.3965        0.0000       11.1807       11.1807       4.784231       0.01696
  43    0.2613        6.3965        0.0000       11.1806       11.1806       4.784143       0.01665
  42    0.3336        6.3965        0.0000       11.1805       11.1805       4.783997       0.01703
  41    0.4307        6.3966        0.0000       11.1803       11.1804       4.783803       0.01685
  40    0.5894        6.3966        0.0000       11.1801       11.1801       4.783486       0.01683
  39     1.339        6.3969        0.0001       11.1788       11.1789       4.781989       0.01686
  38     1.782        6.3971        0.0001       11.1781       11.1782       4.781110       0.01674
  37     2.292        6.3972        0.0001       11.1772       11.1773       4.780092       0.01686
  36     2.964        6.3975        0.0002       11.1761       11.1762       4.778755       0.01678
  35     3.853        6.3978        0.0002       11.1746       11.1748       4.776989       0.01676
  34     5.035        6.3982        0.0003       11.1726       11.1729       4.774644       0.01676
  33     6.613        6.3988        0.0004       11.1700       11.1703       4.771511       0.01675
  32     8.786        6.3996        0.0005       11.1664       11.1669       4.767291       0.01639
  31     11.80        6.4007        0.0007       11.1613       11.1620       4.761257       0.01689
  30     15.07        6.4019        0.0008       11.1558       11.1567       4.754785       0.01671
  29     18.79        6.4033        0.0011       11.1497       11.1507       4.747480       0.01656
  28     23.16        6.4048        0.0013       11.1425       11.1438       4.738958       0.01648
  27     28.12        6.4067        0.0016       11.1343       11.1359       4.729228       0.01654
  26     33.73        6.4087        0.0019       11.1252       11.1271       4.718359       0.01634
  25     40.54        6.4112        0.0023       11.1142       11.1165       4.705258       0.01625
  24     48.69        6.4142        0.0027       11.1010       11.1037       4.689508       0.01630
  23     57.69        6.4176        0.0032       11.0866       11.0898       4.672266       0.01616
  22     68.43        6.4215        0.0038       11.0695       11.0734       4.651810       0.01608
  21     81.20        6.4263        0.0045       11.0494       11.0539       4.627553       0.01603
  20     96.49        6.4321        0.0054       11.0255       11.0309       4.598813       0.01586
  19     114.6        6.4390        0.0064       10.9975       11.0039       4.564914       0.01583
  18     136.5        6.4473        0.0076       10.9648       10.9723       4.525044       0.01533
  17     162.9        6.4573        0.0090       10.9263       10.9353       4.477980       0.01504
  16     196.4        6.4705        0.0108       10.8772       10.8881       4.417579       0.01520
  15     218.7        6.4793        0.0120       10.8455       10.8575       4.378250       0.01493
  14     243.0        6.4890        0.0133       10.8115       10.8248       4.335750       0.01474
  13     269.0        6.4997        0.0147       10.7749       10.7897       4.289920       0.01487
  12     297.5        6.5116        0.0163       10.7358       10.7521       4.240547       0.01464
  11     328.5        6.5246        0.0179       10.6940       10.7119       4.187319       0.01447
  10     361.9        6.5391        0.0197       10.6494       10.6691       4.130028       0.01450
   9     398.1        6.5551        0.0216       10.6017       10.6233       4.068216       0.01440
   8     437.6        6.5729        0.0236       10.5507       10.5743       4.001346       0.01430
   7     480.5        6.5929        0.0258       10.4959       10.5217       3.928810       0.01425
   6     533.0        6.6188        0.0285       10.4282       10.4567       3.837885       0.01463
   5     589.8        6.6487        0.0314       10.3541       10.3855       3.736827       0.01500
   4     651.6        6.6840        0.0345       10.2713       10.3058       3.621725       0.01574
   3     718.7        6.7265        0.0378       10.1776       10.2154       3.488930       0.01669
   2     792.3        6.7788        0.0413       10.0691       10.1104       3.331553       0.01805
   1     891.5        6.8643        0.0459        9.9058        9.9518       3.087455       0.02077
   0    1013.0        6.9944        0.0514        9.6834        9.7347       2.740326       0.02410



 Wavenumbers:  8050. - 12850. cm-1, ATM      1
 LEVEL PRESSURE   UPWARD FLUX   DIFDOWN FLUX  DIRDOWN FLUX  DOWNWARD FLUX   NET FLUX    HEATING RATE
          mb          W/m2          W/m2          W/m2        W/m2          W/m2       degree/day
  51    .06700       80.4913        0.0000      156.5418      156.5418      76.050481       0.00000
  50    .07753       80.4913        0.0000      156.5417      156.5417      76.050481       0.00000
  49    .09103       80.4912        0.0001      156.5417      156.5417      76.050481      -0.00000
  48    0.1069       80.4912        0.0001      156.5416      156.5417      76.050481       0.00000
  47    0.1255       80.4912        0.0002      156.5415      156.5417      76.050481      -0.00000
  46    0.1487       80.4912        0.0002      156.5414      156.5416      76.050481       0.00000
  45    0.1794       80.4911        0.0003      156.5413      156.5416      76.050481       0.00000
  44    0.2165       80.4911        0.0004      156.5412      156.5416      76.050481      -0.00000
  43    0.2613       80.4910        0.0005      156.5410      156.5415      76.050481       0.00000
  42    0.3336       80.4909        0.0007      156.5407      156.5414      76.050481      -0.00000
  41    0.4307       80.4908        0.0010      156.5403      156.5413      76.050481       0.00000
  40    0.5894       80.4906        0.0014      156.5397      156.5411      76.050481       0.00000
  39     1.339       80.4897        0.0035      156.5367      156.5402      76.050481       0.00000
  38     1.782       80.4892        0.0046      156.5350      156.5396      76.050481       0.00000
  37     2.292       80.4885        0.0060      156.5330      156.5390      76.050481       0.00000
  36     2.964       80.4877        0.0078      156.5303      156.5382      76.050481      -0.00000
  35     3.853       80.4866        0.0102      156.5268      156.5371      76.050481       0.00000
  34     5.035       80.4852        0.0134      156.5222      156.5356      76.050481      -0.00000
  33     6.613       80.4832        0.0177      156.5160      156.5337      76.050481       0.00000
  32     8.786       80.4806        0.0235      156.5076      156.5311      76.050481      -0.00000
  31     11.80       80.4769        0.0317      156.4957      156.5274      76.050481      -0.00000
  30     15.07       80.4729        0.0406      156.4828      156.5233      76.050481       0.00000
  29     18.79       80.4683        0.0506      156.4682      156.5188      76.050481       0.00000
  28     23.16       80.4630        0.0623      156.4512      156.5135      76.050481      -0.00000
  27     28.12       80.4569        0.0757      156.4317      156.5074      76.050481       0.00000
  26     33.73       80.4501        0.0907      156.4099      156.5006      76.050481       0.00000
  25     40.54       80.4418        0.1089      156.3834      156.4923      76.050481       0.00000
  24     48.69       80.4318        0.1308      156.3515      156.4823      76.050481      -0.00000
  23     57.69       80.4209        0.1549      156.3164      156.4714      76.050481      -0.00000
  22     68.43       80.4078        0.1837      156.2746      156.4583      76.050481       0.00000
  21     81.20       80.3922        0.2181      156.2246      156.4427      76.050481      -0.00000
  20     96.49       80.3735        0.2591      156.1649      156.4240      76.050481       0.00000
  19     114.6       80.3515        0.3078      156.0896      156.3974      76.045951       0.00212
  18     136.5       80.3252        0.3658      155.9998      156.3656      76.040323       0.00216
  17     162.9       80.2940        0.4349      155.8900      156.3249      76.030962       0.00299
  16     196.4       80.2533        0.5248      155.7354      156.2602      76.006857       0.00607
  15     218.7       80.2267        0.5839      155.6043      156.1882      75.961500       0.01722
  14     243.0       80.1982        0.6482      155.4027      156.0510      75.852775       0.03771
  13     269.0       80.1681        0.7178      155.0799      155.7977      75.629607       0.07239
  12     297.5       80.1375        0.7928      154.6013      155.3941      75.256686       0.11060
  11     328.5       80.1066        0.8737      154.0159      154.8896      74.783030       0.12879
  10     361.9       80.0767        0.9606      153.3226      154.2832      74.206506       0.14587
   9     398.1       80.0498        1.0537      152.4734      153.5272      73.477417       0.16986
   8     437.6       80.0292        1.1530      151.3909      152.5439      72.514721       0.20583
   7     480.5       80.0190        1.2583      150.0394      151.2977      71.278655       0.24276
   6     533.0       80.0289        1.3859      148.1146      149.5005      69.471569       0.29070
   5     589.8       80.0804        1.5203      145.6538      147.1741      67.093703       0.35295
   4     651.6       80.2211        1.6588      142.3462      144.0050      63.783887       0.45263
   3     718.7       80.5120        1.7997      138.2523      140.0520      59.540069       0.53333
   2     792.3       81.0862        1.9409      133.3106      135.2516      54.165384       0.61642
   1     891.5       82.5574        2.1142      126.0645      128.1787      45.621245       0.72707
   0    1013.0       86.1416        2.3010      117.4136      119.7145      33.572882       0.83658



 Wavenumbers: 12850. - 16000. cm-1, ATM      1
 LEVEL PRESSURE   UPWARD FLUX   DIFDOWN FLUX  DIRDOWN FLUX  DOWNWARD FLUX   NET FLUX    HEATING RATE
          mb          W/m2          W/m2          W/m2        W/m2          W/m2       degree/day
  51    .06700       72.8032        0.0000       98.0872       98.0872      25.284010       0.00000
  50    .07753       72.8032        0.0001       98.0864       98.0864      25.283220       0.63359
  49    .09103       72.8032        0.0002       98.0853       98.0854      25.282227       0.62039
  48    0.1069       72.8032        0.0003       98.0841       98.0843      25.281087       0.60692
  47    0.1255       72.8032        0.0004       98.0826       98.0830      25.279777       0.59373
  46    0.1487       72.8032        0.0005       98.0809       98.0814      25.278125       0.60227
  45    0.1794       72.8033        0.0007       98.0784       98.0792      25.275878       0.61683
  44    0.2165       72.8033        0.0009       98.0756       98.0766      25.273236       0.60101
  43    0.2613       72.8034        0.0012       98.0723       98.0736      25.270131       0.58537
  42    0.3336       72.8036        0.0017       98.0670       98.0687      25.265065       0.59060
  41    0.4307       72.8040        0.0023       98.0602       98.0625      25.258519       0.56916
  40    0.5894       72.8046        0.0033       98.0496       98.0529      25.248215       0.54796
  39     1.339       72.8106        0.0079       98.0043       98.0123      25.201707       0.52360
  38     1.782       72.8161        0.0107       97.9793       97.9900      25.173905       0.52930
  37     2.292       72.8243        0.0139       97.9498       97.9636      25.139360       0.57215
  36     2.964       72.8379        0.0180       97.9088       97.9269      25.088926       0.63311
  35     3.853       72.8600        0.0235       97.8503       97.8739      25.013914       0.71188
  34     5.035       72.8932        0.0309       97.7680       97.7988      24.905640       0.77346
  33     6.613       72.9396        0.0406       97.6562       97.6968      24.757183       0.79365
  32     8.786       73.0000        0.0538       97.5107       97.5644      24.564390       0.74874
  31     11.80       73.0786        0.0725       97.3179       97.3904      24.311756       0.70730
  30     15.07       73.1539        0.0927       97.1283       97.2210      24.067110       0.63163
  29     18.79       73.2307        0.1154       96.9300       97.0454      23.814737       0.57221
  28     23.16       73.3109        0.1420       96.7166       96.8585      23.547584       0.51659
  27     28.12       73.3916        0.1723       96.4935       96.6658      23.274138       0.46484
  26     33.73       73.4661        0.2062       96.2731       96.4793      23.013206       0.39232
  25     40.54       73.5377        0.2472       96.0408       96.2880      22.750244       0.32623
  24     48.69       73.6063        0.2966       95.7946       96.0912      22.484906       0.27458
  23     57.69       73.6643        0.3509       95.5573       95.9082      22.243859       0.22595
  22     68.43       73.7147        0.4156       95.3106       95.7262      22.011459       0.18270
  21     81.20       73.7492        0.4927       95.0644       95.5571      21.807923       0.13449
  20     96.49       73.7665        0.5848       94.8153       95.4001      21.633590       0.09622
  19     114.6       73.7870        0.6952       94.5411       95.2363      21.449320       0.08604
  18     136.5       73.8006        0.8260       94.2321       95.0581      21.257458       0.07378
  17     162.9       73.8072        0.9817       93.8756       94.8573      21.050121       0.06627
  16     196.4       73.7951        1.1837       93.4350       94.6187      20.823599       0.05702
  15     218.7       73.7798        1.3163       93.1520       94.4683      20.688530       0.05128
  14     243.0       73.7599        1.4605       92.8454       94.3058      20.545927       0.04946
  13     269.0       73.7352        1.6166       92.5141       94.1307      20.395518       0.04879
  12     297.5       73.7060        1.7854       92.1557       93.9410      20.234994       0.04761
  11     328.5       73.6740        1.9677       91.7664       93.7341      20.060076       0.04756
  10     361.9       73.6398        2.1639       91.3445       93.5084      19.868664       0.04843
   9     398.1       73.6041        2.3751       90.8865       93.2615      19.657469       0.04920
   8     437.6       73.5689        2.6017       90.3862       92.9879      19.419049       0.05098
   7     480.5       73.5360        2.8445       89.8391       92.6835      19.147509       0.05333
   6     533.0       73.5055        3.1431       89.1437       92.2868      18.781389       0.05890
   5     589.8       73.4913        3.4642       88.3565       91.8207      18.329332       0.06710
   4     651.6       73.5149        3.8078       87.4320       91.2398      17.724855       0.08266
   3     718.7       73.6004        4.1734       86.3412       90.5145      16.914134       0.10189
   2     792.3       73.7843        4.5576       85.0545       89.6121      15.827826       0.12459
   1     891.5       74.2578        5.0609       83.1065       88.1674      13.909557       0.16324
   0    1013.0       75.2605        5.6422       80.5798       86.2220      10.961504       0.20470



 Wavenumbers: 16000. - 22650. cm-1, ATM      1
 LEVEL PRESSURE   UPWARD FLUX   DIFDOWN FLUX  DIRDOWN FLUX  DOWNWARD FLUX   NET FLUX    HEATING RATE
          mb          W/m2          W/m2          W/m2        W/m2          W/m2       degree/day
  51    .06700      140.5809        0.0000      156.3892      156.3892      15.808326       0.00000
  50    .07753      140.5809        0.0004      156.3887      156.3891      15.808178       0.11819
  49    .09103      140.5809        0.0009      156.3879      156.3888      15.807964       0.13405
  48    0.1069      140.5809        0.0015      156.3871      156.3885      15.807677       0.15286
  47    0.1255      140.5809        0.0021      156.3861      156.3882      15.807293       0.17424
  46    0.1487      140.5809        0.0030      156.3847      156.3877      15.806726       0.20647
  45    0.1794      140.5811        0.0041      156.3828      156.3869      15.805841       0.24310
  44    0.2165      140.5813        0.0054      156.3805      156.3859      15.804639       0.27322
  43    0.2613      140.5816        0.0070      156.3776      156.3846      15.803010       0.30716
  42    0.3336      140.5824        0.0096      156.3726      156.3823      15.799912       0.36122
  41    0.4307      140.5836        0.0131      156.3657      156.3788      15.795242       0.40605
  40    0.5894      140.5862        0.0188      156.3537      156.3725      15.786335       0.47364
  39     1.339      140.6087        0.0458      156.2834      156.3292      15.720532       0.74082
  38     1.782      140.6295        0.0616      156.2324      156.2940      15.664476       1.06722
  37     2.292      140.6607        0.0799      156.1641      156.2440      15.583334       1.34392
  36     2.964      140.7126        0.1040      156.0605      156.1645      15.451884       1.65010
  35     3.853      140.7965        0.1357      155.9041      156.0398      15.243305       1.97946
  34     5.035      140.9231        0.1778      155.6774      155.8552      14.932121       2.22297
  33     6.613      141.1000        0.2340      155.3656      155.5997      14.499668       2.31189
  32     8.786      141.3304        0.3097      154.9577      155.2674      13.936951       2.18539
  31     11.80      141.6303        0.4178      154.4153      154.8330      13.202755       2.05552
  30     15.07      141.9175        0.5336      153.8804      154.4140      12.496486       1.82345
  29     18.79      142.2107        0.6643      153.3191      153.9834      11.772631       1.64120
  28     23.16      142.5172        0.8167      152.7126      153.5292      11.012051       1.47072
  27     28.12      142.8255        0.9907      152.0755      153.0662      10.240701       1.31124
  26     33.73      143.1100        1.1852      151.4409      152.6262       9.516177       1.08934
  25     40.54      143.3837        1.4201      150.7637      152.1838       8.800092       0.88838
  24     48.69      143.6456        1.7029      150.0338      151.7367       8.091163       0.73363
  23     57.69      143.8674        2.0132      149.3151      151.3283       7.460859       0.59082
  22     68.43      144.0607        2.3823      148.5476      150.9299       6.869174       0.46514
  21     81.20      144.1938        2.8218      147.7517      150.5735       6.379716       0.32343
  20     96.49      144.2620        3.3450      146.9127      150.2577       5.995618       0.21199
  19     114.6      144.2967        3.9644      145.9763      149.9407       5.644055       0.16416
  18     136.5      144.3064        4.6958      144.9088      149.6046       5.298213       0.13298
  17     162.9      144.2895        5.5627      143.6786      149.2413       4.951789       0.11073
  16     196.4      144.2060        6.6812      142.1651      148.8463       4.640244       0.07842
  15     218.7      144.1287        7.4121      141.2034      148.6155       4.486813       0.05825
  14     243.0      144.0343        8.2032      140.1755      148.3787       4.344410       0.04939
  13     269.0      143.9212        9.0566      139.0801      148.1367       4.215549       0.04180
  12     297.5      143.7886        9.9743      137.9151      147.8894       4.100758       0.03405
  11     328.5      143.6407       10.9608      136.6694      147.6302       3.989471       0.03026
  10     361.9      143.4770       12.0168      135.3422      147.3590       3.881971       0.02720
   9     398.1      143.2971       13.1464      133.9283      147.0747       3.777608       0.02431
   8     437.6      143.1016       14.3516      132.4236      146.7752       3.673618       0.02223
   7     480.5      142.8902       15.6345      130.8257      146.4602       3.570085       0.02033
   6     533.0      142.6292       17.2014      128.8769      146.0782       3.449069       0.01947
   5     589.8      142.3505       18.8754      126.7936      145.6691       3.318547       0.01937
   4     651.6      142.0590       20.6581      124.5671      145.2253       3.166229       0.02083
   3     718.7      141.7593       22.5513      122.1892      144.7405       2.981176       0.02326
   2     792.3      141.4641       24.5529      119.6481      144.2010       2.736976       0.02801
   1     891.5      141.1267       27.2103      116.2132      143.4235       2.296862       0.03745
   0    1013.0      140.8204       30.3337      112.0937      142.4274       1.607060       0.04790



 Wavenumbers: 22650. - 29000. cm-1, ATM      1
 LEVEL PRESSURE   UPWARD FLUX   DIFDOWN FLUX  DIRDOWN FLUX  DOWNWARD FLUX   NET FLUX    HEATING RATE
          mb          W/m2          W/m2          W/m2        W/m2          W/m2       degree/day
  51    .06700       58.3821        0.0000       59.0156       59.0156       0.633490       0.00000
  50    .07753       58.3820        0.0005       59.0151       59.0155       0.633490      -0.00000
  49    .09103       58.3819        0.0010       59.0144       59.0154       0.633490       0.00000
  48    0.1069       58.3818        0.0017       59.0136       59.0153       0.633490      -0.00000
  47    0.1255       58.3816        0.0025       59.0127       59.0151       0.633490      -0.00000
  46    0.1487       58.3814        0.0034       59.0115       59.0149       0.633490       0.00000
  45    0.1794       58.3812        0.0048       59.0099       59.0147       0.633490      -0.00000
  44    0.2165       58.3809        0.0063       59.0080       59.0144       0.633490       0.00000
  43    0.2613       58.3805        0.0082       59.0058       59.0140       0.633490      -0.00000
  42    0.3336       58.3799        0.0113       59.0022       59.0134       0.633490      -0.00000
  41    0.4307       58.3791        0.0153       58.9973       59.0126       0.633490       0.00000
  40    0.5894       58.3778        0.0220       58.9894       59.0113       0.633490      -0.00000
  39     1.339       58.3717        0.0534       58.9518       59.0052       0.633490       0.00000
  38     1.782       58.3681        0.0719       58.9297       59.0016       0.633490       0.00000
  37     2.292       58.3639        0.0933       58.9042       58.9974       0.633490       0.00000
  36     2.964       58.3585        0.1213       58.8706       58.9920       0.633490      -0.00000
  35     3.853       58.3512        0.1584       58.8264       58.9847       0.633490       0.00000
  34     5.035       58.3416        0.2076       58.7676       58.9751       0.633490       0.00000
  33     6.613       58.3288        0.2732       58.6891       58.9623       0.633490      -0.00000
  32     8.786       58.3116        0.3617       58.5834       58.9451       0.633490       0.00000
  31     11.80       58.2870        0.4880       58.4324       58.9204       0.633490      -0.00000
  30     15.07       58.2606        0.6234       58.2706       58.8940       0.633490       0.00000
  29     18.79       58.2308        0.7760       58.0882       58.8643       0.633490       0.00000
  28     23.16       58.1961        0.9539       57.8757       58.8296       0.633490       0.00000
  27     28.12       58.1565        1.1567       57.6333       58.7900       0.633490      -0.00000
  26     33.73       58.1124        1.3828       57.3631       58.7459       0.633490       0.00000
  25     40.54       58.0593        1.6549       57.0379       58.6928       0.633490       0.00000
  24     48.69       57.9956        1.9812       56.6479       58.6291       0.633490       0.00000
  23     57.69       57.9261        2.3375       56.2221       58.5596       0.633490       0.00000
  22     68.43       57.8438        2.7587       55.7186       58.4773       0.633490      -0.00000
  21     81.20       57.7466        3.2562       55.1239       58.3801       0.633490       0.00000
  20     96.49       57.6320        3.8427       54.4228       58.2655       0.633490      -0.00000
  19     114.6       57.4976        4.5301       53.6010       58.1311       0.633490       0.00000
  18     136.5       57.3407        5.3324       52.6418       57.9742       0.633490       0.00000
  17     162.9       57.1571        6.2703       51.5204       57.7906       0.633490       0.00000
  16     196.4       56.9244        7.4584       50.0995       57.5579       0.633490       0.00000
  15     218.7       56.7747        8.2219       49.1863       57.4082       0.633490      -0.00000
  14     243.0       56.6148        9.0370       48.2113       57.2483       0.633490       0.00000
  13     269.0       56.4447        9.9032       47.1750       57.0782       0.633490      -0.00000
  12     297.5       56.2646       10.8197       46.0784       56.8981       0.633490       0.00000
  11     328.5       56.0742       11.7879       44.9198       56.7077       0.633490      -0.00000
  10     361.9       55.8739       12.8052       43.7023       56.5074       0.633490       0.00000
   9     398.1       55.6637       13.8716       42.4257       56.2972       0.633490       0.00000
   8     437.6       55.4440       14.9849       41.0926       56.0775       0.633490       0.00000
   7     480.5       55.2152       16.1428       39.7058       55.8487       0.633490       0.00000
   6     533.0       54.9426       17.5199       38.0562       55.5760       0.633490       0.00000
   5     589.8       54.6597       18.9457       36.3475       55.2932       0.633490      -0.00000
   4     651.6       54.3674       20.4159       34.5849       55.0009       0.633490      -0.00000
   3     718.7       54.0670       21.9225       32.7780       54.7005       0.633490       0.00000
   2     792.3       53.7598       23.4589       30.9344       54.3933       0.633490      -0.00000
   1     891.5       53.3687       25.4072       28.5950       54.0021       0.633490       0.00000
   0    1013.0       52.9315       27.5731       25.9919       53.5650       0.633490      -0.00000



 Wavenumbers: 29000. - 38000. cm-1, ATM      1
 LEVEL PRESSURE   UPWARD FLUX   DIFDOWN FLUX  DIRDOWN FLUX  DOWNWARD FLUX   NET FLUX    HEATING RATE
          mb          W/m2          W/m2          W/m2        W/m2          W/m2       degree/day
  51    .06700        8.7365        0.0000       20.8114       20.8114      12.074846       0.00000
  50    .07753        8.7363        0.0003       20.8070       20.8074      12.071039       3.05152
  49    .09103        8.7361        0.0007       20.8009       20.8016      12.065502       3.46081
  48    0.1069        8.7358        0.0012       20.7928       20.7939      12.058092       3.94425
  47    0.1255        8.7356        0.0017       20.7820       20.7837      12.048187       4.49029
  46    0.1487        8.7352        0.0024       20.7665       20.7688      12.033624       5.30838
  45    0.1794        8.7348        0.0033       20.7424       20.7457      12.010960       6.22197
  44    0.2165        8.7342        0.0044       20.7103       20.7147      11.980437       6.94332
  43    0.2613        8.7337        0.0056       20.6675       20.6731      11.939443       7.72723
  42    0.3336        8.7328        0.0077       20.5880       20.5956      11.862883       8.92614
  41    0.4307        8.7317        0.0104       20.4722       20.4826      11.750932       9.73389
  40    0.5894        8.7301        0.0147       20.2637       20.2784      11.548251      10.77831
  39     1.339        8.7267        0.0331       19.0984       19.1315      10.404797      12.87322
  38     1.782        8.7272        0.0427       18.4394       18.4820       9.754891      12.37315
  37     2.292        8.7298        0.0530       17.7714       17.8244       9.094573      10.93659
  36     2.964        8.7363        0.0656       17.0421       17.1078       8.371492       9.07685
  35     3.853        8.7490        0.0816       16.2679       16.3494       7.600380       7.31800
  34     5.035        8.7700        0.1017       15.4803       15.5820       6.811985       5.63197
  33     6.613        8.8006        0.1275       14.7157       14.8432       6.042539       4.11346
  32     8.786        8.8410        0.1612       13.9936       14.1548       5.313770       2.83027
  31     11.80        8.8937        0.2082       13.2835       13.4918       4.598045       2.00381
  30     15.07        8.9445        0.2570       12.7394       12.9963       4.051804       1.41029
  29     18.79        8.9970        0.3110       12.2666       12.5776       3.580600       1.06836
  28     23.16        9.0528        0.3725       11.8300       12.2025       3.149721       0.83318
  27     28.12        9.1099        0.4413       11.4279       11.8692       2.759299       0.66369
  26     33.73        9.1626        0.5172       11.0695       11.5866       2.424054       0.50405
  25     40.54        9.2125        0.6078       10.7209       11.3287       2.116153       0.38199
  24     48.69        9.2596        0.7153       10.3742       11.0895       1.829869       0.29626
  23     57.69        9.2982        0.8317       10.0549       10.8866       1.588358       0.22638
  22     68.43        9.3294        0.9682        9.7327       10.7009       1.371562       0.17043
  21     81.20        9.3441        1.1294        9.4134       10.5428       1.198703       0.11422
  20     96.49        9.3405        1.3189        9.0887       10.4076       1.067126       0.07262
  19     114.6        9.3266        1.5378        8.7388       10.2766       0.950014       0.05468
  18     136.5        9.3053        1.7881        8.3549       10.1430       0.837652       0.04321
  17     162.9        9.2768        2.0733        7.9311       10.0045       0.727647       0.03516
  16     196.4        9.2292        2.4267        7.4333        9.8600       0.630832       0.02437
  15     218.7        9.1948        2.6489        7.1296        9.7785       0.583617       0.01793
  14     243.0        9.1573        2.8812        6.8161        9.6973       0.540023       0.01512
  13     269.0        9.1162        3.1227        6.4943        9.6171       0.500881       0.01270
  12     297.5        9.0717        3.3723        6.1658        9.5381       0.466380       0.01023
  11     328.5        9.0253        3.6291        5.8295        9.4586       0.433350       0.00898
  10     361.9        8.9774        3.8906        5.4887        9.3793       0.401940       0.00795
   9     398.1        8.9280        4.1561        5.1441        9.3002       0.372177       0.00693
   8     437.6        8.8778        4.4242        4.7970        9.2213       0.343488       0.00613
   7     480.5        8.8271        4.6928        4.4505        9.1433       0.316259       0.00535
   6     533.0        8.7689        4.9986        4.0569        9.0555       0.286587       0.00477
   5     589.8        8.7115        5.2997        3.6697        8.9694       0.257856       0.00426
   4     651.6        8.6557        5.5933        3.2922        8.8855       0.229752       0.00384
   3     718.7        8.6022        5.8769        2.9275        8.8044       0.202230       0.00346
   2     792.3        8.5514        6.1480        2.5788        8.7267       0.175295       0.00309
   1     891.5        8.4931        6.4658        2.1693        8.6352       0.142046       0.00283
   0    1013.0        8.4368        6.7852        1.7570        8.5421       0.105323       0.00255



 Wavenumbers: 38000. - 50000. cm-1, ATM      1
 LEVEL PRESSURE   UPWARD FLUX   DIFDOWN FLUX  DIRDOWN FLUX  DOWNWARD FLUX   NET FLUX    HEATING RATE
          mb          W/m2          W/m2          W/m2        W/m2          W/m2       degree/day
  51    .06700        0.0061        0.0000        1.2836        1.2836       1.277518       0.00000
  50    .07753        0.0061        0.0001        1.2812        1.2812       1.275183       1.87150
  49    .09103        0.0060        0.0002        1.2777        1.2778       1.271851       2.08247
  48    0.1069        0.0059        0.0002        1.2731        1.2734       1.267473       2.33059
  47    0.1255        0.0058        0.0004        1.2672        1.2675       1.261717       2.60908
  46    0.1487        0.0057        0.0005        1.2586        1.2591       1.253391       3.03499
  45    0.1794        0.0055        0.0007        1.2455        1.2462       1.240623       3.50520
  44    0.2165        0.0054        0.0009        1.2282        1.2291       1.223697       3.85037
  43    0.2613        0.0052        0.0011        1.2054        1.2065       1.201348       4.21261
  42    0.3336        0.0049        0.0015        1.1639        1.1654       1.160524       4.75970
  41    0.4307        0.0045        0.0020        1.1051        1.1070       1.102565       5.03943
  40    0.5894        0.0039        0.0026        1.0039        1.0064       1.002524       5.32007
  39     1.339        0.0022        0.0035        0.5438        0.5473       0.545104       5.14971
  38     1.782        0.0016        0.0032        0.3635        0.3666       0.365006       3.42879
  37     2.292        0.0012        0.0027        0.2356        0.2383       0.237058       2.11916
  36     2.964        0.0009        0.0022        0.1455        0.1477       0.146786       1.13318
  35     3.853        0.0006        0.0017        0.0858        0.0875       0.086906       0.56828
  34     5.035        0.0004        0.0013        0.0488        0.0501       0.049701       0.26578
  33     6.613        0.0003        0.0010        0.0273        0.0282       0.027974       0.11615
  32     8.786        0.0002        0.0007        0.0144        0.0151       0.014928       0.05067
  31     11.80        0.0001        0.0004        0.0065        0.0070       0.006903       0.02247
  30     15.07        0.0000        0.0003        0.0031        0.0034       0.003329       0.00923
  29     18.79        0.0000        0.0002        0.0014        0.0016       0.001583       0.00396
  28     23.16        0.0000        0.0001        0.0006        0.0007       0.000720       0.00167
  27     28.12        0.0000        0.0001        0.0003        0.0003       0.000317       0.00069
  26     33.73        0.0000        0.0000        0.0001        0.0001       0.000140       0.00027
  25     40.54        0.0000        0.0000        0.0000        0.0001       0.000057       0.00010
  24     48.69        0.0000        0.0000        0.0000        0.0000       0.000021       0.00004
  23     57.69        0.0000        0.0000        0.0000        0.0000       0.000008       0.00001
  22     68.43        0.0000        0.0000        0.0000        0.0000       0.000003       0.00000
  21     81.20        0.0000        0.0000        0.0000        0.0000       0.000001       0.00000
  20     96.49        0.0000        0.0000        0.0000        0.0000       0.000000       0.00000
  19     114.6        0.0000        0.0000        0.0000        0.0000       0.000000       0.00000
  18     136.5        0.0000        0.0000        0.0000        0.0000       0.000000       0.00000
  17     162.9        0.0000        0.0000        0.0000        0.0000       0.000000       0.00000
  16     196.4        0.0000        0.0000        0.0000        0.0000       0.000000       0.00000
  15     218.7        0.0000        0.0000        0.0000        0.0000       0.000000       0.00000
  14     243.0        0.0000        0.0000        0.0000        0.0000       0.000000       0.00000
  13     269.0        0.0000        0.0000        0.0000        0.0000       0.000000       0.00000
  12     297.5        0.0000        0.0000        0.0000        0.0000       0.000000       0.00000
  11     328.5        0.0000        0.0000        0.0000        0.0000       0.000000       0.00000
  10     361.9        0.0000        0.0000        0.0000        0.0000       0.000000       0.00000
   9     398.1        0.0000        0.0000        0.0000        0.0000       0.000000       0.00000
   8     437.6        0.0000        0.0000        0.0000        0.0000       0.000000       0.00000
   7     480.5        0.0000        0.0000        0.0000        0.0000       0.000000       0.00000
   6     533.0        0.0000        0.0000        0.0000        0.0000       0.000000       0.00000
   5     589.8        0.0000        0.0000        0.0000        0.0000       0.000000       0.00000
   4     651.6        0.0000        0.0000        0.0000        0.0000       0.000000       0.00000
   3     718.7        0.0000        0.0000        0.0000        0.0000       0.000000       0.00000
   2     792.3        0.0000        0.0000        0.0000        0.0000       0.000000       0.00000
   1     891.5        0.0000        0.0000        0.0000        0.0000       0.000000       0.00000
   0    1013.0        0.0000        0.0000        0.0000        0.0000       0.000000       0.00000



 Wavenumbers:   820. -  2600. cm-1, ATM      1
 LEVEL PRESSURE   UPWARD FLUX   DIFDOWN FLUX  DIRDOWN FLUX  DOWNWARD FLUX   NET FLUX    HEATING RATE
          mb          W/m2          W/m2          W/m2        W/m2          W/m2       degree/day
  51    .06700        1.0001        0.0000        6.0047        6.0047       5.004544       0.00000
  50    .07753        1.0001        0.0000        6.0008        6.0008       5.000711       3.07236
  49    .09103        1.0001        0.0000        6.0000        6.0000       4.999851       0.53747
  48    0.1069        1.0001        0.0000        5.9990        5.9990       4.998892       0.51015
  47    0.1255        1.0001        0.0000        5.9979        5.9979       4.997812       0.48986
  46    0.1487        1.0001        0.0000        5.9966        5.9966       4.996503       0.47703
  45    0.1794        1.0001        0.0000        5.9950        5.9950       4.994852       0.45332
  44    0.2165        1.0001        0.0000        5.9932        5.9932       4.993093       0.40014
  43    0.2613        1.0001        0.0000        5.9913        5.9913       4.991236       0.35007
  42    0.3336        1.0001        0.0000        5.9886        5.9886       4.988532       0.31524
  41    0.4307        1.0001        0.0000        5.9854        5.9854       4.985299       0.28109
  40    0.5894        1.0001        0.0000        5.9803        5.9803       4.980189       0.27177
  39     1.339        1.0001        0.0000        5.9567        5.9567       4.956556       0.26606
  38     1.782        1.0001        0.0000        5.9436        5.9436       4.943455       0.24943
  37     2.292        1.0001        0.0000        5.9289        5.9289       4.928830       0.24222
  36     2.964        1.0001        0.0000        5.9105        5.9105       4.910405       0.23129
  35     3.853        1.0001        0.0000        5.8874        5.8874       4.887265       0.21960
  34     5.035        1.0001        0.0000        5.8586        5.8586       4.858471       0.20569
  33     6.613        1.0001        0.0000        5.8224        5.8224       4.822289       0.19343
  32     8.786        1.0001        0.0000        5.7764        5.7764       4.776229       0.17888
  31     11.80        1.0001        0.0000        5.7181        5.7181       4.717915       0.16326
  30     15.07        1.0002        0.0000        5.6683        5.6683       4.668125       0.12855
  29     18.79        1.0002        0.0000        5.6273        5.6273       4.627159       0.09288
  28     23.16        1.0002        0.0000        5.5946        5.5947       4.594472       0.06321
  27     28.12        1.0002        0.0000        5.5686        5.5686       4.568366       0.04438
  26     33.73        1.0002        0.0000        5.5456        5.5456       4.545344       0.03461
  25     40.54        1.0002        0.0000        5.5206        5.5206       4.520389       0.03096
  24     48.69        1.0003        0.0000        5.4918        5.4918       4.491530       0.02987
  23     57.69        1.0003        0.0000        5.4606        5.4606       4.460305       0.02927
  22     68.43        1.0003        0.0000        5.4240        5.4240       4.423647       0.02882
  21     81.20        1.0004        0.0000        5.3817        5.3818       4.381375       0.02793
  20     96.49        1.0004        0.0000        5.3329        5.3329       4.332488       0.02698
  19     114.6        1.0005        0.0000        5.2769        5.2770       4.276457       0.02616
  18     136.5        1.0006        0.0000        5.2134        5.2134       4.212802       0.02448
  17     162.9        1.0007        0.0000        5.1367        5.1367       4.136023       0.02454
  16     196.4        1.0009        0.0000        5.0257        5.0258       4.024847       0.02798
  15     218.7        1.0011        0.0000        4.9291        4.9292       3.928061       0.03675
  14     243.0        1.0014        0.0000        4.7920        4.7920       3.790640       0.04766
  13     269.0        1.0019        0.0000        4.6263        4.6263       3.624492       0.05390
  12     297.5        1.0026        0.0000        4.4466        4.4466       3.444053       0.05352
  11     328.5        1.0035        0.0000        4.2635        4.2635       3.260000       0.05004
  10     361.9        1.0048        0.0000        4.0487        4.0487       3.043942       0.05466
   9     398.1        1.0064        0.0000        3.8033        3.8033       2.796848       0.05757
   8     437.6        1.0086        0.0000        3.5518        3.5518       2.543288       0.05421
   7     480.5        1.0111        0.0000        3.3399        3.3399       2.328781       0.04213
   6     533.0        1.0150        0.0000        3.1652        3.1652       2.150261       0.02872
   5     589.8        1.0206        0.0000        3.0279        3.0280       2.007335       0.02121
   4     651.6        1.0303        0.0001        2.8679        2.8680       1.837628       0.02321
   3     718.7        1.0466        0.0001        2.6744        2.6745       1.627890       0.02636
   2     792.3        1.0753        0.0001        2.4559        2.4560       1.380633       0.02836
   1     891.5        1.1452        0.0001        2.1709        2.1710       1.025751       0.03020
   0    1013.0        1.3108        0.0001        1.8253        1.8254       0.514563       0.03549

  Modules and versions used in this calculation:

       rrtmg_sw.1col.f90:  $Revision$                    rrtmg_sw_init.f90:  $Revision$        
     rrtmgsw_cldprop.f90:  $Revision$                  rrtmgsw_cldprmc.f90:  NOT USED          
     rrtmg_sw_reftra.f90:  $Revision$                  rrtmg_sw_spcvrt.f90:  NOT USED          
     rrtmg_sw_spcvmc.f90:  NOT USED                    rrtmgsw_setcoef.f90:  NOT USED          
     rrtmg_sw_taumol.f90:  $Revision$                  rrtmg_sw_vrtqdr.f90:  NOT USED          
                rrtatm.f:  NOT USED                             util_xxx.f:  NOT USED          
                 extra.f:  NOT USED                       rrtmg_sw_k_g.f90:  $Revision$        

