

 Wavenumbers:   820. - 50000. cm-1, ATM      1
 LEVEL PRESSURE   UPWARD FLUX   DIFDOWN FLUX  DIRDOWN FLUX  DOWNWARD FLUX   NET FLUX    HEATING RATE
          mb          W/m2          W/m2          W/m2        W/m2          W/m2       degree/day
  51    .06700      396.1362        0.0000      617.8126      617.8126     221.676348       0.00000
  50    .07753      396.1359        0.0014      617.7948      617.7961     221.660252      12.90168
  49    .09103      396.1354        0.0030      617.7779      617.7809     221.645492       9.22527
  48    0.1069      396.1349        0.0050      617.7582      617.7632     221.628288       9.15792
  47    0.1255      396.1344        0.0072      617.7342      617.7414     221.607005       9.64863
  46    0.1487      396.1338        0.0101      617.7012      617.7112     221.577398      10.79183
  45    0.1794      396.1331        0.0139      617.6525      617.6664     221.533270      12.11418
  44    0.2165      396.1324        0.0185      617.5900      617.6085     221.476071      13.01188
  43    0.2613      396.1317        0.0238      617.5096      617.5334     221.401701      14.01834
  42    0.3336      396.1308        0.0327      617.3650      617.3977     221.266859      15.72134
  41    0.4307      396.1301        0.0443      617.1604      617.2046     221.074561      16.71982
  40    0.5894      396.1299        0.0631      616.8022      616.8653     220.735404      18.03596
  39     1.339      396.1473        0.1480      614.9483      615.0963     218.949030      20.11133
  38     1.782      396.1701        0.1958      613.9722      614.1680     217.997898      18.10801
  37     2.292      396.2080        0.2502      613.0123      613.2625     217.054478      15.62550
  36     2.964      396.2751        0.3209      611.9656      612.2865     216.011415      13.09359
  35     3.853      396.3877        0.4136      610.8122      611.2258     214.838034      11.13561
  34     5.035      396.5610        0.5359      609.5448      610.0807     213.519700       9.41763
  33     6.613      396.8052        0.6982      608.1613      608.8596     212.054443       7.83327
  32     8.786      397.1231        0.9161      606.6431      607.5592     210.436083       6.28512
  31     11.80      397.5348        1.2262      604.8706      606.0968     208.561989       5.24687
  30     15.07      397.9265        1.5572      603.2691      604.8263     206.899824       4.29138
  29     18.79      398.3240        1.9295      601.6795      603.6090     205.285035       3.66122
  28     23.16      398.7365        2.3622      600.0245      602.3868     203.650216       3.16121
  27     28.12      399.1476        2.8547      598.3236      601.1783     202.030679       2.75310
  26     33.73      399.5190        3.4038      596.6343      600.0381     200.519051       2.27277
  25     40.54      399.8643        4.0648      594.8158      598.8806     199.016257       1.86439
  24     48.69      400.1805        4.8580      592.8337      597.6917     197.511281       1.55741
  23     57.69      400.4305        5.7251      590.8470      596.5721     196.141531       1.28393
  22     68.43      400.6229        6.7524      588.6746      595.4270     194.804042       1.05145
  21     81.20      400.7055        7.9703      586.3292      594.2995     193.594005       0.79957
  20     96.49      400.6681        9.4124      583.7610      593.1733     192.505281       0.60090
  19     114.6      400.5704       11.1091      580.8425      591.9516     191.381218       0.52486
  18     136.5      400.4092       13.0958      577.5156      590.6115     190.202222       0.45335
  17     162.9      400.1784       15.4274      573.6564      589.0838     188.905411       0.41451
  16     196.4      399.7897       18.4010      568.7180      587.1190     187.329387       0.39670
  15     218.7      399.5042       20.3236      565.2284      585.5520     186.047841       0.48656
  14     243.0      399.1833       22.3859      561.0170      583.4029     184.219681       0.63407
  13     269.0      398.8258       24.5893      555.8195      580.4088     181.582990       0.85533
  12     297.5      398.4331       26.9343      549.5949      576.5292     178.096093       1.03418
  11     328.5      398.0132       29.4276      542.8559      572.2836     174.270388       1.04020
  10     361.9      397.5691       32.0654      535.5831      567.6485     170.079356       1.06037
   9     398.1      397.1044       34.8523      527.6013      562.4536     165.349250       1.10201
   8     437.6      396.6282       37.7871      518.7884      556.5755     159.947312       1.15497
   7     480.5      396.1488       40.8679      509.3182      550.1861     154.037313       1.16070
   6     533.0      395.6156       44.5724      497.7201      542.2925     146.676957       1.18405
   5     589.8      395.1409       48.4599      485.1275      533.5874     138.446483       1.22167
   4     651.6      394.8247       52.5190      470.9796      523.4986     128.673838       1.33644
   3     718.7      394.7812       56.7415      455.7511      512.4926     117.711458       1.37767
   2     792.3      395.2639       61.1080      439.3189      500.4268     105.162957       1.43917
   1     891.5      397.2613       66.7508      417.2157      483.9665      86.705271       1.57066
   0    1013.0      402.9446       73.1769      392.0869      465.2639      62.319278       1.69324



 Wavenumbers:  2600. -  3250. cm-1, ATM      1
 LEVEL PRESSURE   UPWARD FLUX   DIFDOWN FLUX  DIRDOWN FLUX  DOWNWARD FLUX   NET FLUX    HEATING RATE
          mb          W/m2          W/m2          W/m2        W/m2          W/m2       degree/day
  51    .06700        0.0259        0.0000        5.4450        5.4450       5.419167       0.00000
  50    .07753        0.0259        0.0000        5.4450        5.4450       5.419159       0.00640
  49    .09103        0.0259        0.0000        5.4450        5.4450       5.419149       0.00627
  48    0.1069        0.0259        0.0000        5.4450        5.4450       5.419137       0.00613
  47    0.1255        0.0259        0.0000        5.4450        5.4450       5.419124       0.00599
  46    0.1487        0.0259        0.0000        5.4450        5.4450       5.419107       0.00608
  45    0.1794        0.0259        0.0000        5.4450        5.4450       5.419084       0.00625
  44    0.2165        0.0259        0.0000        5.4449        5.4449       5.419057       0.00612
  43    0.2613        0.0259        0.0000        5.4449        5.4449       5.419026       0.00600
  42    0.3336        0.0259        0.0000        5.4448        5.4448       5.418973       0.00617
  41    0.4307        0.0259        0.0000        5.4448        5.4448       5.418901       0.00620
  40    0.5894        0.0259        0.0000        5.4446        5.4446       5.418782       0.00637
  39     1.339        0.0259        0.0000        5.4439        5.4439       5.418074       0.00797
  38     1.782        0.0259        0.0000        5.4434        5.4434       5.417531       0.01034
  37     2.292        0.0259        0.0000        5.4427        5.4427       5.416815       0.01186
  36     2.964        0.0259        0.0000        5.4416        5.4416       5.415777       0.01304
  35     3.853        0.0259        0.0000        5.4402        5.4402       5.414299       0.01402
  34     5.035        0.0259        0.0000        5.4381        5.4381       5.412244       0.01468
  33     6.613        0.0259        0.0000        5.4353        5.4353       5.409463       0.01487
  32     8.786        0.0259        0.0000        5.4317        5.4317       5.405831       0.01411
  31     11.80        0.0259        0.0000        5.4269        5.4269       5.401051       0.01338
  30     15.07        0.0259        0.0000        5.4224        5.4224       5.396525       0.01169
  29     18.79        0.0259        0.0000        5.4180        5.4180       5.392113       0.01000
  28     23.16        0.0259        0.0000        5.4135        5.4135       5.387628       0.00867
  27     28.12        0.0259        0.0000        5.4088        5.4088       5.382982       0.00790
  26     33.73        0.0259        0.0000        5.4036        5.4036       5.377743       0.00788
  25     40.54        0.0259        0.0000        5.3966        5.3967       5.370804       0.00861
  24     48.69        0.0259        0.0000        5.3872        5.3872       5.361331       0.00980
  23     57.69        0.0258        0.0000        5.3754        5.3754       5.349551       0.01104
  22     68.43        0.0258        0.0000        5.3599        5.3599       5.334070       0.01217
  21     81.20        0.0258        0.0000        5.3401        5.3401       5.314247       0.01310
  20     96.49        0.0258        0.0000        5.3155        5.3155       5.289694       0.01355
  19     114.6        0.0258        0.0000        5.2854        5.2854       5.259614       0.01405
  18     136.5        0.0258        0.0000        5.2506        5.2506       5.224820       0.01338
  17     162.9        0.0258        0.0001        5.2114        5.2114       5.185608       0.01253
  16     196.4        0.0258        0.0001        5.1647        5.1647       5.138931       0.01175
  15     218.7        0.0258        0.0001        5.1343        5.1344       5.108605       0.01151
  14     243.0        0.0258        0.0001        5.0984        5.0985       5.072718       0.01245
  13     269.0        0.0258        0.0001        5.0551        5.0552       5.029402       0.01405
  12     297.5        0.0258        0.0001        5.0022        5.0023       4.976508       0.01569
  11     328.5        0.0258        0.0001        4.9404        4.9405       4.914704       0.01680
  10     361.9        0.0259        0.0001        4.8657        4.8658       4.839938       0.01892
   9     398.1        0.0259        0.0001        4.7719        4.7720       4.746102       0.02186
   8     437.6        0.0260        0.0001        4.6516        4.6518       4.625821       0.02572
   7     480.5        0.0260        0.0001        4.5021        4.5023       4.476218       0.02938
   6     533.0        0.0262        0.0002        4.2960        4.2961       4.269947       0.03318
   5     589.8        0.0264        0.0002        4.0545        4.0546       4.028264       0.03587
   4     651.6        0.0267        0.0002        3.7722        3.7724       3.745685       0.03864
   3     718.7        0.0272        0.0002        3.4726        3.4727       3.445539       0.03772
   2     792.3        0.0280        0.0002        3.1393        3.1395       3.111468       0.03831
   1     891.5        0.0299        0.0002        2.6781        2.6783       2.648401       0.03940
   0    1013.0        0.0343        0.0002        2.1828        2.1830       2.148708       0.03470



 Wavenumbers:  3250. -  4000. cm-1, ATM      1
 LEVEL PRESSURE   UPWARD FLUX   DIFDOWN FLUX  DIRDOWN FLUX  DOWNWARD FLUX   NET FLUX    HEATING RATE
          mb          W/m2          W/m2          W/m2        W/m2          W/m2       degree/day
  51    .06700        0.0005        0.0000        9.1795        9.1795       9.179048       0.00000
  50    .07753        0.0005        0.0000        9.1747        9.1747       9.174229       3.86239
  49    .09103        0.0005        0.0000        9.1713        9.1713       9.170866       2.10221
  48    0.1069        0.0005        0.0000        9.1689        9.1689       9.168368       1.32975
  47    0.1255        0.0005        0.0000        9.1666        9.1666       9.166134       1.01257
  46    0.1487        0.0005        0.0000        9.1642        9.1642       9.163725       0.87820
  45    0.1794        0.0005        0.0000        9.1614        9.1614       9.160883       0.78008
  44    0.2165        0.0005        0.0000        9.1585        9.1585       9.158003       0.65508
  43    0.2613        0.0005        0.0000        9.1556        9.1556       9.155074       0.55212
  42    0.3336        0.0005        0.0000        9.1515        9.1515       9.150969       0.47866
  41    0.4307        0.0005        0.0000        9.1468        9.1468       9.146299       0.40608
  40    0.5894        0.0005        0.0000        9.1399        9.1399       9.139447       0.36434
  39     1.339        0.0005        0.0000        9.1138        9.1138       9.113301       0.29436
  38     1.782        0.0005        0.0000        9.1023        9.1023       9.101855       0.21791
  37     2.292        0.0005        0.0000        9.0914        9.0914       9.090911       0.18126
  36     2.964        0.0005        0.0000        9.0791        9.0791       9.078613       0.15437
  35     3.853        0.0005        0.0000        9.0645        9.0645       9.064009       0.13860
  34     5.035        0.0005        0.0000        9.0460        9.0460       9.045538       0.13195
  33     6.613        0.0005        0.0000        9.0214        9.0214       9.020913       0.13164
  32     8.786        0.0005        0.0000        8.9871        8.9871       8.986612       0.13322
  31     11.80        0.0005        0.0000        8.9362        8.9362       8.935749       0.14240
  30     15.07        0.0005        0.0000        8.8799        8.8800       8.879509       0.14520
  29     18.79        0.0005        0.0000        8.8156        8.8157       8.815220       0.14576
  28     23.16        0.0005        0.0000        8.7417        8.7417       8.741260       0.14301
  27     28.12        0.0004        0.0000        8.6609        8.6609       8.660501       0.13728
  26     33.73        0.0004        0.0000        8.5776        8.5776       8.577175       0.12528
  25     40.54        0.0004        0.0001        8.4870        8.4870       8.486614       0.11235
  24     48.69        0.0004        0.0001        8.3900        8.3900       8.389612       0.10038
  23     57.69        0.0004        0.0001        8.2926        8.2927       8.292313       0.09120
  22     68.43        0.0004        0.0001        8.1825        8.1826       8.182182       0.08658
  21     81.20        0.0004        0.0001        8.0541        8.0543       8.053879       0.08478
  20     96.49        0.0004        0.0001        7.9046        7.9047       7.904331       0.08254
  19     114.6        0.0003        0.0001        7.7277        7.7279       7.727517       0.08256
  18     136.5        0.0003        0.0002        7.5331        7.5332       7.532937       0.07482
  17     162.9        0.0003        0.0002        7.3099        7.3101       7.309814       0.07132
  16     196.4        0.0002        0.0002        6.9965        6.9967       6.996496       0.07887
  15     218.7        0.0002        0.0002        6.7044        6.7047       6.704449       0.11088
  14     243.0        0.0002        0.0002        6.3166        6.3168       6.316607       0.13452
  13     269.0        0.0002        0.0003        5.8318        5.8320       5.831860       0.15725
  12     297.5        0.0002        0.0003        5.2669        5.2671       5.266980       0.16754
  11     328.5        0.0001        0.0003        4.6906        4.6908       4.690684       0.15669
  10     361.9        0.0001        0.0002        4.1219        4.1222       4.122035       0.14387
   9     398.1        0.0001        0.0002        3.5884        3.5886       3.588512       0.12430
   8     437.6        0.0001        0.0002        3.0927        3.0929       3.092804       0.10599
   7     480.5        0.0001        0.0002        2.6452        2.6454       2.645382       0.08787
   6     533.0        0.0000        0.0002        2.1724        2.1726       2.172508       0.07607
   5     589.8        0.0000        0.0002        1.7223        1.7224       1.722413       0.06681
   4     651.6        0.0000        0.0001        1.2609        1.2611       1.261055       0.06309
   3     718.7        0.0000        0.0001        0.8305        0.8306       0.830621       0.05409
   2     792.3        0.0000        0.0001        0.4709        0.4709       0.470916       0.04125
   1     891.5        0.0001        0.0000        0.1560        0.1561       0.156000       0.02680
   0    1013.0        0.0005        0.0000        0.0177        0.0177       0.017259       0.00963



 Wavenumbers:  4000. -  4650. cm-1, ATM      1
 LEVEL PRESSURE   UPWARD FLUX   DIFDOWN FLUX  DIRDOWN FLUX  DOWNWARD FLUX   NET FLUX    HEATING RATE
          mb          W/m2          W/m2          W/m2        W/m2          W/m2       degree/day
  51    .06700        1.2000        0.0000       10.7795       10.7795       9.579546       0.00000
  50    .07753        1.2000        0.0000       10.7795       10.7795       9.579545       0.00080
  49    .09103        1.2000        0.0000       10.7795       10.7795       9.579544       0.00078
  48    0.1069        1.2000        0.0000       10.7795       10.7795       9.579543       0.00077
  47    0.1255        1.2000        0.0000       10.7795       10.7795       9.579541       0.00075
  46    0.1487        1.2000        0.0000       10.7795       10.7795       9.579539       0.00076
  45    0.1794        1.2000        0.0000       10.7795       10.7795       9.579536       0.00078
  44    0.2165        1.2000        0.0000       10.7795       10.7795       9.579533       0.00076
  43    0.2613        1.2000        0.0000       10.7795       10.7795       9.579529       0.00075
  42    0.3336        1.2000        0.0000       10.7795       10.7795       9.579522       0.00077
  41    0.4307        1.2000        0.0000       10.7795       10.7795       9.579513       0.00077
  40    0.5894        1.2000        0.0000       10.7795       10.7795       9.579498       0.00080
  39     1.339        1.2000        0.0000       10.7794       10.7794       9.579409       0.00101
  38     1.782        1.2000        0.0000       10.7793       10.7793       9.579339       0.00133
  37     2.292        1.2000        0.0000       10.7792       10.7792       9.579245       0.00156
  36     2.964        1.2000        0.0000       10.7791       10.7791       9.579104       0.00176
  35     3.853        1.2000        0.0000       10.7789       10.7789       9.578896       0.00198
  34     5.035        1.2000        0.0000       10.7786       10.7786       9.578589       0.00219
  33     6.613        1.2000        0.0000       10.7781       10.7781       9.578137       0.00242
  32     8.786        1.2000        0.0000       10.7774       10.7774       9.577470       0.00259
  31     11.80        1.2000        0.0000       10.7763       10.7764       9.576422       0.00293
  30     15.07        1.1999        0.0001       10.7751       10.7751       9.575193       0.00317
  29     18.79        1.1999        0.0001       10.7736       10.7736       9.573708       0.00337
  28     23.16        1.1999        0.0001       10.7717       10.7718       9.571865       0.00356
  27     28.12        1.1999        0.0001       10.7694       10.7695       9.569634       0.00379
  26     33.73        1.1999        0.0001       10.7667       10.7668       9.566886       0.00413
  25     40.54        1.1999        0.0002       10.7629       10.7630       9.563160       0.00462
  24     48.69        1.1999        0.0002       10.7579       10.7581       9.558199       0.00513
  23     57.69        1.1998        0.0002       10.7520       10.7522       9.552324       0.00551
  22     68.43        1.1998        0.0003       10.7445       10.7448       9.544969       0.00578
  21     81.20        1.1998        0.0003       10.7354       10.7357       9.535924       0.00598
  20     96.49        1.1998        0.0004       10.7244       10.7247       9.524934       0.00607
  19     114.6        1.1998        0.0004       10.7106       10.7111       9.511282       0.00637
  18     136.5        1.1998        0.0005       10.6942       10.6947       9.494868       0.00631
  17     162.9        1.1998        0.0006       10.6741       10.6747       9.474830       0.00640
  16     196.4        1.1999        0.0007       10.6466       10.6473       9.447397       0.00691
  15     218.7        1.2000        0.0008       10.6261       10.6269       9.426848       0.00780
  14     243.0        1.2002        0.0009       10.5995       10.6004       9.400154       0.00926
  13     269.0        1.2006        0.0010       10.5639       10.5649       9.364369       0.01161
  12     297.5        1.2011        0.0011       10.5170       10.5181       9.316995       0.01405
  11     328.5        1.2018        0.0012       10.4584       10.4596       9.257852       0.01608
  10     361.9        1.2027        0.0013       10.3836       10.3850       9.182212       0.01914
   9     398.1        1.2040        0.0014       10.2877       10.2892       9.085218       0.02260
   8     437.6        1.2055        0.0016       10.1661       10.1677       8.962177       0.02631
   7     480.5        1.2074        0.0017       10.0213       10.0230       8.815547       0.02880
   6     533.0        1.2103        0.0019        9.8331        9.8350       8.624687       0.03070
   5     589.8        1.2143        0.0020        9.6210        9.6231       8.408764       0.03205
   4     651.6        1.2203        0.0022        9.3564        9.3585       8.138226       0.03700
   3     718.7        1.2296        0.0023        9.0116        9.0140       7.784367       0.04447
   2     792.3        1.2447        0.0024        8.5633        8.5657       7.320987       0.05314
   1     891.5        1.2790        0.0026        7.9218        7.9244       6.645352       0.05749
   0    1013.0        1.3578        0.0027        7.2239        7.2265       5.868780       0.05392



 Wavenumbers:  4650. -  5150. cm-1, ATM      1
 LEVEL PRESSURE   UPWARD FLUX   DIFDOWN FLUX  DIRDOWN FLUX  DOWNWARD FLUX   NET FLUX    HEATING RATE
          mb          W/m2          W/m2          W/m2        W/m2          W/m2       degree/day
  51    .06700        0.3071        0.0000       10.2033       10.2033       9.896245       0.00000
  50    .07753        0.3071        0.0000       10.2031       10.2031       9.896010       0.18885
  49    .09103        0.3071        0.0000       10.2028       10.2028       9.895715       0.18412
  48    0.1069        0.3071        0.0000       10.2025       10.2025       9.895379       0.17915
  47    0.1255        0.3071        0.0000       10.2021       10.2021       9.894995       0.17411
  46    0.1487        0.3071        0.0000       10.2016       10.2016       9.894514       0.17521
  45    0.1794        0.3071        0.0000       10.2010       10.2010       9.893864       0.17835
  44    0.2165        0.3071        0.0000       10.2002       10.2002       9.893105       0.17262
  43    0.2613        0.3071        0.0000       10.1993       10.1993       9.892221       0.16676
  42    0.3336        0.3071        0.0000       10.1979       10.1979       9.890789       0.16688
  41    0.4307        0.3071        0.0000       10.1960       10.1960       9.888950       0.15989
  40    0.5894        0.3071        0.0000       10.1932       10.1932       9.886079       0.15270
  39     1.339        0.3071        0.0000       10.1816       10.1816       9.874497       0.13039
  38     1.782        0.3071        0.0000       10.1761       10.1761       9.868973       0.10517
  37     2.292        0.3071        0.0000       10.1706       10.1706       9.863522       0.09029
  36     2.964        0.3071        0.0000       10.1647       10.1647       9.857604       0.07428
  35     3.853        0.3071        0.0000       10.1585       10.1585       9.851396       0.05892
  34     5.035        0.3071        0.0000       10.1521       10.1521       9.845067       0.04521
  33     6.613        0.3071        0.0000       10.1456       10.1457       9.838617       0.03448
  32     8.786        0.3071        0.0000       10.1386       10.1387       9.831616       0.02719
  31     11.80        0.3070        0.0001       10.1296       10.1296       9.822591       0.02527
  30     15.07        0.3070        0.0001       10.1197       10.1198       9.812730       0.02546
  29     18.79        0.3070        0.0001       10.1076       10.1078       9.800746       0.02717
  28     23.16        0.3070        0.0001       10.0923       10.0925       9.785474       0.02953
  27     28.12        0.3070        0.0002       10.0732       10.0734       9.766421       0.03239
  26     33.73        0.3069        0.0002       10.0501       10.0503       9.743381       0.03464
  25     40.54        0.3069        0.0002       10.0202       10.0205       9.713551       0.03701
  24     48.69        0.3069        0.0003        9.9821        9.9824       9.675479       0.03940
  23     57.69        0.3069        0.0003        9.9386        9.9389       9.632063       0.04070
  22     68.43        0.3068        0.0004        9.8859        9.8863       9.579494       0.04133
  21     81.20        0.3068        0.0004        9.8237        9.8241       9.517320       0.04108
  20     96.49        0.3067        0.0005        9.7520        9.7525       9.445790       0.03948
  19     114.6        0.3067        0.0006        9.6722        9.6728       9.366128       0.03720
  18     136.5        0.3067        0.0007        9.5862        9.5869       9.280205       0.03304
  17     162.9        0.3066        0.0008        9.4945        9.4954       9.188712       0.02924
  16     196.4        0.3066        0.0010        9.3888        9.3899       9.083217       0.02655
  15     218.7        0.3067        0.0011        9.3237        9.3248       9.018141       0.02471
  14     243.0        0.3067        0.0012        9.2532        9.2544       8.947733       0.02442
  13     269.0        0.3068        0.0014        9.1739        9.1753       8.868515       0.02570
  12     297.5        0.3069        0.0015        9.0807        9.0822       8.775270       0.02766
  11     328.5        0.3072        0.0016        8.9718        8.9735       8.666300       0.02963
  10     361.9        0.3075        0.0018        8.8453        8.8471       8.539551       0.03207
   9     398.1        0.3080        0.0019        8.6967        8.6986       8.390629       0.03470
   8     437.6        0.3086        0.0021        8.5228        8.5248       8.216224       0.03729
   7     480.5        0.3095        0.0022        8.3216        8.3238       8.014306       0.03966
   6     533.0        0.3108        0.0024        8.0567        8.0591       7.748252       0.04280
   5     589.8        0.3127        0.0025        7.7517        7.7542       7.441496       0.04553
   4     651.6        0.3156        0.0027        7.3970        7.3997       7.084119       0.04887
   3     718.7        0.3198        0.0028        7.0063        7.0091       6.689310       0.04962
   2     792.3        0.3263        0.0029        6.5838        6.5867       6.260436       0.04919
   1     891.5        0.3396        0.0030        6.0288        6.0319       5.692220       0.04835
   0    1013.0        0.3673        0.0031        5.3990        5.4021       5.034811       0.04565



 Wavenumbers:  5150. -  6150. cm-1, ATM      1
 LEVEL PRESSURE   UPWARD FLUX   DIFDOWN FLUX  DIRDOWN FLUX  DOWNWARD FLUX   NET FLUX    HEATING RATE
          mb          W/m2          W/m2          W/m2        W/m2          W/m2       degree/day
  51    .06700        2.5692        0.0000       25.5798       25.5798      23.010620       0.00000
  50    .07753        2.5692        0.0000       25.5798       25.5798      23.010585       0.02770
  49    .09103        2.5692        0.0000       25.5797       25.5797      23.010540       0.02812
  48    0.1069        2.5692        0.0000       25.5797       25.5797      23.010487       0.02857
  47    0.1255        2.5692        0.0000       25.5796       25.5796      23.010423       0.02901
  46    0.1487        2.5692        0.0000       25.5795       25.5795      23.010339       0.03056
  45    0.1794        2.5692        0.0000       25.5794       25.5794      23.010220       0.03253
  44    0.2165        2.5692        0.0000       25.5793       25.5793      23.010075       0.03303
  43    0.2613        2.5692        0.0000       25.5791       25.5791      23.009897       0.03354
  42    0.3336        2.5692        0.0000       25.5788       25.5788      23.009593       0.03544
  41    0.4307        2.5692        0.0000       25.5784       25.5784      23.009180       0.03592
  40    0.5894        2.5692        0.0000       25.5777       25.5777      23.008488       0.03682
  39     1.339        2.5692        0.0000       25.5743       25.5743      23.005149       0.03759
  38     1.782        2.5692        0.0000       25.5723       25.5724      23.003203       0.03706
  37     2.292        2.5692        0.0001       25.5701       25.5702      23.000998       0.03652
  36     2.964        2.5691        0.0001       25.5673       25.5673      22.998192       0.03522
  35     3.853        2.5691        0.0001       25.5636       25.5637      22.994621       0.03389
  34     5.035        2.5691        0.0001       25.5590       25.5591      22.990012       0.03292
  33     6.613        2.5691        0.0002       25.5529       25.5531      22.984017       0.03205
  32     8.786        2.5690        0.0002       25.5450       25.5453      22.976219       0.03028
  31     11.80        2.5690        0.0003       25.5343       25.5346      22.965621       0.02967
  30     15.07        2.5689        0.0004       25.5235       25.5239      22.954933       0.02759
  29     18.79        2.5689        0.0005       25.5121       25.5126      22.943693       0.02548
  28     23.16        2.5688        0.0006       25.4997       25.5003      22.931504       0.02357
  27     28.12        2.5687        0.0007       25.4866       25.4873      22.918600       0.02194
  26     33.73        2.5686        0.0009       25.4732       25.4740      22.905416       0.01982
  25     40.54        2.5685        0.0011       25.4584       25.4594      22.890888       0.01802
  24     48.69        2.5684        0.0013       25.4424       25.4437      22.875287       0.01614
  23     57.69        2.5683        0.0015       25.4265       25.4280      22.859660       0.01465
  22     68.43        2.5682        0.0018       25.4090       25.4108      22.842618       0.01340
  21     81.20        2.5681        0.0021       25.3897       25.3918      22.823789       0.01244
  20     96.49        2.5679        0.0025       25.3679       25.3704      22.802532       0.01173
  19     114.6        2.5677        0.0030       25.3428       25.3459      22.778136       0.01139
  18     136.5        2.5675        0.0036       25.3136       25.3172      22.749699       0.01093
  17     162.9        2.5673        0.0042       25.2707       25.2750      22.707690       0.01343
  16     196.4        2.5670        0.0051       25.1814       25.1865      22.619570       0.02218
  15     218.7        2.5668        0.0057       25.0478       25.0535      22.486668       0.05046
  14     243.0        2.5666        0.0062       24.7684       24.7747      22.208019       0.09664
  13     269.0        2.5665        0.0068       24.2595       24.2663      21.699749       0.16488
  12     297.5        2.5665        0.0073       23.5788       23.5861      21.019604       0.20172
  11     328.5        2.5666        0.0079       22.8889       22.8968      20.330242       0.18744
  10     361.9        2.5667        0.0084       22.1216       22.1300      19.563298       0.19404
   9     398.1        2.5670        0.0089       21.2326       21.2415      18.674450       0.20708
   8     437.6        2.5676        0.0094       20.2484       20.2577      17.690125       0.21045
   7     480.5        2.5685        0.0098       19.2307       19.2405      16.672058       0.19994
   6     533.0        2.5701        0.0103       18.0642       18.0744      15.504352       0.18785
   5     589.8        2.5728        0.0107       16.9371       16.9478      14.375025       0.16763
   4     651.6        2.5778        0.0112       15.8608       15.8720      13.294170       0.14781
   3     718.7        2.5867        0.0117       14.9592       14.9708      12.384118       0.11437
   2     792.3        2.6033        0.0123       14.1978       14.2100      11.606775       0.08915
   1     891.5        2.6459        0.0130       13.2781       13.2911      10.645207       0.08182
   0    1013.0        2.7650        0.0138       12.2400       12.2538       9.488780       0.08030



 Wavenumbers:  6150. -  7700. cm-1, ATM      1
 LEVEL PRESSURE   UPWARD FLUX   DIFDOWN FLUX  DIRDOWN FLUX  DOWNWARD FLUX   NET FLUX    HEATING RATE
          mb          W/m2          W/m2          W/m2        W/m2          W/m2       degree/day
  51    .06700        4.0385        0.0000       47.3109       47.3109      43.272376       0.00000
  50    .07753        4.0385        0.0000       47.3108       47.3108      43.272324       0.04152
  49    .09103        4.0385        0.0000       47.3107       47.3107      43.272257       0.04175
  48    0.1069        4.0385        0.0000       47.3107       47.3107      43.272178       0.04199
  47    0.1255        4.0385        0.0000       47.3106       47.3106      43.272085       0.04223
  46    0.1487        4.0385        0.0000       47.3104       47.3104      43.271964       0.04407
  45    0.1794        4.0385        0.0000       47.3103       47.3103      43.271795       0.04652
  44    0.2165        4.0385        0.0000       47.3100       47.3101      43.271589       0.04685
  43    0.2613        4.0385        0.0000       47.3098       47.3098      43.271338       0.04720
  42    0.3336        4.0385        0.0000       47.3093       47.3094      43.270914       0.04952
  41    0.4307        4.0384        0.0000       47.3087       47.3088      43.270339       0.04994
  40    0.5894        4.0384        0.0001       47.3078       47.3078      43.269381       0.05093
  39     1.339        4.0384        0.0001       47.3030       47.3031      43.264778       0.05183
  38     1.782        4.0383        0.0002       47.3002       47.3004      43.262091       0.05116
  37     2.292        4.0383        0.0002       47.2970       47.2973      43.259034       0.05063
  36     2.964        4.0382        0.0003       47.2930       47.2933      43.255119       0.04915
  35     3.853        4.0381        0.0004       47.2878       47.2882      43.250094       0.04769
  34     5.035        4.0380        0.0006       47.2810       47.2816      43.243564       0.04664
  33     6.613        4.0378        0.0007       47.2721       47.2729      43.235014       0.04571
  32     8.786        4.0376        0.0010       47.2605       47.2614      43.223789       0.04360
  31     11.80        4.0373        0.0013       47.2443       47.2456      43.208317       0.04332
  30     15.07        4.0370        0.0017       47.2278       47.2294      43.192440       0.04099
  29     18.79        4.0366        0.0021       47.2100       47.2121      43.175406       0.03862
  28     23.16        4.0362        0.0026       47.1902       47.1928      43.156538       0.03648
  27     28.12        4.0357        0.0031       47.1687       47.1718      43.136104       0.03474
  26     33.73        4.0352        0.0037       47.1462       47.1499      43.114713       0.03216
  25     40.54        4.0345        0.0045       47.1207       47.1252      43.090673       0.02982
  24     48.69        4.0337        0.0054       47.0925       47.0978      43.064093       0.02751
  23     57.69        4.0329        0.0064       47.0634       47.0698      43.036914       0.02548
  22     68.43        4.0318        0.0075       47.0311       47.0386      43.006800       0.02367
  21     81.20        4.0306        0.0089       46.9946       47.0035      42.972953       0.02237
  20     96.49        4.0291        0.0106       46.9527       46.9634      42.934278       0.02135
  19     114.6        4.0273        0.0126       46.9042       46.9168      42.889486       0.02091
  18     136.5        4.0252        0.0150       46.8474       46.8624      42.837157       0.02012
  17     162.9        4.0227        0.0178       46.7672       46.7850      42.762256       0.02394
  16     196.4        4.0195        0.0214       46.6097       46.6311      42.611633       0.03791
  15     218.7        4.0174        0.0237       46.3985       46.4223      42.404840       0.07851
  14     243.0        4.0152        0.0262       46.0111       46.0373      42.022066       0.13276
  13     269.0        4.0130        0.0286       45.3162       45.3449      41.331868       0.22390
  12     297.5        4.0108        0.0310       44.2321       44.2631      40.252323       0.32018
  11     328.5        4.0086        0.0333       42.9985       43.0318      39.023171       0.33420
  10     361.9        4.0067        0.0357       41.6854       41.7211      37.714465       0.33112
   9     398.1        4.0050        0.0380       40.2076       40.2457      36.240665       0.34336
   8     437.6        4.0039        0.0401       38.4850       38.5252      34.521240       0.36762
   7     480.5        4.0037        0.0421       36.6097       36.6517      32.648072       0.36788
   6     533.0        4.0051        0.0440       34.3638       34.4079      30.402750       0.36120
   5     589.8        4.0098        0.0457       32.0136       32.0593      28.049467       0.34930
   4     651.6        4.0214        0.0468       29.4867       29.5335      25.512186       0.34698
   3     718.7        4.0446        0.0477       27.0018       27.0496      23.004981       0.31509
   2     792.3        4.0900        0.0483       24.5808       24.6290      20.539005       0.28282
   1     891.5        4.2087        0.0487       21.7818       21.8305      17.621795       0.24824
   0    1013.0        4.5267        0.0492       19.1316       19.1809      14.654186       0.20606



 Wavenumbers:  7700. -  8050. cm-1, ATM      1
 LEVEL PRESSURE   UPWARD FLUX   DIFDOWN FLUX  DIRDOWN FLUX  DOWNWARD FLUX   NET FLUX    HEATING RATE
          mb          W/m2          W/m2          W/m2        W/m2          W/m2       degree/day
  51    .06700        5.5951        0.0000       11.1810       11.1810       5.585863       0.00000
  50    .07753        5.5951        0.0000       11.1809       11.1809       5.585841       0.01718
  49    .09103        5.5951        0.0000       11.1809       11.1809       5.585814       0.01684
  48    0.1069        5.5951        0.0000       11.1809       11.1809       5.585783       0.01649
  47    0.1255        5.5951        0.0000       11.1809       11.1809       5.585748       0.01614
  46    0.1487        5.5951        0.0000       11.1808       11.1808       5.585703       0.01637
  45    0.1794        5.5951        0.0000       11.1808       11.1808       5.585641       0.01685
  44    0.2165        5.5951        0.0000       11.1807       11.1807       5.585569       0.01653
  43    0.2613        5.5952        0.0000       11.1806       11.1806       5.585483       0.01622
  42    0.3336        5.5952        0.0000       11.1805       11.1805       5.585340       0.01659
  41    0.4307        5.5952        0.0000       11.1803       11.1804       5.585152       0.01641
  40    0.5894        5.5953        0.0000       11.1801       11.1801       5.584843       0.01639
  39     1.339        5.5955        0.0001       11.1788       11.1789       5.583385       0.01642
  38     1.782        5.5956        0.0001       11.1781       11.1782       5.582528       0.01631
  37     2.292        5.5958        0.0001       11.1772       11.1773       5.581536       0.01642
  36     2.964        5.5960        0.0002       11.1761       11.1762       5.580234       0.01634
  35     3.853        5.5963        0.0002       11.1746       11.1748       5.578515       0.01632
  34     5.035        5.5966        0.0003       11.1726       11.1729       5.576230       0.01632
  33     6.613        5.5971        0.0004       11.1700       11.1703       5.573179       0.01631
  32     8.786        5.5978        0.0005       11.1664       11.1669       5.569068       0.01596
  31     11.80        5.5987        0.0006       11.1613       11.1619       5.563192       0.01645
  30     15.07        5.5998        0.0008       11.1558       11.1567       5.556889       0.01627
  29     18.79        5.6009        0.0010       11.1497       11.1507       5.549776       0.01613
  28     23.16        5.6023        0.0013       11.1425       11.1438       5.541480       0.01604
  27     28.12        5.6038        0.0015       11.1343       11.1358       5.532008       0.01610
  26     33.73        5.6056        0.0018       11.1252       11.1270       5.521430       0.01590
  25     40.54        5.6077        0.0022       11.1142       11.1164       5.508681       0.01582
  24     48.69        5.6103        0.0026       11.1010       11.1036       5.493359       0.01586
  23     57.69        5.6131        0.0031       11.0866       11.0897       5.476588       0.01572
  22     68.43        5.6165        0.0037       11.0695       11.0732       5.456697       0.01564
  21     81.20        5.6206        0.0044       11.0494       11.0537       5.433120       0.01558
  20     96.49        5.6255        0.0052       11.0255       11.0307       5.405195       0.01541
  19     114.6        5.6314        0.0062       10.9975       11.0037       5.372275       0.01537
  18     136.5        5.6385        0.0073       10.9648       10.9721       5.333579       0.01488
  17     162.9        5.6470        0.0087       10.9263       10.9350       5.287933       0.01459
  16     196.4        5.6583        0.0104       10.8773       10.8877       5.229401       0.01473
  15     218.7        5.6658        0.0116       10.8455       10.8571       5.191317       0.01446
  14     243.0        5.6741        0.0128       10.8114       10.8243       5.150183       0.01427
  13     269.0        5.6833        0.0142       10.7749       10.7891       5.105839       0.01438
  12     297.5        5.6934        0.0157       10.7358       10.7514       5.058071       0.01417
  11     328.5        5.7046        0.0173       10.6939       10.7111       5.006574       0.01400
  10     361.9        5.7169        0.0190       10.6491       10.6681       4.951133       0.01403
   9     398.1        5.7307        0.0208       10.6012       10.6220       4.891279       0.01394
   8     437.6        5.7461        0.0228       10.5498       10.5726       4.826443       0.01386
   7     480.5        5.7634        0.0249       10.4945       10.5194       4.755998       0.01384
   6     533.0        5.7859        0.0274       10.4260       10.4534       4.667532       0.01423
   5     589.8        5.8119        0.0302       10.3506       10.3808       4.568832       0.01465
   4     651.6        5.8431        0.0332       10.2658       10.2990       4.455903       0.01544
   3     718.7        5.8809        0.0364       10.1688       10.2052       4.324286       0.01654
   2     792.3        5.9282        0.0397       10.0553       10.0950       4.166756       0.01807
   1     891.5        6.0068        0.0441        9.8823        9.9264       3.919616       0.02103
   0    1013.0        6.1290        0.0493        9.6434        9.6927       3.563647       0.02472



 Wavenumbers:  8050. - 12850. cm-1, ATM      1
 LEVEL PRESSURE   UPWARD FLUX   DIFDOWN FLUX  DIRDOWN FLUX  DOWNWARD FLUX   NET FLUX    HEATING RATE
          mb          W/m2          W/m2          W/m2        W/m2          W/m2       degree/day
  51    .06700       94.2743        0.0000      156.5418      156.5418      62.267498       0.00000
  50    .07753       94.2742        0.0000      156.5417      156.5417      62.267498       0.00000
  49    .09103       94.2742        0.0001      156.5417      156.5417      62.267498      -0.00000
  48    0.1069       94.2742        0.0001      156.5416      156.5417      62.267498      -0.00000
  47    0.1255       94.2742        0.0002      156.5415      156.5417      62.267498      -0.00000
  46    0.1487       94.2742        0.0002      156.5414      156.5417      62.267498       0.00000
  45    0.1794       94.2741        0.0003      156.5413      156.5416      62.267498      -0.00000
  44    0.2165       94.2741        0.0004      156.5412      156.5416      62.267498       0.00000
  43    0.2613       94.2740        0.0006      156.5410      156.5415      62.267498       0.00000
  42    0.3336       94.2740        0.0008      156.5407      156.5415      62.267498      -0.00000
  41    0.4307       94.2739        0.0010      156.5403      156.5413      62.267498       0.00000
  40    0.5894       94.2737        0.0015      156.5397      156.5412      62.267498       0.00000
  39     1.339       94.2729        0.0036      156.5367      156.5403      62.267498       0.00000
  38     1.782       94.2724        0.0049      156.5350      156.5399      62.267498      -0.00000
  37     2.292       94.2718        0.0063      156.5330      156.5393      62.267498       0.00000
  36     2.964       94.2711        0.0082      156.5303      156.5386      62.267498      -0.00000
  35     3.853       94.2701        0.0107      156.5268      156.5376      62.267498       0.00000
  34     5.035       94.2688        0.0141      156.5222      156.5363      62.267498      -0.00000
  33     6.613       94.2671        0.0186      156.5160      156.5346      62.267498       0.00000
  32     8.786       94.2647        0.0246      156.5076      156.5322      62.267498      -0.00000
  31     11.80       94.2614        0.0332      156.4957      156.5289      62.267498      -0.00000
  30     15.07       94.2578        0.0425      156.4828      156.5253      62.267498       0.00000
  29     18.79       94.2537        0.0530      156.4682      156.5212      62.267498      -0.00000
  28     23.16       94.2490        0.0653      156.4512      156.5165      62.267498       0.00000
  27     28.12       94.2435        0.0793      156.4317      156.5110      62.267498       0.00000
  26     33.73       94.2374        0.0950      156.4099      156.5049      62.267498      -0.00000
  25     40.54       94.2300        0.1141      156.3834      156.4975      62.267498       0.00000
  24     48.69       94.2211        0.1371      156.3515      156.4886      62.267498      -0.00000
  23     57.69       94.2113        0.1624      156.3164      156.4788      62.267498       0.00000
  22     68.43       94.1996        0.1925      156.2746      156.4671      62.267498       0.00000
  21     81.20       94.1856        0.2285      156.2246      156.4531      62.267498       0.00000
  20     96.49       94.1689        0.2715      156.1649      156.4364      62.267498      -0.00000
  19     114.6       94.1493        0.3226      156.0887      156.4113      62.262045       0.00255
  18     136.5       94.1259        0.3833      155.9978      156.3811      62.255279       0.00260
  17     162.9       94.0980        0.4558      155.8862      156.3420      62.244040       0.00359
  16     196.4       94.0618        0.5500      155.7270      156.2770      62.215188       0.00726
  15     218.7       94.0382        0.6120      155.5874      156.1994      62.161189       0.02050
  14     243.0       94.0129        0.6793      155.3666      156.0459      62.032995       0.04446
  13     269.0       93.9866        0.7522      155.0088      155.7611      61.774421       0.08388
  12     297.5       93.9604        0.8308      154.4830      155.3138      61.353330       0.12489
  11     328.5       93.9349        0.9155      153.8474      154.7629      60.827953       0.14285
  10     361.9       93.9115        1.0064      153.0920      154.0984      60.186842       0.16221
   9     398.1       93.8927        1.1038      152.1542      153.2580      59.365285       0.19140
   8     437.6       93.8827        1.2075      150.9532      152.1606      58.277957       0.23248
   7     480.5       93.8864        1.3173      149.4606      150.7780      56.891580       0.27228
   6     533.0       93.9182        1.4504      147.3438      148.7942      54.876015       0.32424
   5     589.8       94.0024        1.5903      144.6537      146.2440      52.241606       0.39103
   4     651.6       94.1968        1.7342      141.0736      142.8078      48.611024       0.49649
   3     718.7       94.5764        1.8809      136.7027      138.5836      44.007229       0.57857
   2     792.3       95.3050        2.0273      131.4674      133.4947      38.189687       0.66721
   1     891.5       97.1432        2.2063      123.8175      126.0238      28.880604       0.79216
   0    1013.0      101.6094        2.3993      114.8460      117.2453      15.635813       0.91965



 Wavenumbers: 12850. - 16000. cm-1, ATM      1
 LEVEL PRESSURE   UPWARD FLUX   DIFDOWN FLUX  DIRDOWN FLUX  DOWNWARD FLUX   NET FLUX    HEATING RATE
          mb          W/m2          W/m2          W/m2        W/m2          W/m2       degree/day
  51    .06700       80.0392        0.0000       98.0872       98.0872      18.048025       0.00000
  50    .07753       80.0392        0.0001       98.0864       98.0864      18.047233       0.63474
  49    .09103       80.0392        0.0002       98.0853       98.0855      18.046238       0.62170
  48    0.1069       80.0392        0.0003       98.0841       98.0843      18.045095       0.60842
  47    0.1255       80.0392        0.0004       98.0826       98.0830      18.043782       0.59543
  46    0.1487       80.0393        0.0005       98.0809       98.0814      18.042124       0.60429
  45    0.1794       80.0393        0.0007       98.0784       98.0792      18.039868       0.61921
  44    0.2165       80.0394        0.0010       98.0756       98.0766      18.037215       0.60368
  43    0.2613       80.0395        0.0013       98.0723       98.0736      18.034093       0.58838
  42    0.3336       80.0397        0.0017       98.0670       98.0687      18.028997       0.59414
  41    0.4307       80.0401        0.0023       98.0602       98.0625      18.022405       0.57314
  40    0.5894       80.0409        0.0034       98.0496       98.0530      18.012014       0.55261
  39     1.339       80.0477        0.0082       98.0043       98.0125      17.964861       0.53086
  38     1.782       80.0538        0.0110       97.9793       97.9903      17.936509       0.53977
  37     2.292       80.0629        0.0143       97.9498       97.9641      17.901168       0.58534
  36     2.964       80.0780        0.0186       97.9088       97.9274      17.849443       0.64931
  35     3.853       80.1022        0.0243       97.8503       97.8746      17.772381       0.73133
  34     5.035       80.1388        0.0318       97.7680       97.7998      17.661046       0.79533
  33     6.613       80.1898        0.0419       97.6562       97.6981      17.508328       0.81643
  32     8.786       80.2562        0.0555       97.5107       97.5661      17.309975       0.77033
  31     11.80       80.3426        0.0748       97.3179       97.3927      17.050059       0.72768
  30     15.07       80.4256        0.0956       97.1283       97.2240      16.798378       0.64979
  29     18.79       80.5104        0.1191       96.9300       97.0491      16.538763       0.58863
  28     23.16       80.5991        0.1465       96.7166       96.8630      16.263965       0.53137
  27     28.12       80.6885        0.1778       96.4935       96.6713      15.982728       0.47808
  26     33.73       80.7715        0.2128       96.2731       96.4859      15.714435       0.40338
  25     40.54       80.8517        0.2551       96.0408       96.2959      15.444158       0.33531
  24     48.69       80.9292        0.3061       95.7946       96.1007      15.171540       0.28212
  23     57.69       80.9955        0.3622       95.5573       95.9195      14.923993       0.23204
  22     68.43       81.0541        0.4290       95.3106       95.7396      14.685481       0.18750
  21     81.20       81.0962        0.5087       95.0643       95.5731      14.476891       0.13783
  20     96.49       81.1205        0.6038       94.8153       95.4191      14.298607       0.09840
  19     114.6       81.1501        0.7179       94.5411       95.2590      14.108844       0.08861
  18     136.5       81.1736        0.8532       94.2321       95.0852      13.911603       0.07584
  17     162.9       81.1909        1.0142       93.8755       94.8898      13.698914       0.06798
  16     196.4       81.1904        1.2231       93.4349       94.6581      13.467634       0.05822
  15     218.7       81.1819        1.3603       93.1516       94.5120      13.330041       0.05224
  14     243.0       81.1691        1.5095       92.8445       94.3540      13.184904       0.05034
  13     269.0       81.1518        1.6711       92.5124       94.1835      13.031693       0.04970
  12     297.5       81.1305        1.8457       92.1522       93.9980      12.867481       0.04870
  11     328.5       81.1071        2.0345       91.7604       93.7949      12.687828       0.04885
  10     361.9       81.0822        2.2377       91.3346       93.5722      12.490030       0.05004
   9     398.1       81.0571        2.4564       90.8707       93.3271      12.270050       0.05125
   8     437.6       81.0341        2.6911       90.3621       93.0532      12.019159       0.05364
   7     480.5       81.0155        2.9427       89.8031       92.7457      11.730229       0.05674
   6     533.0       81.0050        3.2522       89.0885       92.3407      11.335708       0.06347
   5     589.8       81.0170        3.5849       88.2726       91.8575      10.840512       0.07350
   4     651.6       81.0783        3.9409       87.3040       91.2449      10.166598       0.09216
   3     718.7       81.2111        4.3191       86.1631       90.4822       9.271044       0.11255
   2     792.3       81.4677        4.7159       84.8033       89.5192       8.051450       0.13987
   1     891.5       82.0892        5.2338       82.7368       87.9707       5.881452       0.18466
   0    1013.0       83.3750        5.8308       80.0478       85.8786       2.503623       0.23454



 Wavenumbers: 16000. - 22650. cm-1, ATM      1
 LEVEL PRESSURE   UPWARD FLUX   DIFDOWN FLUX  DIRDOWN FLUX  DOWNWARD FLUX   NET FLUX    HEATING RATE
          mb          W/m2          W/m2          W/m2        W/m2          W/m2       degree/day
  51    .06700      140.6170        0.0000      156.3892      156.3892      15.772255       0.00000
  50    .07753      140.6170        0.0004      156.3887      156.3891      15.772108       0.11811
  49    .09103      140.6169        0.0009      156.3879      156.3888      15.771894       0.13396
  48    0.1069      140.6169        0.0015      156.3871      156.3885      15.771607       0.15276
  47    0.1255      140.6170        0.0021      156.3861      156.3882      15.771223       0.17413
  46    0.1487      140.6170        0.0030      156.3847      156.3877      15.770656       0.20634
  45    0.1794      140.6171        0.0041      156.3828      156.3869      15.769771       0.24295
  44    0.2165      140.6174        0.0054      156.3805      156.3859      15.768571       0.27305
  43    0.2613      140.6177        0.0070      156.3776      156.3846      15.766943       0.30697
  42    0.3336      140.6184        0.0096      156.3726      156.3823      15.763846       0.36099
  41    0.4307      140.6197        0.0131      156.3657      156.3789      15.759179       0.40579
  40    0.5894      140.6222        0.0188      156.3537      156.3725      15.750278       0.47334
  39     1.339      140.6447        0.0458      156.2834      156.3292      15.684517       0.74035
  38     1.782      140.6655        0.0616      156.2324      156.2940      15.628497       1.06654
  37     2.292      140.6966        0.0800      156.1641      156.2441      15.547407       1.34306
  36     2.964      140.7485        0.1040      156.0605      156.1645      15.416041       1.64905
  35     3.853      140.8322        0.1358      155.9041      156.0398      15.207594       1.97819
  34     5.035      140.9586        0.1779      155.6774      155.8553      14.896610       2.22154
  33     6.613      141.1353        0.2341      155.3656      155.5997      14.464435       2.31041
  32     8.786      141.3654        0.3098      154.9577      155.2674      13.902082       2.18398
  31     11.80      141.6648        0.4179      154.4153      154.8331      13.168364       2.05418
  30     15.07      141.9516        0.5338      153.8804      154.4141      12.462558       1.82225
  29     18.79      142.2444        0.6645      153.3191      153.9836      11.739182       1.64012
  28     23.16      142.5504        0.8169      152.7126      153.5295      10.979108       1.46974
  27     28.12      142.8582        0.9910      152.0755      153.0665      10.208276       1.31036
  26     33.73      143.1423        1.1856      151.4409      152.6265       9.484244       1.08860
  25     40.54      143.4155        1.4205      150.7637      152.1842       8.768648       0.88778
  24     48.69      143.6770        1.7034      150.0338      151.7372       8.060207       0.73313
  23     57.69      143.8985        2.0137      149.3151      151.3289       7.430340       0.59041
  22     68.43      144.0915        2.3830      148.5476      150.9306       6.839069       0.46482
  21     81.20      144.2244        2.8226      147.7517      150.5743       6.349955       0.32320
  20     96.49      144.2925        3.3460      146.9127      150.2586       5.966130       0.21184
  19     114.6      144.3272        3.9656      145.9763      149.9419       5.614708       0.16409
  18     136.5      144.3369        4.6972      144.9088      149.6059       5.269005       0.13293
  17     162.9      144.3201        5.5643      143.6786      149.2429       4.922717       0.11069
  16     196.4      144.2369        6.6831      142.1651      148.8482       4.611283       0.07839
  15     218.7      144.1597        7.4142      141.2034      148.6176       4.457881       0.05824
  14     243.0      144.0655        8.2056      140.1754      148.3810       4.315453       0.04940
  13     269.0      143.9527        9.0593      139.0799      148.1391       4.186464       0.04184
  12     297.5      143.8205        9.9773      137.9145      147.8919       4.071362       0.03414
  11     328.5      143.6730       10.9641      136.6684      147.6325       3.959558       0.03040
  10     361.9      143.5098       12.0205      135.3406      147.3611       3.851259       0.02740
   9     398.1      143.3305       13.1506      133.9257      147.0762       3.745692       0.02459
   8     437.6      143.1359       14.3562      132.4196      146.7758       3.639900       0.02262
   7     480.5      142.9256       15.6397      130.8197      146.4594       3.533772       0.02084
   6     533.0      142.6665       17.2073      128.8677      146.0749       3.408439       0.02016
   5     589.8      142.3904       18.8821      126.7797      145.6618       3.271359       0.02035
   4     651.6      142.1030       20.6658      124.5456      145.2113       3.108295       0.02230
   3     718.7      141.8097       22.5601      122.1562      144.7162       2.906502       0.02536
   2     792.3      141.5252       24.5629      119.5973      144.1602       2.634977       0.03114
   1     891.5      141.2119       27.2219      116.1274      143.3493       2.137349       0.04235
   0    1013.0      140.9514       30.3465      111.9545      142.3010       1.349563       0.05470



 Wavenumbers: 22650. - 29000. cm-1, ATM      1
 LEVEL PRESSURE   UPWARD FLUX   DIFDOWN FLUX  DIRDOWN FLUX  DOWNWARD FLUX   NET FLUX    HEATING RATE
          mb          W/m2          W/m2          W/m2        W/m2          W/m2       degree/day
  51    .06700       58.6820        0.0000       59.0156       59.0156       0.333642       0.00000
  50    .07753       58.6819        0.0005       59.0151       59.0155       0.333642       0.00000
  49    .09103       58.6818        0.0010       59.0144       59.0154       0.333642      -0.00000
  48    0.1069       58.6816        0.0017       59.0136       59.0153       0.333642       0.00000
  47    0.1255       58.6815        0.0025       59.0127       59.0151       0.333642       0.00000
  46    0.1487       58.6813        0.0035       59.0115       59.0149       0.333642      -0.00000
  45    0.1794       58.6810        0.0048       59.0099       59.0147       0.333642       0.00000
  44    0.2165       58.6807        0.0063       59.0080       59.0144       0.333642      -0.00000
  43    0.2613       58.6804        0.0082       59.0058       59.0140       0.333642      -0.00000
  42    0.3336       58.6798        0.0113       59.0022       59.0134       0.333642       0.00000
  41    0.4307       58.6790        0.0154       58.9973       59.0127       0.333642      -0.00000
  40    0.5894       58.6777        0.0220       58.9894       59.0114       0.333642       0.00000
  39     1.339       58.6717        0.0535       58.9518       59.0053       0.333642       0.00000
  38     1.782       58.6681        0.0720       58.9297       59.0017       0.333642      -0.00000
  37     2.292       58.6640        0.0934       58.9042       58.9976       0.333642       0.00000
  36     2.964       58.6586        0.1216       58.8706       58.9922       0.333642      -0.00000
  35     3.853       58.6514        0.1587       58.8264       58.9851       0.333642       0.00000
  34     5.035       58.6419        0.2080       58.7676       58.9756       0.333642       0.00000
  33     6.613       58.6293        0.2738       58.6891       58.9629       0.333642      -0.00000
  32     8.786       58.6122        0.3624       58.5834       58.9458       0.333642       0.00000
  31     11.80       58.5878        0.4890       58.4324       58.9215       0.333642      -0.00000
  30     15.07       58.5617        0.6247       58.2706       58.8953       0.333642       0.00000
  29     18.79       58.5322        0.7777       58.0882       58.8659       0.333642       0.00000
  28     23.16       58.4979        0.9559       57.8757       58.8316       0.333642       0.00000
  27     28.12       58.4588        1.1591       57.6333       58.7924       0.333642       0.00000
  26     33.73       58.4151        1.3857       57.3631       58.7488       0.333642       0.00000
  25     40.54       58.3626        1.6584       57.0379       58.6963       0.333642       0.00000
  24     48.69       58.2996        1.9854       56.6479       58.6333       0.333642      -0.00000
  23     57.69       58.2309        2.3424       56.2221       58.5645       0.333642       0.00000
  22     68.43       58.1495        2.7646       55.7186       58.4832       0.333642       0.00000
  21     81.20       58.0534        3.2632       55.1239       58.3871       0.333642       0.00000
  20     96.49       57.9401        3.8510       54.4228       58.2738       0.333642      -0.00000
  19     114.6       57.8073        4.5400       53.6010       58.1410       0.333642       0.00000
  18     136.5       57.6522        5.3441       52.6418       57.9859       0.333642       0.00000
  17     162.9       57.4709        6.2842       51.5203       57.8045       0.333642       0.00000
  16     196.4       57.2410        7.4752       50.0994       57.5747       0.333642      -0.00000
  15     218.7       57.0932        8.2406       49.1863       57.4269       0.333642       0.00000
  14     243.0       56.9354        9.0578       48.2113       57.2691       0.333642       0.00000
  13     269.0       56.7676        9.9263       47.1750       57.1012       0.333642       0.00000
  12     297.5       56.5899       10.8453       46.0783       56.9236       0.333642       0.00000
  11     328.5       56.4022       11.8162       44.9196       56.7358       0.333642      -0.00000
  10     361.9       56.2047       12.8364       43.7020       56.5384       0.333642       0.00000
   9     398.1       55.9976       13.9060       42.4253       56.3313       0.333642       0.00000
   8     437.6       55.7812       15.0228       41.0921       56.1149       0.333642       0.00000
   7     480.5       55.5560       16.1845       39.7051       55.8896       0.333642       0.00000
   6     533.0       55.2878       17.5663       38.0551       55.6214       0.333642      -0.00000
   5     589.8       55.0094       18.9988       36.3442       55.3431       0.333642       0.00000
   4     651.6       54.7223       20.4747       34.5812       55.0560       0.333642       0.00000
   3     718.7       54.4276       21.9877       32.7736       54.7612       0.333642       0.00000
   2     792.3       54.1265       23.5307       30.9294       54.4601       0.333642      -0.00000
   1     891.5       53.7431       25.4913       28.5855       54.0768       0.333642       0.00000
   0    1013.0       53.3151       27.6740       25.9747       53.6487       0.333642       0.00000



 Wavenumbers: 29000. - 38000. cm-1, ATM      1
 LEVEL PRESSURE   UPWARD FLUX   DIFDOWN FLUX  DIRDOWN FLUX  DOWNWARD FLUX   NET FLUX    HEATING RATE
          mb          W/m2          W/m2          W/m2        W/m2          W/m2       degree/day
  51    .06700        8.7676        0.0000       20.8114       20.8114      12.043751       0.00000
  50    .07753        8.7674        0.0003       20.8070       20.8074      12.039943       3.05155
  49    .09103        8.7672        0.0007       20.8009       20.8016      12.034406       3.46085
  48    0.1069        8.7669        0.0012       20.7928       20.7939      12.026996       3.94429
  47    0.1255        8.7667        0.0017       20.7820       20.7837      12.017092       4.49034
  46    0.1487        8.7663        0.0024       20.7665       20.7688      12.002528       5.30844
  45    0.1794        8.7659        0.0033       20.7424       20.7457      11.979864       6.22204
  44    0.2165        8.7653        0.0044       20.7103       20.7147      11.949341       6.94340
  43    0.2613        8.7648        0.0056       20.6675       20.6731      11.908346       7.72732
  42    0.3336        8.7639        0.0077       20.5880       20.5957      11.831785       8.92625
  41    0.4307        8.7628        0.0104       20.4722       20.4826      11.719833       9.73402
  40    0.5894        8.7612        0.0147       20.2637       20.2784      11.517149      10.77846
  39     1.339        8.7578        0.0331       19.0984       19.1315      10.373672      12.87347
  38     1.782        8.7583        0.0427       18.4394       18.4821       9.723748      12.37351
  37     2.292        8.7610        0.0530       17.7714       17.8244       9.063403      10.93703
  36     2.964        8.7676        0.0657       17.0421       17.1078       8.340279       9.07739
  35     3.853        8.7804        0.0816       16.2678       16.3495       7.569100       7.31863
  34     5.035        8.8015        0.1018       15.4803       15.5821       6.780606       5.63267
  33     6.613        8.8322        0.1276       14.7157       14.8433       6.011025       4.11418
  32     8.786        8.8729        0.1614       13.9936       14.1549       5.282079       2.83096
  31     11.80        8.9259        0.2084       13.2835       13.4920       4.566120       2.00446
  30     15.07        8.9770        0.2573       12.7394       12.9966       4.019650       1.41088
  29     18.79        9.0298        0.3114       12.2666       12.5780       3.548207       1.06891
  28     23.16        9.0859        0.3729       11.8300       12.2029       3.117071       0.83368
  27     28.12        9.1433        0.4418       11.4279       11.8697       2.726380       0.66415
  26     33.73        9.1964        0.5178       11.0695       11.5872       2.390875       0.50444
  25     40.54        9.2467        0.6085       10.7209       11.3294       2.082707       0.38232
  24     48.69        9.2942        0.7162       10.3742       11.0904       1.796150       0.29654
  23     57.69        9.3333        0.8328       10.0549       10.8877       1.554387       0.22662
  22     68.43        9.3649        0.9695        9.7327       10.7022       1.337346       0.17062
  21     81.20        9.3801        1.1309        9.4134       10.5443       1.164275       0.11436
  20     96.49        9.3769        1.3207        9.0887       10.4094       1.032527       0.07272
  19     114.6        9.3635        1.5400        8.7388       10.2788       0.915254       0.05476
  18     136.5        9.3429        1.7907        8.3549       10.1456       0.802725       0.04327
  17     162.9        9.3151        2.0765        7.9311       10.0076       0.692545       0.03522
  16     196.4        9.2683        2.4305        7.4333        9.8638       0.595564       0.02441
  15     218.7        9.2345        2.6532        7.1295        9.7828       0.548264       0.01796
  14     243.0        9.1975        2.8860        6.8161        9.7021       0.504586       0.01515
  13     269.0        9.1570        3.1281        6.4943        9.6224       0.465366       0.01272
  12     297.5        9.1132        3.3783        6.1658        9.5440       0.430792       0.01025
  11     328.5        9.0675        3.6357        5.8295        9.4652       0.397689       0.00900
  10     361.9        9.0203        3.8979        5.4887        9.3866       0.366206       0.00797
   9     398.1        8.9718        4.1642        5.1440        9.3082       0.336370       0.00695
   8     437.6        8.9225        4.4331        4.7970        9.2301       0.307607       0.00615
   7     480.5        8.8727        4.7026        4.4504        9.1530       0.280304       0.00536
   6     533.0        8.8157        5.0099        4.0563        9.0662       0.250540       0.00479
   5     589.8        8.7596        5.3121        3.6692        8.9813       0.221721       0.00428
   4     651.6        8.7052        5.6070        3.2918        8.8987       0.193527       0.00386
   3     718.7        8.6530        5.8926        2.9263        8.8189       0.165908       0.00347
   2     792.3        8.6039        6.1653        2.5775        8.7428       0.138871       0.00310
   1     891.5        8.5477        6.4858        2.1674        8.6532       0.105488       0.00284
   0    1013.0        8.4941        6.8081        1.7547        8.5627       0.068614       0.00256



 Wavenumbers: 38000. - 50000. cm-1, ATM      1
 LEVEL PRESSURE   UPWARD FLUX   DIFDOWN FLUX  DIRDOWN FLUX  DOWNWARD FLUX   NET FLUX    HEATING RATE
          mb          W/m2          W/m2          W/m2        W/m2          W/m2       degree/day
  51    .06700        0.0061        0.0000        1.2836        1.2836       1.277518       0.00000
  50    .07753        0.0061        0.0001        1.2812        1.2812       1.275183       1.87150
  49    .09103        0.0060        0.0002        1.2777        1.2778       1.271851       2.08247
  48    0.1069        0.0059        0.0002        1.2731        1.2734       1.267473       2.33059
  47    0.1255        0.0058        0.0004        1.2672        1.2675       1.261717       2.60908
  46    0.1487        0.0057        0.0005        1.2586        1.2591       1.253391       3.03499
  45    0.1794        0.0055        0.0007        1.2455        1.2462       1.240623       3.50520
  44    0.2165        0.0054        0.0009        1.2282        1.2291       1.223697       3.85037
  43    0.2613        0.0052        0.0011        1.2054        1.2065       1.201348       4.21261
  42    0.3336        0.0049        0.0015        1.1639        1.1654       1.160524       4.75970
  41    0.4307        0.0045        0.0020        1.1051        1.1070       1.102565       5.03943
  40    0.5894        0.0039        0.0026        1.0039        1.0064       1.002524       5.32007
  39     1.339        0.0022        0.0035        0.5438        0.5473       0.545104       5.14971
  38     1.782        0.0016        0.0032        0.3635        0.3666       0.365006       3.42879
  37     2.292        0.0012        0.0027        0.2356        0.2383       0.237058       2.11916
  36     2.964        0.0009        0.0022        0.1455        0.1477       0.146786       1.13318
  35     3.853        0.0006        0.0017        0.0858        0.0875       0.086906       0.56828
  34     5.035        0.0004        0.0013        0.0488        0.0501       0.049701       0.26578
  33     6.613        0.0003        0.0010        0.0273        0.0282       0.027974       0.11615
  32     8.786        0.0002        0.0007        0.0144        0.0151       0.014928       0.05067
  31     11.80        0.0001        0.0004        0.0065        0.0070       0.006903       0.02247
  30     15.07        0.0000        0.0003        0.0031        0.0034       0.003329       0.00923
  29     18.79        0.0000        0.0002        0.0014        0.0016       0.001583       0.00396
  28     23.16        0.0000        0.0001        0.0006        0.0007       0.000720       0.00167
  27     28.12        0.0000        0.0001        0.0003        0.0003       0.000317       0.00069
  26     33.73        0.0000        0.0000        0.0001        0.0001       0.000140       0.00027
  25     40.54        0.0000        0.0000        0.0000        0.0001       0.000057       0.00010
  24     48.69        0.0000        0.0000        0.0000        0.0000       0.000021       0.00004
  23     57.69        0.0000        0.0000        0.0000        0.0000       0.000008       0.00001
  22     68.43        0.0000        0.0000        0.0000        0.0000       0.000003       0.00000
  21     81.20        0.0000        0.0000        0.0000        0.0000       0.000001       0.00000
  20     96.49        0.0000        0.0000        0.0000        0.0000       0.000000       0.00000
  19     114.6        0.0000        0.0000        0.0000        0.0000       0.000000       0.00000
  18     136.5        0.0000        0.0000        0.0000        0.0000       0.000000       0.00000
  17     162.9        0.0000        0.0000        0.0000        0.0000       0.000000       0.00000
  16     196.4        0.0000        0.0000        0.0000        0.0000       0.000000       0.00000
  15     218.7        0.0000        0.0000        0.0000        0.0000       0.000000       0.00000
  14     243.0        0.0000        0.0000        0.0000        0.0000       0.000000       0.00000
  13     269.0        0.0000        0.0000        0.0000        0.0000       0.000000       0.00000
  12     297.5        0.0000        0.0000        0.0000        0.0000       0.000000       0.00000
  11     328.5        0.0000        0.0000        0.0000        0.0000       0.000000       0.00000
  10     361.9        0.0000        0.0000        0.0000        0.0000       0.000000       0.00000
   9     398.1        0.0000        0.0000        0.0000        0.0000       0.000000       0.00000
   8     437.6        0.0000        0.0000        0.0000        0.0000       0.000000       0.00000
   7     480.5        0.0000        0.0000        0.0000        0.0000       0.000000       0.00000
   6     533.0        0.0000        0.0000        0.0000        0.0000       0.000000       0.00000
   5     589.8        0.0000        0.0000        0.0000        0.0000       0.000000       0.00000
   4     651.6        0.0000        0.0000        0.0000        0.0000       0.000000       0.00000
   3     718.7        0.0000        0.0000        0.0000        0.0000       0.000000       0.00000
   2     792.3        0.0000        0.0000        0.0000        0.0000       0.000000       0.00000
   1     891.5        0.0000        0.0000        0.0000        0.0000       0.000000       0.00000
   0    1013.0        0.0000        0.0000        0.0000        0.0000       0.000000       0.00000



 Wavenumbers:   820. -  2600. cm-1, ATM      1
 LEVEL PRESSURE   UPWARD FLUX   DIFDOWN FLUX  DIRDOWN FLUX  DOWNWARD FLUX   NET FLUX    HEATING RATE
          mb          W/m2          W/m2          W/m2        W/m2          W/m2       degree/day
  51    .06700        0.0139        0.0000        6.0047        6.0047       5.990797       0.00000
  50    .07753        0.0139        0.0000        6.0008        6.0008       5.986953       3.08094
  49    .09103        0.0139        0.0000        5.9999        5.9999       5.986079       0.54619
  48    0.1069        0.0139        0.0000        5.9990        5.9990       5.985104       0.51901
  47    0.1255        0.0139        0.0000        5.9979        5.9979       5.984003       0.49886
  46    0.1487        0.0139        0.0000        5.9965        5.9965       5.982669       0.48652
  45    0.1794        0.0139        0.0000        5.9948        5.9948       5.980981       0.46343
  44    0.2165        0.0139        0.0000        5.9930        5.9930       5.979176       0.41040
  43    0.2613        0.0139        0.0000        5.9911        5.9911       5.977264       0.36049
  42    0.3336        0.0139        0.0000        5.9883        5.9883       5.974466       0.32623
  41    0.4307        0.0139        0.0000        5.9850        5.9850       5.971105       0.29222
  40    0.5894        0.0139        0.0000        5.9796        5.9796       5.965781       0.28313
  39     1.339        0.0139        0.0000        5.9550        5.9550       5.941143       0.27738
  38     1.782        0.0139        0.0000        5.9413        5.9413       5.927479       0.26014
  37     2.292        0.0139        0.0000        5.9261        5.9261       5.912243       0.25236
  36     2.964        0.0139        0.0000        5.9069        5.9069       5.893084       0.24050
  35     3.853        0.0139        0.0000        5.8829        5.8829       5.869084       0.22776
  34     5.035        0.0139        0.0000        5.8532        5.8532       5.839353       0.21239
  33     6.613        0.0139        0.0000        5.8161        5.8161       5.802201       0.19862
  32     8.786        0.0139        0.0000        5.7691        5.7691       5.755277       0.18224
  31     11.80        0.0139        0.0000        5.7103        5.7103       5.696462       0.16466
  30     15.07        0.0139        0.0000        5.6604        5.6604       5.646551       0.12886
  29     18.79        0.0139        0.0000        5.6193        5.6194       5.605499       0.09308
  28     23.16        0.0139        0.0000        5.5863        5.5863       5.572464       0.06388
  27     28.12        0.0139        0.0000        5.5594        5.5594       5.545587       0.04569
  26     33.73        0.0139        0.0000        5.5353        5.5353       5.521475       0.03625
  25     40.54        0.0139        0.0000        5.5090        5.5090       5.495176       0.03263
  24     48.69        0.0139        0.0000        5.4787        5.4787       5.464864       0.03137
  23     57.69        0.0138        0.0000        5.4461        5.4461       5.432251       0.03057
  22     68.43        0.0138        0.0000        5.4080        5.4080       5.394175       0.02993
  21     81.20        0.0138        0.0000        5.3643        5.3644       5.350511       0.02885
  20     96.49        0.0138        0.0000        5.3140        5.3140       5.300124       0.02781
  19     114.6        0.0138        0.0000        5.2561        5.2561       5.242288       0.02701
  18     136.5        0.0138        0.0000        5.1905        5.1905       5.176705       0.02522
  17     162.9        0.0138        0.0000        5.1105        5.1106       5.096710       0.02557
  16     196.4        0.0138        0.0000        4.9933        4.9933       4.979432       0.02952
  15     218.7        0.0138        0.0000        4.8898        4.8898       4.875959       0.03928
  14     243.0        0.0138        0.0000        4.7444        4.7445       4.730622       0.05041
  13     269.0        0.0138        0.0000        4.5736        4.5737       4.559802       0.05541
  12     297.5        0.0139        0.0000        4.3876        4.3876       4.373735       0.05519
  11     328.5        0.0139        0.0000        4.1880        4.1881       4.174191       0.05426
  10     361.9        0.0139        0.0000        3.9526        3.9526       3.938744       0.05957
   9     398.1        0.0139        0.0000        3.6952        3.6953       3.681356       0.05997
   8     437.6        0.0139        0.0000        3.4481        3.4481       3.434213       0.05284
   7     480.5        0.0140        0.0000        3.2541        3.2542       3.240204       0.03810
   6     533.0        0.0140        0.0000        3.0966        3.0966       3.082585       0.02536
   5     589.8        0.0141        0.0000        2.9574        2.9575       2.943381       0.02066
   4     651.6        0.0143        0.0000        2.7836        2.7837       2.769409       0.02379
   3     718.7        0.0145        0.0000        2.5784        2.5784       2.563914       0.02583
   2     792.3        0.0150        0.0000        2.3529        2.3530       2.337987       0.02591
   1     891.5        0.0162        0.0000        2.0543        2.0543       2.038145       0.02552
   0    1013.0        0.0190        0.0000        1.6709        1.6709       1.651849       0.02682

  Modules and versions used in this calculation:

       rrtmg_sw.1col.f90:  $Revision$                    rrtmg_sw_init.f90:  $Revision$        
     rrtmgsw_cldprop.f90:  $Revision$                  rrtmgsw_cldprmc.f90:  NOT USED          
     rrtmg_sw_reftra.f90:  $Revision$                  rrtmg_sw_spcvrt.f90:  NOT USED          
     rrtmg_sw_spcvmc.f90:  NOT USED                    rrtmgsw_setcoef.f90:  NOT USED          
     rrtmg_sw_taumol.f90:  $Revision$                  rrtmg_sw_vrtqdr.f90:  NOT USED          
                rrtatm.f:  NOT USED                             util_xxx.f:  NOT USED          
                 extra.f:  NOT USED                       rrtmg_sw_k_g.f90:  $Revision$        

