

 Wavenumbers:   820. - 50000. cm-1, ATM      1
 LEVEL PRESSURE   UPWARD FLUX   DIFDOWN FLUX  DIRDOWN FLUX  DOWNWARD FLUX   NET FLUX    HEATING RATE
          mb          W/m2          W/m2          W/m2        W/m2          W/m2       degree/day
  51    .06700      433.8335        0.0000      617.8126      617.8126     183.979050       0.00000
  50    .07753      433.8332        0.0014      617.7950      617.7964     183.963224      12.68449
  49    .09103      433.8327        0.0031      617.7785      617.7815     183.948793       9.01965
  48    0.1069      433.8323        0.0050      617.7592      617.7642     183.931950       8.96585
  47    0.1255      433.8318        0.0073      617.7356      617.7428     183.911072       9.46498
  46    0.1487      433.8312        0.0101      617.7031      617.7132     183.881964      10.61013
  45    0.1794      433.8305        0.0140      617.6551      617.6690     183.838499      11.93215
  44    0.2165      433.8298        0.0185      617.5934      617.6119     183.782070      12.83669
  43    0.2613      433.8292        0.0239      617.5139      617.5378     183.708614      13.84610
  42    0.3336      433.8285        0.0328      617.3710      617.4038     183.575299      15.54326
  41    0.4307      433.8279        0.0445      617.1685      617.2130     183.385048      16.54186
  40    0.5894      433.8281        0.0633      616.8140      616.8773     183.049231      17.85832
  39     1.339      433.8477        0.1486      614.9755      615.1242     181.276457      19.95822
  38     1.782      433.8724        0.1966      614.0074      614.2041     180.331702      17.98661
  37     2.292      433.9129        0.2513      613.0561      613.3074     179.394528      15.52205
  36     2.964      433.9840        0.3223      612.0199      612.3422     178.358159      13.00956
  35     3.853      434.1031        0.4154      610.8793      611.2947     177.191676      11.07013
  34     5.035      434.2859        0.5383      609.6278      610.1661     175.880293       9.36798
  33     6.613      434.5432        0.7014      608.2637      608.9652     174.421990       7.79609
  32     8.786      434.8784        0.9203      606.7684      607.6887     172.810300       6.25922
  31     11.80      435.3128        1.2319      605.0231      606.2550     170.942172       5.23017
  30     15.07      435.7267        1.5645      603.4463      605.0108     169.284064       4.28091
  29     18.79      436.1473        1.9386      601.8816      603.8202     167.672929       3.65294
  28     23.16      436.5844        2.3734      600.2540      602.6274     166.043024       3.15171
  27     28.12      437.0209        2.8683      598.5831      601.4515     164.430594       2.74102
  26     33.73      437.4167        3.4201      596.9249      600.3450     162.928304       2.25873
  25     40.54      437.7870        4.0844      595.1405      599.2249     161.437850       1.84908
  24     48.69      438.1290        4.8816      593.1949      598.0765     159.947533       1.54225
  23     57.69      438.4033        5.7531      591.2454      596.9985     158.595197       1.26761
  22     68.43      438.6200        6.7856      589.1142      595.8998     157.279770       1.03410
  21     81.20      438.7256        8.0099      586.8147      594.8245     156.098937       0.78028
  20     96.49      438.7099        9.4595      584.2977      593.7572     155.047360       0.58039
  19     114.6      438.6296       11.1649      581.4502      592.6150     153.985443       0.49584
  18     136.5      438.4887       13.1619      578.2061      591.3681     152.879418       0.42529
  17     162.9      438.2817       15.5059      574.4819      589.9878     151.706144       0.37503
  16     196.4      437.9230       18.4957      569.8685      588.3641     150.441159       0.31841
  15     218.7      437.6571       20.4290      566.8821      587.3111     149.654036       0.29884
  14     243.0      437.3573       22.5032      563.5906      586.0938     148.736520       0.31823
  13     269.0      437.0221       24.7199      559.9229      584.6428     147.620650       0.36198
  12     297.5      436.6520       27.0798      555.8438      582.9236     146.271600       0.40011
  11     328.5      436.2546       29.5897      551.4329      581.0226     144.767991       0.40883
  10     361.9      435.8321       32.2458      546.6393      578.8851     143.053000       0.43391
   9     398.1      435.3862       35.0531      541.3790      576.4321     141.045965       0.46759
   8     437.6      434.9229       38.0111      535.5828      573.5939     138.671034       0.50777
   7     480.5      434.4466       41.1183      529.2800      570.3983     135.951711       0.53406
   6     533.0      433.8968       44.8566      521.4351      566.2917     132.394889       0.57218
   5     589.8      433.3651       48.7838      512.7844      561.5682     128.203152       0.62219
   4     651.6      432.9021       52.8931      502.9327      555.8258     122.923746       0.72197
   3     718.7      432.5688       57.1764      491.9875      549.1639     116.595116       0.79533
   2     792.3      432.4890       61.6215      479.9557      541.5772     109.088191       0.86096
   1     891.5      433.0437       67.3937      463.7800      531.1736      98.129947       0.93249
   0    1013.0      435.2114       74.0075      445.1813      519.1888      83.977429       0.98268



 Wavenumbers:  2600. -  3250. cm-1, ATM      1
 LEVEL PRESSURE   UPWARD FLUX   DIFDOWN FLUX  DIRDOWN FLUX  DOWNWARD FLUX   NET FLUX    HEATING RATE
          mb          W/m2          W/m2          W/m2        W/m2          W/m2       degree/day
  51    .06700        0.0503        0.0000        5.4450        5.4450       5.394754       0.00000
  50    .07753        0.0503        0.0000        5.4450        5.4450       5.394746       0.00640
  49    .09103        0.0503        0.0000        5.4450        5.4450       5.394736       0.00627
  48    0.1069        0.0503        0.0000        5.4450        5.4450       5.394724       0.00613
  47    0.1255        0.0503        0.0000        5.4450        5.4450       5.394711       0.00599
  46    0.1487        0.0503        0.0000        5.4450        5.4450       5.394694       0.00608
  45    0.1794        0.0503        0.0000        5.4450        5.4450       5.394672       0.00625
  44    0.2165        0.0503        0.0000        5.4449        5.4449       5.394645       0.00612
  43    0.2613        0.0503        0.0000        5.4449        5.4449       5.394613       0.00600
  42    0.3336        0.0503        0.0000        5.4448        5.4448       5.394560       0.00617
  41    0.4307        0.0503        0.0000        5.4448        5.4448       5.394489       0.00620
  40    0.5894        0.0503        0.0000        5.4446        5.4446       5.394369       0.00637
  39     1.339        0.0503        0.0000        5.4439        5.4439       5.393661       0.00797
  38     1.782        0.0503        0.0000        5.4434        5.4434       5.393118       0.01034
  37     2.292        0.0503        0.0000        5.4427        5.4427       5.392402       0.01186
  36     2.964        0.0503        0.0000        5.4416        5.4416       5.391364       0.01304
  35     3.853        0.0503        0.0000        5.4402        5.4402       5.389887       0.01402
  34     5.035        0.0503        0.0000        5.4381        5.4381       5.387831       0.01468
  33     6.613        0.0503        0.0000        5.4353        5.4353       5.385050       0.01487
  32     8.786        0.0503        0.0000        5.4317        5.4317       5.381418       0.01411
  31     11.80        0.0503        0.0000        5.4269        5.4269       5.376638       0.01338
  30     15.07        0.0503        0.0000        5.4224        5.4224       5.372112       0.01169
  29     18.79        0.0503        0.0000        5.4180        5.4180       5.367700       0.01000
  28     23.16        0.0503        0.0000        5.4135        5.4135       5.363215       0.00867
  27     28.12        0.0503        0.0000        5.4088        5.4088       5.358568       0.00790
  26     33.73        0.0503        0.0000        5.4036        5.4036       5.353328       0.00788
  25     40.54        0.0503        0.0000        5.3966        5.3967       5.346388       0.00861
  24     48.69        0.0503        0.0000        5.3872        5.3872       5.336914       0.00980
  23     57.69        0.0503        0.0000        5.3754        5.3754       5.325132       0.01104
  22     68.43        0.0503        0.0000        5.3599        5.3599       5.309649       0.01217
  21     81.20        0.0503        0.0000        5.3401        5.3401       5.289821       0.01310
  20     96.49        0.0503        0.0000        5.3155        5.3155       5.265263       0.01355
  19     114.6        0.0503        0.0000        5.2860        5.2861       5.235787       0.01376
  18     136.5        0.0503        0.0000        5.2519        5.2519       5.201661       0.01312
  17     162.9        0.0503        0.0001        5.2136        5.2136       5.163338       0.01225
  16     196.4        0.0503        0.0001        5.1689        5.1690       5.118709       0.01123
  15     218.7        0.0503        0.0001        5.1426        5.1427       5.092358       0.01000
  14     243.0        0.0503        0.0001        5.1161        5.1162       5.065877       0.00918
  13     269.0        0.0503        0.0001        5.0892        5.0893       5.038989       0.00872
  12     297.5        0.0504        0.0001        5.0613        5.0614       5.011018       0.00830
  11     328.5        0.0504        0.0001        5.0318        5.0319       4.981542       0.00801
  10     361.9        0.0505        0.0001        4.9999        5.0000       4.949544       0.00810
   9     398.1        0.0505        0.0001        4.9635        4.9636       4.913102       0.00849
   8     437.6        0.0506        0.0001        4.9209        4.9211       4.870454       0.00912
   7     480.5        0.0507        0.0002        4.8709        4.8711       4.820363       0.00984
   6     533.0        0.0509        0.0002        4.8013        4.8014       4.750503       0.01124
   5     589.8        0.0512        0.0002        4.7134        4.7136       4.662429       0.01307
   4     651.6        0.0516        0.0002        4.5976        4.5978       4.546263       0.01589
   3     718.7        0.0521        0.0002        4.4507        4.4509       4.398791       0.01853
   2     792.3        0.0529        0.0002        4.2689        4.2691       4.216186       0.02094
   1     891.5        0.0546        0.0002        4.0014        4.0016       3.947022       0.02290
   0    1013.0        0.0579        0.0003        3.6846        3.6849       3.627017       0.02222



 Wavenumbers:  3250. -  4000. cm-1, ATM      1
 LEVEL PRESSURE   UPWARD FLUX   DIFDOWN FLUX  DIRDOWN FLUX  DOWNWARD FLUX   NET FLUX    HEATING RATE
          mb          W/m2          W/m2          W/m2        W/m2          W/m2       degree/day
  51    .06700        0.0206        0.0000        9.1795        9.1795       9.158969       0.00000
  50    .07753        0.0206        0.0000        9.1749        9.1749       9.154296       3.74525
  49    .09103        0.0206        0.0000        9.1717        9.1717       9.151100       1.99767
  48    0.1069        0.0206        0.0000        9.1693        9.1693       9.148771       1.23977
  47    0.1255        0.0206        0.0000        9.1673        9.1673       9.146716       0.93192
  46    0.1487        0.0206        0.0000        9.1651        9.1651       9.144509       0.80426
  45    0.1794        0.0206        0.0000        9.1625        9.1625       9.141916       0.71196
  44    0.2165        0.0206        0.0000        9.1599        9.1599       9.139302       0.59464
  43    0.2613        0.0206        0.0000        9.1572        9.1572       9.136674       0.49539
  42    0.3336        0.0206        0.0000        9.1536        9.1536       9.133059       0.42137
  41    0.4307        0.0206        0.0000        9.1496        9.1496       9.129044       0.34917
  40    0.5894        0.0206        0.0000        9.1438        9.1438       9.123238       0.30874
  39     1.339        0.0206        0.0000        9.1210        9.1210       9.100439       0.25668
  38     1.782        0.0206        0.0000        9.1106        9.1106       9.090056       0.19766
  37     2.292        0.0206        0.0000        9.1005        9.1005       9.079986       0.16679
  36     2.964        0.0206        0.0000        9.0892        9.0892       9.068630       0.14255
  35     3.853        0.0206        0.0000        9.0758        9.0758       9.055214       0.12732
  34     5.035        0.0206        0.0000        9.0590        9.0590       9.038458       0.11970
  33     6.613        0.0206        0.0000        9.0368        9.0369       9.016302       0.11845
  32     8.786        0.0205        0.0000        9.0059        9.0059       8.985362       0.12016
  31     11.80        0.0205        0.0000        8.9595        8.9595       8.938960       0.12991
  30     15.07        0.0205        0.0000        8.9075        8.9076       8.887012       0.13412
  29     18.79        0.0205        0.0000        8.8474        8.8474       8.826846       0.13642
  28     23.16        0.0205        0.0000        8.7769        8.7770       8.756452       0.13612
  27     28.12        0.0205        0.0000        8.6988        8.6988       8.678281       0.13288
  26     33.73        0.0205        0.0000        8.6168        8.6168       8.596309       0.12325
  25     40.54        0.0205        0.0001        8.5269        8.5270       8.506498       0.11142
  24     48.69        0.0205        0.0001        8.4310        8.4311       8.410585       0.09926
  23     57.69        0.0205        0.0001        8.3363        8.3364       8.315918       0.08874
  22     68.43        0.0205        0.0001        8.2309        8.2310       8.210498       0.08287
  21     81.20        0.0205        0.0001        8.1093        8.1094       8.088983       0.08030
  20     96.49        0.0204        0.0001        7.9680        7.9682       7.947727       0.07796
  19     114.6        0.0204        0.0001        7.8069        7.8070       7.786607       0.07523
  18     136.5        0.0204        0.0002        7.6300        7.6302       7.609807       0.06798
  17     162.9        0.0204        0.0002        7.4385        7.4387       7.418382       0.06119
  16     196.4        0.0203        0.0002        7.2131        7.2134       7.193051       0.05672
  15     218.7        0.0203        0.0003        7.0643        7.0646       7.044265       0.05649
  14     243.0        0.0203        0.0003        6.8878        6.8881       6.867783       0.06121
  13     269.0        0.0202        0.0003        6.6672        6.6675       6.647250       0.07154
  12     297.5        0.0202        0.0003        6.3933        6.3936       6.373341       0.08124
  11     328.5        0.0202        0.0003        6.1199        6.1203       6.100059       0.07430
  10     361.9        0.0202        0.0003        5.8401        5.8405       5.820268       0.07079
   9     398.1        0.0202        0.0004        5.5379        5.5383       5.518109       0.07040
   8     437.6        0.0202        0.0004        5.1934        5.1938       5.173559       0.07367
   7     480.5        0.0202        0.0004        4.8108        4.8112       4.790998       0.07513
   6     533.0        0.0203        0.0004        4.3421        4.3425       4.322189       0.07542
   5     589.8        0.0205        0.0004        3.8589        3.8593       3.838865       0.07174
   4     651.6        0.0207        0.0004        3.3492        3.3496       3.328822       0.06975
   3     718.7        0.0213        0.0003        2.8480        2.8484       2.827062       0.06306
   2     792.3        0.0223        0.0003        2.3596        2.3599       2.337528       0.05614
   1     891.5        0.0250        0.0003        1.7919        1.7922       1.767135       0.04854
   0    1013.0        0.0323        0.0002        1.2473        1.2475       1.215198       0.03832



 Wavenumbers:  4000. -  4650. cm-1, ATM      1
 LEVEL PRESSURE   UPWARD FLUX   DIFDOWN FLUX  DIRDOWN FLUX  DOWNWARD FLUX   NET FLUX    HEATING RATE
          mb          W/m2          W/m2          W/m2        W/m2          W/m2       degree/day
  51    .06700        1.5838        0.0000       10.7795       10.7795       9.195739       0.00000
  50    .07753        1.5838        0.0000       10.7795       10.7795       9.195738       0.00083
  49    .09103        1.5838        0.0000       10.7795       10.7795       9.195737       0.00082
  48    0.1069        1.5838        0.0000       10.7795       10.7795       9.195736       0.00080
  47    0.1255        1.5838        0.0000       10.7795       10.7795       9.195734       0.00078
  46    0.1487        1.5838        0.0000       10.7795       10.7795       9.195732       0.00079
  45    0.1794        1.5838        0.0000       10.7795       10.7795       9.195729       0.00081
  44    0.2165        1.5838        0.0000       10.7795       10.7795       9.195725       0.00080
  43    0.2613        1.5838        0.0000       10.7795       10.7795       9.195721       0.00078
  42    0.3336        1.5838        0.0000       10.7795       10.7795       9.195714       0.00081
  41    0.4307        1.5838        0.0000       10.7795       10.7795       9.195705       0.00081
  40    0.5894        1.5838        0.0000       10.7795       10.7795       9.195689       0.00083
  39     1.339        1.5838        0.0000       10.7794       10.7794       9.195595       0.00105
  38     1.782        1.5838        0.0000       10.7793       10.7793       9.195522       0.00139
  37     2.292        1.5838        0.0000       10.7792       10.7792       9.195424       0.00163
  36     2.964        1.5838        0.0000       10.7791       10.7791       9.195277       0.00184
  35     3.853        1.5838        0.0000       10.7788       10.7789       9.195059       0.00207
  34     5.035        1.5838        0.0000       10.7785       10.7785       9.194738       0.00229
  33     6.613        1.5838        0.0000       10.7780       10.7781       9.194265       0.00253
  32     8.786        1.5838        0.0000       10.7773       10.7774       9.193567       0.00271
  31     11.80        1.5838        0.0000       10.7762       10.7763       9.192471       0.00307
  30     15.07        1.5838        0.0001       10.7749       10.7750       9.191185       0.00332
  29     18.79        1.5838        0.0001       10.7733       10.7734       9.189629       0.00353
  28     23.16        1.5838        0.0001       10.7714       10.7715       9.187697       0.00374
  27     28.12        1.5838        0.0001       10.7690       10.7691       9.185357       0.00398
  26     33.73        1.5838        0.0001       10.7661       10.7663       9.182471       0.00434
  25     40.54        1.5838        0.0002       10.7622       10.7624       9.178555       0.00486
  24     48.69        1.5838        0.0002       10.7570       10.7572       9.173336       0.00540
  23     57.69        1.5839        0.0002       10.7508       10.7510       9.167146       0.00580
  22     68.43        1.5840        0.0003       10.7431       10.7434       9.159386       0.00610
  21     81.20        1.5841        0.0003       10.7336       10.7339       9.149828       0.00632
  20     96.49        1.5842        0.0004       10.7221       10.7224       9.138196       0.00642
  19     114.6        1.5845        0.0004       10.7082       10.7086       9.124149       0.00656
  18     136.5        1.5848        0.0005       10.6915       10.6920       9.107229       0.00651
  17     162.9        1.5852        0.0006       10.6714       10.6720       9.086772       0.00654
  16     196.4        1.5859        0.0008       10.6449       10.6456       9.059771       0.00680
  15     218.7        1.5864        0.0008       10.6271       10.6279       9.041551       0.00692
  14     243.0        1.5870        0.0009       10.6070       10.6079       9.020919       0.00716
  13     269.0        1.5878        0.0010       10.5838       10.5849       8.997064       0.00774
  12     297.5        1.5888        0.0011       10.5569       10.5581       8.969239       0.00825
  11     328.5        1.5901        0.0012       10.5260       10.5272       8.937122       0.00873
  10     361.9        1.5916        0.0014       10.4905       10.4919       8.900258       0.00933
   9     398.1        1.5935        0.0015       10.4499       10.4514       8.857878       0.00987
   8     437.6        1.5959        0.0016       10.4028       10.4045       8.808586       0.01054
   7     480.5        1.5988        0.0018       10.3482       10.3500       8.751202       0.01127
   6     533.0        1.6030        0.0020       10.2743       10.2763       8.673264       0.01254
   5     589.8        1.6085        0.0022       10.1833       10.1855       8.576998       0.01429
   4     651.6        1.6159        0.0024       10.0649       10.0673       8.451405       0.01718
   3     718.7        1.6259        0.0026        9.9141        9.9167       8.290755       0.02019
   2     792.3        1.6399        0.0028        9.7271        9.7299       8.089940       0.02303
   1     891.5        1.6657        0.0031        9.4525        9.4555       7.789851       0.02554
   0    1013.0        1.7125        0.0034        9.1113        9.1147       7.402154       0.02692



 Wavenumbers:  4650. -  5150. cm-1, ATM      1
 LEVEL PRESSURE   UPWARD FLUX   DIFDOWN FLUX  DIRDOWN FLUX  DOWNWARD FLUX   NET FLUX    HEATING RATE
          mb          W/m2          W/m2          W/m2        W/m2          W/m2       degree/day
  51    .06700        0.3981        0.0000       10.2033       10.2033       9.805196       0.00000
  50    .07753        0.3981        0.0000       10.2031       10.2031       9.804967       0.18369
  49    .09103        0.3981        0.0000       10.2028       10.2028       9.804680       0.17911
  48    0.1069        0.3981        0.0000       10.2025       10.2025       9.804353       0.17429
  47    0.1255        0.3981        0.0000       10.2021       10.2021       9.803979       0.16939
  46    0.1487        0.3981        0.0000       10.2017       10.2017       9.803512       0.17048
  45    0.1794        0.3981        0.0000       10.2010       10.2010       9.802879       0.17355
  44    0.2165        0.3981        0.0000       10.2003       10.2003       9.802141       0.16800
  43    0.2613        0.3981        0.0000       10.1994       10.1994       9.801280       0.16231
  42    0.3336        0.3981        0.0000       10.1980       10.1980       9.799886       0.16245
  41    0.4307        0.3981        0.0000       10.1962       10.1962       9.798096       0.15567
  40    0.5894        0.3981        0.0000       10.1934       10.1934       9.795300       0.14870
  39     1.339        0.3981        0.0000       10.1821       10.1822       9.784015       0.12705
  38     1.782        0.3981        0.0000       10.1768       10.1768       9.778629       0.10254
  37     2.292        0.3981        0.0000       10.1714       10.1714       9.773310       0.08808
  36     2.964        0.3981        0.0000       10.1656       10.1657       9.767533       0.07252
  35     3.853        0.3981        0.0000       10.1596       10.1596       9.761465       0.05759
  34     5.035        0.3981        0.0000       10.1534       10.1534       9.755267       0.04427
  33     6.613        0.3981        0.0000       10.1470       10.1470       9.748934       0.03386
  32     8.786        0.3981        0.0000       10.1401       10.1401       9.742036       0.02679
  31     11.80        0.3981        0.0001       10.1311       10.1312       9.733118       0.02497
  30     15.07        0.3981        0.0001       10.1214       10.1214       9.723361       0.02519
  29     18.79        0.3981        0.0001       10.1095       10.1096       9.711498       0.02690
  28     23.16        0.3981        0.0001       10.0943       10.0944       9.696377       0.02924
  27     28.12        0.3980        0.0002       10.0754       10.0756       9.677510       0.03207
  26     33.73        0.3980        0.0002       10.0525       10.0527       9.654692       0.03431
  25     40.54        0.3980        0.0002       10.0229       10.0232       9.625148       0.03665
  24     48.69        0.3980        0.0003        9.9852        9.9854       9.587435       0.03903
  23     57.69        0.3980        0.0003        9.9421        9.9424       9.544421       0.04032
  22     68.43        0.3980        0.0004        9.8900        9.8903       9.492326       0.04095
  21     81.20        0.3980        0.0004        9.8283        9.8287       9.430695       0.04072
  20     96.49        0.3981        0.0005        9.7573        9.7578       9.359760       0.03915
  19     114.6        0.3981        0.0006        9.6784        9.6790       9.280863       0.03684
  18     136.5        0.3982        0.0007        9.5931        9.5938       9.195606       0.03278
  17     162.9        0.3984        0.0009        9.5024        9.5032       9.104835       0.02901
  16     196.4        0.3987        0.0010        9.3979        9.3989       9.000293       0.02631
  15     218.7        0.3989        0.0011        9.3342        9.3354       8.936490       0.02422
  14     243.0        0.3992        0.0012        9.2670        9.2683       8.869096       0.02337
  13     269.0        0.3995        0.0014        9.1949        9.1963       8.796778       0.02346
  12     297.5        0.4000        0.0015        9.1161        9.1176       8.717654       0.02347
  11     328.5        0.4005        0.0016        9.0292        9.0308       8.630294       0.02375
  10     361.9        0.4012        0.0018        8.9326        8.9344       8.533133       0.02458
   9     398.1        0.4021        0.0020        8.8250        8.8270       8.424852       0.02523
   8     437.6        0.4032        0.0021        8.7048        8.7070       8.303750       0.02589
   7     480.5        0.4046        0.0023        8.5715        8.5737       8.169178       0.02643
   6     533.0        0.4066        0.0025        8.4014        8.4039       7.997348       0.02764
   5     589.8        0.4092        0.0027        8.2109        8.2136       7.804422       0.02864
   4     651.6        0.4128        0.0029        7.9938        7.9967       7.583906       0.03016
   3     718.7        0.4176        0.0031        7.7543        7.7574       7.339785       0.03068
   2     792.3        0.4241        0.0033        7.4897        7.4930       7.068857       0.03107
   1     891.5        0.4359        0.0036        7.1292        7.1328       6.696851       0.03166
   0    1013.0        0.4563        0.0038        6.7075        6.7113       6.254981       0.03068



 Wavenumbers:  5150. -  6150. cm-1, ATM      1
 LEVEL PRESSURE   UPWARD FLUX   DIFDOWN FLUX  DIRDOWN FLUX  DOWNWARD FLUX   NET FLUX    HEATING RATE
          mb          W/m2          W/m2          W/m2        W/m2          W/m2       degree/day
  51    .06700        3.3319        0.0000       25.5798       25.5798      22.247881       0.00000
  50    .07753        3.3319        0.0000       25.5798       25.5798      22.247878       0.00250
  49    .09103        3.3319        0.0000       25.5798       25.5798      22.247874       0.00253
  48    0.1069        3.3319        0.0000       25.5798       25.5798      22.247869       0.00256
  47    0.1255        3.3319        0.0000       25.5798       25.5798      22.247864       0.00259
  46    0.1487        3.3319        0.0000       25.5798       25.5798      22.247856       0.00273
  45    0.1794        3.3319        0.0000       25.5798       25.5798      22.247845       0.00290
  44    0.2165        3.3319        0.0000       25.5798       25.5798      22.247833       0.00294
  43    0.2613        3.3319        0.0000       25.5797       25.5798      22.247817       0.00298
  42    0.3336        3.3319        0.0000       25.5797       25.5797      22.247790       0.00314
  41    0.4307        3.3319        0.0000       25.5797       25.5797      22.247753       0.00319
  40    0.5894        3.3319        0.0000       25.5796       25.5796      22.247692       0.00328
  39     1.339        3.3319        0.0000       25.5793       25.5793      22.247388       0.00341
  38     1.782        3.3319        0.0000       25.5791       25.5791      22.247206       0.00347
  37     2.292        3.3319        0.0001       25.5788       25.5789      22.246994       0.00350
  36     2.964        3.3319        0.0001       25.5785       25.5786      22.246718       0.00346
  35     3.853        3.3319        0.0001       25.5781       25.5782      22.246357       0.00343
  34     5.035        3.3319        0.0001       25.5776       25.5777      22.245875       0.00344
  33     6.613        3.3318        0.0002       25.5769       25.5771      22.245227       0.00347
  32     8.786        3.3318        0.0002       25.5759       25.5762      22.244347       0.00341
  31     11.80        3.3318        0.0003       25.5746       25.5749      22.243086       0.00353
  30     15.07        3.3318        0.0004       25.5731       25.5735      22.241734       0.00349
  29     18.79        3.3317        0.0005       25.5714       25.5719      22.240220       0.00343
  28     23.16        3.3317        0.0006       25.5695       25.5702      22.238466       0.00339
  27     28.12        3.3317        0.0008       25.5674       25.5681      22.236475       0.00339
  26     33.73        3.3316        0.0009       25.5650       25.5659      22.234251       0.00334
  25     40.54        3.3316        0.0011       25.5621       25.5632      22.231548       0.00335
  24     48.69        3.3316        0.0013       25.5586       25.5599      22.228296       0.00336
  23     57.69        3.3316        0.0016       25.5548       25.5564      22.224705       0.00337
  22     68.43        3.3317        0.0018       25.5503       25.5521      22.220416       0.00337
  21     81.20        3.3318        0.0022       25.5448       25.5470      22.215277       0.00340
  20     96.49        3.3318        0.0026       25.5383       25.5409      22.209065       0.00343
  19     114.6        3.3320        0.0031       25.5304       25.5335      22.201500       0.00353
  18     136.5        3.3321        0.0037       25.5207       25.5244      22.192213       0.00357
  17     162.9        3.3324        0.0044       25.5068       25.5112      22.178852       0.00427
  16     196.4        3.3327        0.0053       25.4792       25.4844      22.151764       0.00682
  15     218.7        3.3329        0.0059       25.4385       25.4443      22.111444       0.01531
  14     243.0        3.3332        0.0065       25.3557       25.3622      22.029003       0.02859
  13     269.0        3.3335        0.0072       25.2173       25.2244      21.890907       0.04480
  12     297.5        3.3339        0.0079       25.0305       25.0384      21.704431       0.05531
  11     328.5        3.3345        0.0086       24.8083       24.8169      21.482411       0.06037
  10     361.9        3.3352        0.0094       24.5230       24.5324      21.197231       0.07215
   9     398.1        3.3361        0.0102       24.1627       24.1729      20.836760       0.08398
   8     437.6        3.3373        0.0110       23.7339       23.7449      20.407579       0.09176
   7     480.5        3.3390        0.0119       23.2614       23.2733      19.934291       0.09295
   6     533.0        3.3417        0.0129       22.6584       22.6712      19.329542       0.09728
   5     589.8        3.3458        0.0138       21.9272       21.9411      18.595280       0.10899
   4     651.6        3.3527        0.0147       20.9759       20.9906      17.637925       0.13092
   3     718.7        3.3645        0.0155       19.8787       19.8941      16.529650       0.13928
   2     792.3        3.3855        0.0161       18.6812       18.6973      15.311775       0.13968
   1     891.5        3.4381        0.0169       17.2076       17.2244      13.786310       0.12981
   0    1013.0        3.5815        0.0178       15.8544       15.8722      12.290682       0.10385



 Wavenumbers:  6150. -  7700. cm-1, ATM      1
 LEVEL PRESSURE   UPWARD FLUX   DIFDOWN FLUX  DIRDOWN FLUX  DOWNWARD FLUX   NET FLUX    HEATING RATE
          mb          W/m2          W/m2          W/m2        W/m2          W/m2       degree/day
  51    .06700        6.4601        0.0000       47.3108       47.3108      40.850770       0.00000
  50    .07753        6.4601        0.0000       47.3108       47.3108      40.850751       0.01540
  49    .09103        6.4601        0.0000       47.3108       47.3108      40.850726       0.01518
  48    0.1069        6.4601        0.0000       47.3108       47.3108      40.850698       0.01496
  47    0.1255        6.4601        0.0000       47.3107       47.3107      40.850666       0.01473
  46    0.1487        6.4601        0.0000       47.3107       47.3107      40.850624       0.01505
  45    0.1794        6.4601        0.0000       47.3106       47.3106      40.850568       0.01558
  44    0.2165        6.4601        0.0000       47.3105       47.3106      40.850500       0.01538
  43    0.2613        6.4601        0.0000       47.3105       47.3105      40.850419       0.01519
  42    0.3336        6.4600        0.0000       47.3103       47.3103      40.850285       0.01565
  41    0.4307        6.4600        0.0000       47.3101       47.3101      40.850106       0.01555
  40    0.5894        6.4600        0.0001       47.3098       47.3098      40.849813       0.01562
  39     1.339        6.4600        0.0001       47.3082       47.3084      40.848418       0.01571
  38     1.782        6.4599        0.0002       47.3073       47.3075      40.847599       0.01558
  37     2.292        6.4599        0.0003       47.3063       47.3065      40.846657       0.01562
  36     2.964        6.4598        0.0003       47.3049       47.3052      40.845427       0.01544
  35     3.853        6.4597        0.0004       47.3031       47.3035      40.843815       0.01530
  34     5.035        6.4596        0.0006       47.3007       47.3013      40.841686       0.01521
  33     6.613        6.4595        0.0008       47.2976       47.2983      40.838857       0.01512
  32     8.786        6.4592        0.0010       47.2933       47.2943      40.835074       0.01469
  31     11.80        6.4590        0.0013       47.2873       47.2887      40.829719       0.01499
  30     15.07        6.4586        0.0017       47.2810       47.2827      40.824046       0.01465
  29     18.79        6.4583        0.0022       47.2739       47.2760      40.817734       0.01431
  28     23.16        6.4579        0.0027       47.2657       47.2684      40.810478       0.01403
  27     28.12        6.4574        0.0032       47.2565       47.2597      40.802320       0.01387
  26     33.73        6.4569        0.0039       47.2464       47.2503      40.793378       0.01344
  25     40.54        6.4563        0.0046       47.2344       47.2391      40.782820       0.01310
  24     48.69        6.4555        0.0056       47.2204       47.2259      40.770440       0.01281
  23     57.69        6.4546        0.0066       47.2052       47.2118      40.757194       0.01242
  22     68.43        6.4536        0.0078       47.1876       47.1955      40.741835       0.01207
  21     81.20        6.4524        0.0093       47.1672       47.1764      40.724027       0.01177
  20     96.49        6.4510        0.0110       47.1433       47.1543      40.703356       0.01141
  19     114.6        6.4493        0.0131       47.1155       47.1286      40.679302       0.01123
  18     136.5        6.4473        0.0155       47.0831       47.0987      40.651438       0.01071
  17     162.9        6.4448        0.0185       47.0436       47.0621      40.617222       0.01094
  16     196.4        6.4417        0.0223       46.9851       47.0074      40.565646       0.01298
  15     218.7        6.4397        0.0248       46.9270       46.9517      40.512008       0.02036
  14     243.0        6.4377        0.0275       46.8255       46.8529      40.415260       0.03356
  13     269.0        6.4356        0.0304       46.6521       46.6824      40.246813       0.05464
  12     297.5        6.4336        0.0334       46.3932       46.4267      39.993028       0.07527
  11     328.5        6.4317        0.0367       46.0756       46.1123      39.680606       0.08495
  10     361.9        6.4300        0.0401       45.6840       45.7241      39.294034       0.09781
   9     398.1        6.4288        0.0437       45.1791       45.2228      38.794059       0.11648
   8     437.6        6.4283        0.0474       44.5266       44.5740      38.145698       0.13862
   7     480.5        6.4290        0.0512       43.7374       43.7886      37.359583       0.15439
   6     533.0        6.4321        0.0556       42.6866       42.7421      36.309998       0.16884
   5     589.8        6.4396        0.0599       41.4541       41.5140      35.074327       0.18341
   4     651.6        6.4563        0.0640       39.8904       39.9544      33.498143       0.21555
   3     718.7        6.4882        0.0676       38.0051       38.0728      31.584537       0.24049
   2     792.3        6.5489        0.0707       35.8310       35.9016      29.352757       0.25596
   1     891.5        6.7014        0.0738       32.9593       33.0331      26.331679       0.25708
   0    1013.0        7.0866        0.0769       29.9513       30.0282      22.941570       0.23539



 Wavenumbers:  7700. -  8050. cm-1, ATM      1
 LEVEL PRESSURE   UPWARD FLUX   DIFDOWN FLUX  DIRDOWN FLUX  DOWNWARD FLUX   NET FLUX    HEATING RATE
          mb          W/m2          W/m2          W/m2        W/m2          W/m2       degree/day
  51    .06700        5.8297        0.0000       11.1810       11.1810       5.351257       0.00000
  50    .07753        5.8297        0.0000       11.1809       11.1809       5.351235       0.01749
  49    .09103        5.8297        0.0000       11.1809       11.1809       5.351208       0.01714
  48    0.1069        5.8297        0.0000       11.1809       11.1809       5.351176       0.01678
  47    0.1255        5.8297        0.0000       11.1809       11.1809       5.351140       0.01642
  46    0.1487        5.8297        0.0000       11.1808       11.1808       5.351094       0.01666
  45    0.1794        5.8297        0.0000       11.1808       11.1808       5.351032       0.01715
  44    0.2165        5.8298        0.0000       11.1807       11.1807       5.350958       0.01682
  43    0.2613        5.8298        0.0000       11.1806       11.1806       5.350870       0.01650
  42    0.3336        5.8298        0.0000       11.1805       11.1805       5.350726       0.01689
  41    0.4307        5.8298        0.0000       11.1803       11.1804       5.350533       0.01670
  40    0.5894        5.8299        0.0000       11.1801       11.1801       5.350220       0.01668
  39     1.339        5.8301        0.0001       11.1788       11.1789       5.348735       0.01671
  38     1.782        5.8303        0.0001       11.1781       11.1782       5.347863       0.01660
  37     2.292        5.8305        0.0001       11.1772       11.1773       5.346854       0.01672
  36     2.964        5.8307        0.0002       11.1761       11.1762       5.345529       0.01664
  35     3.853        5.8310        0.0002       11.1746       11.1748       5.343779       0.01661
  34     5.035        5.8314        0.0003       11.1726       11.1729       5.341453       0.01661
  33     6.613        5.8320        0.0004       11.1699       11.1703       5.338348       0.01660
  32     8.786        5.8327        0.0005       11.1664       11.1668       5.334164       0.01625
  31     11.80        5.8337        0.0006       11.1613       11.1619       5.328182       0.01675
  30     15.07        5.8349        0.0008       11.1558       11.1566       5.321766       0.01657
  29     18.79        5.8361        0.0010       11.1496       11.1507       5.314524       0.01642
  28     23.16        5.8376        0.0013       11.1424       11.1437       5.306077       0.01633
  27     28.12        5.8393        0.0015       11.1342       11.1358       5.296432       0.01640
  26     33.73        5.8413        0.0018       11.1251       11.1269       5.285659       0.01620
  25     40.54        5.8436        0.0022       11.1141       11.1163       5.272674       0.01611
  24     48.69        5.8465        0.0027       11.1009       11.1035       5.257064       0.01615
  23     57.69        5.8496        0.0031       11.0864       11.0896       5.239975       0.01602
  22     68.43        5.8534        0.0037       11.0693       11.0731       5.219704       0.01594
  21     81.20        5.8579        0.0044       11.0491       11.0535       5.195669       0.01588
  20     96.49        5.8633        0.0052       11.0253       11.0305       5.167192       0.01572
  19     114.6        5.8698        0.0062       10.9972       11.0034       5.133611       0.01568
  18     136.5        5.8777        0.0074       10.9644       10.9718       5.094118       0.01519
  17     162.9        5.8871        0.0088       10.9259       10.9346       5.047508       0.01490
  16     196.4        5.8996        0.0105       10.8768       10.8873       4.987704       0.01505
  15     218.7        5.9079        0.0117       10.8450       10.8567       4.948787       0.01478
  14     243.0        5.9171        0.0130       10.8109       10.8239       4.906775       0.01457
  13     269.0        5.9273        0.0144       10.7745       10.7888       4.861563       0.01467
  12     297.5        5.9384        0.0158       10.7356       10.7514       4.813029       0.01439
  11     328.5        5.9506        0.0174       10.6941       10.7115       4.760917       0.01417
  10     361.9        5.9641        0.0192       10.6501       10.6692       4.705136       0.01411
   9     398.1        5.9789        0.0210       10.6033       10.6243       4.645418       0.01391
   8     437.6        5.9952        0.0230       10.5537       10.5767       4.581550       0.01366
   7     480.5        6.0131        0.0251       10.5012       10.5264       4.513297       0.01340
   6     533.0        6.0358        0.0278       10.4374       10.4652       4.429361       0.01350
   5     589.8        6.0613        0.0306       10.3694       10.4000       4.338734       0.01345
   4     651.6        6.0898        0.0336       10.2969       10.3305       4.240678       0.01341
   3     718.7        6.1220        0.0369       10.2193       10.2562       4.134196       0.01338
   2     792.3        6.1585        0.0404       10.1361       10.1765       4.017924       0.01334
   1     891.5        6.2117        0.0451       10.0226       10.0676       3.855962       0.01378
   0    1013.0        6.2817        0.0507        9.8835        9.9342       3.652454       0.01413



 Wavenumbers:  8050. - 12850. cm-1, ATM      1
 LEVEL PRESSURE   UPWARD FLUX   DIFDOWN FLUX  DIRDOWN FLUX  DOWNWARD FLUX   NET FLUX    HEATING RATE
          mb          W/m2          W/m2          W/m2        W/m2          W/m2       degree/day
  51    .06700      121.4103        0.0000      156.5418      156.5418      35.131409       0.00000
  50    .07753      121.4103        0.0000      156.5417      156.5417      35.131409      -0.00000
  49    .09103      121.4103        0.0001      156.5417      156.5417      35.131409       0.00000
  48    0.1069      121.4103        0.0001      156.5416      156.5417      35.131409      -0.00000
  47    0.1255      121.4103        0.0002      156.5415      156.5417      35.131409       0.00000
  46    0.1487      121.4103        0.0002      156.5414      156.5417      35.131409       0.00000
  45    0.1794      121.4102        0.0003      156.5413      156.5416      35.131409      -0.00000
  44    0.2165      121.4102        0.0005      156.5412      156.5416      35.131409       0.00000
  43    0.2613      121.4102        0.0006      156.5410      156.5416      35.131409       0.00000
  42    0.3336      121.4101        0.0008      156.5407      156.5415      35.131409       0.00000
  41    0.4307      121.4100        0.0011      156.5403      156.5414      35.131409      -0.00000
  40    0.5894      121.4099        0.0016      156.5397      156.5413      35.131409       0.00000
  39     1.339      121.4092        0.0039      156.5367      156.5406      35.131409       0.00000
  38     1.782      121.4088        0.0052      156.5350      156.5402      35.131409      -0.00000
  37     2.292      121.4083        0.0068      156.5330      156.5397      35.131409      -0.00000
  36     2.964      121.4077        0.0088      156.5303      156.5391      35.131409       0.00000
  35     3.853      121.4069        0.0115      156.5268      156.5383      35.131409      -0.00000
  34     5.035      121.4059        0.0151      156.5222      156.5373      35.131409      -0.00000
  33     6.613      121.4045        0.0199      156.5160      156.5359      35.131409       0.00000
  32     8.786      121.4025        0.0263      156.5076      156.5340      35.131409       0.00000
  31     11.80      121.3998        0.0356      156.4957      156.5312      35.131409      -0.00000
  30     15.07      121.3969        0.0455      156.4828      156.5283      35.131409       0.00000
  29     18.79      121.3935        0.0567      156.4682      156.5249      35.131409       0.00000
  28     23.16      121.3896        0.0699      156.4512      156.5211      35.131409      -0.00000
  27     28.12      121.3852        0.0849      156.4317      156.5166      35.131409       0.00000
  26     33.73      121.3802        0.1017      156.4099      156.5116      35.131409       0.00000
  25     40.54      121.3742        0.1221      156.3834      156.5056      35.131409       0.00000
  24     48.69      121.3669        0.1467      156.3515      156.4983      35.131409      -0.00000
  23     57.69      121.3588        0.1738      156.3164      156.4902      35.131409      -0.00000
  22     68.43      121.3493        0.2061      156.2746      156.4807      35.131409       0.00000
  21     81.20      121.3378        0.2447      156.2246      156.4692      35.131409       0.00000
  20     96.49      121.3242        0.2907      156.1649      156.4556      35.131409      -0.00000
  19     114.6      121.3080        0.3454      156.0935      156.4389      35.130939       0.00022
  18     136.5      121.2887        0.4104      156.0087      156.4191      35.130354       0.00023
  17     162.9      121.2658        0.4880      155.9071      156.3951      35.129377       0.00031
  16     196.4      121.2359        0.5890      155.7738      156.3628      35.126835       0.00064
  15     218.7      121.2164        0.6554      155.6829      156.3384      35.121930       0.00186
  14     243.0      121.1955        0.7278      155.5773      156.3052      35.109626       0.00427
  13     269.0      121.1736        0.8065      155.4491      156.2555      35.081937       0.00898
  12     297.5      121.1513        0.8916      155.2875      156.1791      35.027782       0.01606
  11     328.5      121.1290        0.9838      155.0893      156.0731      34.944017       0.02278
  10     361.9      121.1076        1.0833      154.8474      155.9307      34.823089       0.03060
   9     398.1      121.0886        1.1906      154.5512      155.7418      34.653252       0.03957
   8     437.6      121.0745        1.3061      154.1869      155.4930      34.418514       0.05019
   7     480.5      121.0683        1.4300      153.7477      155.1778      34.109415       0.06071
   6     533.0      121.0775        1.5829      153.1398      154.7227      33.645223       0.07467
   5     589.8      121.1173        1.7477      152.3817      154.1294      33.012140       0.09397
   4     651.6      121.2219        1.9242      151.3700      153.2941      32.072254       0.12853
   3     718.7      121.4330        2.1121      150.0431      152.1552      30.722206       0.16966
   2     792.3      121.8368        2.3105      148.2785      150.5889      28.752114       0.22595
   1     891.5      122.8203        2.5713      145.3695      147.9407      25.120454       0.30904
   0    1013.0      124.9905        2.8744      141.3487      144.2231      19.232598       0.40882



 Wavenumbers: 12850. - 16000. cm-1, ATM      1
 LEVEL PRESSURE   UPWARD FLUX   DIFDOWN FLUX  DIRDOWN FLUX  DOWNWARD FLUX   NET FLUX    HEATING RATE
          mb          W/m2          W/m2          W/m2        W/m2          W/m2       degree/day
  51    .06700       85.3471        0.0000       98.0872       98.0872      12.740175       0.00000
  50    .07753       85.3471        0.0001       98.0864       98.0864      12.739380       0.63706
  49    .09103       85.3471        0.0002       98.0853       98.0855      12.738381       0.62433
  48    0.1069       85.3471        0.0003       98.0841       98.0843      12.737232       0.61141
  47    0.1255       85.3471        0.0004       98.0826       98.0830      12.735912       0.59885
  46    0.1487       85.3472        0.0005       98.0809       98.0814      12.734243       0.60834
  45    0.1794       85.3472        0.0008       98.0784       98.0792      12.731970       0.62397
  44    0.2165       85.3473        0.0010       98.0756       98.0766      12.729292       0.60904
  43    0.2613       85.3475        0.0013       98.0723       98.0736      12.726139       0.59440
  42    0.3336       85.3478        0.0018       98.0670       98.0688      12.720982       0.60122
  41    0.4307       85.3483        0.0024       98.0602       98.0626      12.714299       0.58111
  40    0.5894       85.3493        0.0035       98.0496       98.0531      12.703733       0.56190
  39     1.339       85.3575        0.0084       98.0043       98.0128      12.655287       0.54540
  38     1.782       85.3648        0.0114       97.9793       97.9906      12.625836       0.56072
  37     2.292       85.3756        0.0147       97.9498       97.9645      12.588902       0.61172
  36     2.964       85.3934        0.0192       97.9088       97.9280      12.534595       0.68171
  35     3.853       85.4219        0.0250       97.8503       97.8754      12.453434       0.77024
  34     5.035       85.4648        0.0328       97.7680       97.8008      12.335972       0.83909
  33     6.613       85.5247        0.0432       97.6562       97.6994      12.174721       0.86205
  32     8.786       85.6026        0.0572       97.5107       97.5678      11.965228       0.81359
  31     11.80       85.7043        0.0771       97.3179       97.3950      11.690719       0.76854
  30     15.07       85.8020        0.0986       97.1283       97.2269      11.424934       0.68621
  29     18.79       85.9020        0.1228       96.9300       97.0528      11.150793       0.62156
  28     23.16       86.0069        0.1510       96.7166       96.8676      10.860650       0.56104
  27     28.12       86.1130        0.1833       96.4935       96.6768      10.563760       0.50469
  26     33.73       86.2119        0.2194       96.2731       96.4925      10.280671       0.42563
  25     40.54       86.3082        0.2631       96.0408       96.3039       9.995657       0.35359
  24     48.69       86.4020        0.3157       95.7946       96.1103       9.708280       0.29739
  23     57.69       86.4835        0.3736       95.5573       95.9309       9.447367       0.24457
  22     68.43       86.5572        0.4425       95.3106       95.7532       9.195962       0.19764
  21     81.20       86.6130        0.5248       95.0644       95.5892       8.976198       0.14522
  20     96.49       86.6498        0.6229       94.8153       95.4382       8.788396       0.10365
  19     114.6       86.6878        0.7404       94.5412       95.2816       8.593798       0.09086
  18     136.5       86.7211        0.8797       94.2324       95.1121       8.391010       0.07798
  17     162.9       86.7502        1.0455       93.8760       94.9215       8.171321       0.07022
  16     196.4       86.7652        1.2606       93.4358       94.6964       7.931252       0.06043
  15     218.7       86.7671        1.4019       93.1535       94.5553       7.788270       0.05428
  14     243.0       86.7658        1.5554       92.8485       94.4039       7.638103       0.05208
  13     269.0       86.7611        1.7218       92.5212       94.2430       7.481948       0.05066
  12     297.5       86.7530        1.9017       92.1704       94.0721       7.319055       0.04831
  11     328.5       86.7437        2.0960       91.7933       93.8893       7.145636       0.04715
  10     361.9       86.7334        2.3053       91.3893       93.6946       6.961149       0.04668
   9     398.1       86.7228        2.5306       90.9575       93.4881       6.765302       0.04563
   8     437.6       86.7128        2.7726       90.4956       93.2682       6.555357       0.04489
   7     480.5       86.7044        3.0321       90.0028       93.0349       6.330429       0.04417
   6     533.0       86.6988        3.3517       89.3969       92.7486       6.049844       0.04514
   5     589.8       86.7007        3.6965       88.7423       92.4387       5.738058       0.04628
   4     651.6       86.7164        4.0671       88.0312       92.0983       5.381856       0.04871
   3     718.7       86.7529        4.4650       87.2573       91.7224       4.969478       0.05182
   2     792.3       86.8234        4.8904       86.4108       91.3012       4.477825       0.05639
   1     891.5       86.9877        5.4624       85.2373       90.6996       3.711894       0.06518
   0    1013.0       87.3163        6.1456       83.7928       89.9384       2.622184       0.07566



 Wavenumbers: 16000. - 22650. cm-1, ATM      1
 LEVEL PRESSURE   UPWARD FLUX   DIFDOWN FLUX  DIRDOWN FLUX  DOWNWARD FLUX   NET FLUX    HEATING RATE
          mb          W/m2          W/m2          W/m2        W/m2          W/m2       degree/day
  51    .06700      141.9145        0.0000      156.3892      156.3892      14.474702       0.00000
  50    .07753      141.9145        0.0004      156.3887      156.3891      14.474553       0.11915
  49    .09103      141.9145        0.0009      156.3879      156.3888      14.474337       0.13514
  48    0.1069      141.9145        0.0015      156.3871      156.3885      14.474047       0.15410
  47    0.1255      141.9145        0.0021      156.3861      156.3882      14.473660       0.17566
  46    0.1487      141.9146        0.0030      156.3847      156.3877      14.473089       0.20815
  45    0.1794      141.9147        0.0041      156.3828      156.3869      14.472196       0.24508
  44    0.2165      141.9149        0.0054      156.3805      156.3859      14.470985       0.27544
  43    0.2613      141.9153        0.0070      156.3776      156.3847      14.469342       0.30966
  42    0.3336      141.9161        0.0097      156.3726      156.3823      14.466219       0.36416
  41    0.4307      141.9174        0.0132      156.3657      156.3789      14.461511       0.40936
  40    0.5894      141.9200        0.0189      156.3537      156.3726      14.452532       0.47749
  39     1.339      141.9431        0.0459      156.2834      156.3293      14.386193       0.74685
  38     1.782      141.9645        0.0618      156.2324      156.2941      14.329681       1.07591
  37     2.292      141.9964        0.0801      156.1641      156.2442      14.247877       1.35487
  36     2.964      142.0494        0.1043      156.0605      156.1647      14.115355       1.66356
  35     3.853      142.1351        0.1361      155.9041      156.0401      13.905071       1.99563
  34     5.035      142.2643        0.1783      155.6774      155.8557      13.591340       2.24117
  33     6.613      142.4449        0.2347      155.3656      155.6003      13.155336       2.33088
  32     8.786      142.6802        0.3105      154.9577      155.2682      12.587978       2.20341
  31     11.80      142.9864        0.4189      154.4153      154.8341      11.847694       2.07256
  30     15.07      143.2799        0.5350      153.8804      154.4154      11.135534       1.83866
  29     18.79      143.5795        0.6660      153.3191      153.9851      10.405605       1.65497
  28     23.16      143.8928        0.8188      152.7126      153.5314       9.638602       1.48314
  27     28.12      144.2081        0.9933      152.0755      153.0688       8.860695       1.32239
  26     33.73      144.4994        1.1884      151.4409      152.6293       8.129972       1.09866
  25     40.54      144.7799        1.4239      150.7637      152.1876       7.407721       0.89603
  24     48.69      145.0487        1.7075      150.0339      151.7413       6.692646       0.73999
  23     57.69      145.2769        2.0186      149.3151      151.3338       6.056841       0.59597
  22     68.43      145.4765        2.3888      148.5476      150.9364       5.459961       0.46923
  21     81.20      145.6151        2.8296      147.7517      150.5813       4.966180       0.32628
  20     96.49      145.6883        3.3543      146.9127      150.2669       4.578669       0.21388
  19     114.6      145.7273        3.9755      145.9763      149.9518       4.224520       0.16536
  18     136.5      145.7417        4.7090      144.9088      149.6178       3.876125       0.13397
  17     162.9      145.7299        5.5784      143.6786      149.2570       3.527143       0.11155
  16     196.4      145.6521        6.7002      142.1652      148.8654       3.213341       0.07899
  15     218.7      145.5781        7.4333      141.2037      148.6370       3.058920       0.05863
  14     243.0      145.4870        8.2268      140.1761      148.4028       2.915856       0.04962
  13     269.0      145.3771        9.0827      139.0813      148.1641       2.786946       0.04182
  12     297.5      145.2476       10.0032      137.9175      147.9207       2.673118       0.03376
  11     328.5      145.1025       10.9926      136.6738      147.6664       2.563889       0.02970
  10     361.9      144.9414       12.0517      135.3496      147.4013       2.459924       0.02630
   9     398.1      144.7634       13.1847      133.9400      147.1246       2.361204       0.02300
   8     437.6      144.5691       14.3933      132.4417      146.8350       2.265942       0.02037
   7     480.5      144.3574       15.6799      130.8527      146.5326       2.175230       0.01782
   6     533.0      144.0938       17.2512      128.9184      146.1696       2.075851       0.01599
   5     589.8      143.8083       18.9299      126.8569      145.7868       1.978522       0.01445
   4     651.6      143.5016       20.7173      124.6654      145.3827       1.881074       0.01333
   3     718.7      143.1741       22.6155      122.3408      144.9563       1.782156       0.01243
   2     792.3      142.8274       24.6228      119.8835      144.5064       1.678965       0.01183
   1     891.5      142.3694       27.2904      116.6159      143.9063       1.536855       0.01209
   0    1013.0      141.8367       30.4303      112.7642      143.1945       1.357845       0.01243



 Wavenumbers: 22650. - 29000. cm-1, ATM      1
 LEVEL PRESSURE   UPWARD FLUX   DIFDOWN FLUX  DIRDOWN FLUX  DOWNWARD FLUX   NET FLUX    HEATING RATE
          mb          W/m2          W/m2          W/m2        W/m2          W/m2       degree/day
  51    .06700       58.6820        0.0000       59.0156       59.0156       0.333634       0.00000
  50    .07753       58.6819        0.0005       59.0151       59.0155       0.333634       0.00000
  49    .09103       58.6818        0.0010       59.0144       59.0154       0.333634       0.00000
  48    0.1069       58.6816        0.0017       59.0136       59.0153       0.333634      -0.00000
  47    0.1255       58.6815        0.0025       59.0127       59.0151       0.333634      -0.00000
  46    0.1487       58.6813        0.0035       59.0115       59.0149       0.333634       0.00000
  45    0.1794       58.6811        0.0048       59.0099       59.0147       0.333634      -0.00000
  44    0.2165       58.6808        0.0063       59.0080       59.0144       0.333634       0.00000
  43    0.2613       58.6804        0.0082       59.0058       59.0140       0.333634       0.00000
  42    0.3336       58.6798        0.0113       59.0022       59.0134       0.333634       0.00000
  41    0.4307       58.6790        0.0154       58.9973       59.0127       0.333634      -0.00000
  40    0.5894       58.6777        0.0220       58.9894       59.0114       0.333634       0.00000
  39     1.339       58.6717        0.0535       58.9518       59.0053       0.333634       0.00000
  38     1.782       58.6681        0.0720       58.9297       59.0017       0.333634       0.00000
  37     2.292       58.6640        0.0934       58.9042       58.9976       0.333634      -0.00000
  36     2.964       58.6586        0.1216       58.8706       58.9922       0.333634      -0.00000
  35     3.853       58.6514        0.1587       58.8264       58.9851       0.333634       0.00000
  34     5.035       58.6419        0.2080       58.7676       58.9756       0.333634       0.00000
  33     6.613       58.6293        0.2738       58.6891       58.9629       0.333634       0.00000
  32     8.786       58.6122        0.3624       58.5834       58.9458       0.333634      -0.00000
  31     11.80       58.5878        0.4890       58.4325       58.9215       0.333634       0.00000
  30     15.07       58.5617        0.6247       58.2706       58.8953       0.333634      -0.00000
  29     18.79       58.5323        0.7776       58.0882       58.8659       0.333634       0.00000
  28     23.16       58.4979        0.9559       57.8757       58.8316       0.333634      -0.00000
  27     28.12       58.4588        1.1591       57.6333       58.7924       0.333634       0.00000
  26     33.73       58.4152        1.3857       57.3631       58.7488       0.333634       0.00000
  25     40.54       58.3626        1.6584       57.0379       58.6963       0.333634       0.00000
  24     48.69       58.2996        1.9854       56.6479       58.6333       0.333634       0.00000
  23     57.69       58.2309        2.3424       56.2221       58.5645       0.333634      -0.00000
  22     68.43       58.1495        2.7646       55.7186       58.4832       0.333634       0.00000
  21     81.20       58.0534        3.2632       55.1239       58.3871       0.333634       0.00000
  20     96.49       57.9402        3.8510       54.4228       58.2738       0.333634      -0.00000
  19     114.6       57.8073        4.5400       53.6010       58.1410       0.333634       0.00000
  18     136.5       57.6522        5.3441       52.6418       57.9859       0.333634      -0.00000
  17     162.9       57.4709        6.2842       51.5204       57.8045       0.333634       0.00000
  16     196.4       57.2410        7.4752       50.0995       57.5747       0.333634       0.00000
  15     218.7       57.0933        8.2406       49.1863       57.4269       0.333634       0.00000
  14     243.0       56.9354        9.0577       48.2114       57.2691       0.333634       0.00000
  13     269.0       56.7676        9.9261       47.1752       57.1013       0.333634       0.00000
  12     297.5       56.5900       10.8449       46.0787       56.9237       0.333634      -0.00000
  11     328.5       56.4023       11.8155       44.9204       56.7359       0.333634      -0.00000
  10     361.9       56.2050       12.8353       43.7032       56.5386       0.333634       0.00000
   9     398.1       55.9979       13.9044       42.4272       56.3316       0.333634       0.00000
   8     437.6       55.7817       15.0204       41.0949       56.1153       0.333634      -0.00000
   7     480.5       55.5567       16.1810       39.7093       55.8903       0.333634       0.00000
   6     533.0       55.2889       17.5603       38.0622       55.6226       0.333634       0.00000
   5     589.8       55.0114       18.9888       36.3562       55.3450       0.333634      -0.00000
   4     651.6       54.7252       20.4601       34.5987       55.0588       0.333634       0.00000
   3     718.7       54.4315       21.9674       32.7978       54.7652       0.333634       0.00000
   2     792.3       54.1320       23.5027       30.9629       54.4656       0.333634       0.00000
   1     891.5       53.7517       25.4474       28.6379       54.0853       0.333634       0.00000
   0    1013.0       53.3286       27.6048       26.0574       53.6622       0.333634       0.00000



 Wavenumbers: 29000. - 38000. cm-1, ATM      1
 LEVEL PRESSURE   UPWARD FLUX   DIFDOWN FLUX  DIRDOWN FLUX  DOWNWARD FLUX   NET FLUX    HEATING RATE
          mb          W/m2          W/m2          W/m2        W/m2          W/m2       degree/day
  51    .06700        8.7676        0.0000       20.8114       20.8114      12.043769       0.00000
  50    .07753        8.7674        0.0003       20.8070       20.8074      12.039962       3.05155
  49    .09103        8.7672        0.0007       20.8009       20.8016      12.034425       3.46085
  48    0.1069        8.7669        0.0012       20.7928       20.7939      12.027015       3.94429
  47    0.1255        8.7666        0.0017       20.7820       20.7837      12.017110       4.49034
  46    0.1487        8.7663        0.0024       20.7665       20.7688      12.002547       5.30844
  45    0.1794        8.7658        0.0033       20.7424       20.7457      11.979882       6.22204
  44    0.2165        8.7653        0.0044       20.7103       20.7147      11.949359       6.94340
  43    0.2613        8.7647        0.0056       20.6675       20.6731      11.908364       7.72732
  42    0.3336        8.7638        0.0077       20.5880       20.5957      11.831804       8.92625
  41    0.4307        8.7628        0.0104       20.4722       20.4826      11.719851       9.73402
  40    0.5894        8.7612        0.0147       20.2637       20.2784      11.517167      10.77846
  39     1.339        8.7578        0.0331       19.0984       19.1315      10.373690      12.87347
  38     1.782        8.7583        0.0427       18.4394       18.4821       9.723766      12.37351
  37     2.292        8.7610        0.0530       17.7714       17.8244       9.063421      10.93703
  36     2.964        8.7675        0.0657       17.0421       17.1078       8.340298       9.07739
  35     3.853        8.7804        0.0816       16.2679       16.3495       7.569119       7.31863
  34     5.035        8.8015        0.1018       15.4803       15.5821       6.780625       5.63267
  33     6.613        8.8322        0.1276       14.7157       14.8433       6.011044       4.11418
  32     8.786        8.8728        0.1614       13.9936       14.1549       5.282098       2.83096
  31     11.80        8.9258        0.2084       13.2835       13.4920       4.566140       2.00446
  30     15.07        8.9769        0.2573       12.7394       12.9966       4.019670       1.41088
  29     18.79        9.0297        0.3114       12.2666       12.5780       3.548228       1.06890
  28     23.16        9.0858        0.3729       11.8300       12.2029       3.117093       0.83368
  27     28.12        9.1433        0.4418       11.4279       11.8697       2.726403       0.66415
  26     33.73        9.1963        0.5178       11.0695       11.5872       2.390899       0.50444
  25     40.54        9.2467        0.6085       10.7209       11.3294       2.082732       0.38232
  24     48.69        9.2942        0.7162       10.3742       11.0904       1.796175       0.29654
  23     57.69        9.3332        0.8328       10.0549       10.8877       1.554414       0.22662
  22     68.43        9.3648        0.9695        9.7327       10.7022       1.337373       0.17062
  21     81.20        9.3800        1.1309        9.4134       10.5443       1.164304       0.11436
  20     96.49        9.3769        1.3207        9.0887       10.4094       1.032556       0.07272
  19     114.6        9.3635        1.5400        8.7388       10.2788       0.915283       0.05476
  18     136.5        9.3428        1.7907        8.3549       10.1456       0.802756       0.04327
  17     162.9        9.3151        2.0765        7.9311       10.0076       0.692577       0.03522
  16     196.4        9.2682        2.4305        7.4333        9.8638       0.595597       0.02441
  15     218.7        9.2345        2.6532        7.1296        9.7828       0.548296       0.01796
  14     243.0        9.1975        2.8860        6.8161        9.7021       0.504619       0.01515
  13     269.0        9.1570        3.1280        6.4944        9.6224       0.465399       0.01272
  12     297.5        9.1132        3.3782        6.1659        9.5441       0.430825       0.01025
  11     328.5        9.0675        3.6356        5.8296        9.4652       0.397721       0.00900
  10     361.9        9.0204        3.8977        5.4889        9.3866       0.366238       0.00797
   9     398.1        8.9719        4.1639        5.1444        9.3083       0.336400       0.00695
   8     437.6        8.9226        4.4328        4.7974        9.2302       0.307639       0.00615
   7     480.5        8.8728        4.7023        4.4508        9.1531       0.280333       0.00536
   6     533.0        8.8158        5.0092        4.0571        9.0664       0.250571       0.00479
   5     589.8        8.7598        5.3112        3.6704        8.9815       0.221753       0.00428
   4     651.6        8.7054        5.6061        3.2928        8.8990       0.193552       0.00386
   3     718.7        8.6536        5.8900        2.9295        8.8195       0.165932       0.00347
   2     792.3        8.6048        6.1612        2.5825        8.7437       0.138893       0.00310
   1     891.5        8.5492        6.4794        2.1753        8.6547       0.105504       0.00284
   0    1013.0        8.4961        6.7992        1.7655        8.5648       0.068616       0.00256



 Wavenumbers: 38000. - 50000. cm-1, ATM      1
 LEVEL PRESSURE   UPWARD FLUX   DIFDOWN FLUX  DIRDOWN FLUX  DOWNWARD FLUX   NET FLUX    HEATING RATE
          mb          W/m2          W/m2          W/m2        W/m2          W/m2       degree/day
  51    .06700        0.0061        0.0000        1.2836        1.2836       1.277518       0.00000
  50    .07753        0.0061        0.0001        1.2812        1.2812       1.275183       1.87150
  49    .09103        0.0060        0.0002        1.2777        1.2778       1.271851       2.08247
  48    0.1069        0.0059        0.0002        1.2731        1.2734       1.267473       2.33059
  47    0.1255        0.0058        0.0004        1.2672        1.2675       1.261717       2.60908
  46    0.1487        0.0057        0.0005        1.2586        1.2591       1.253391       3.03499
  45    0.1794        0.0055        0.0007        1.2455        1.2462       1.240623       3.50520
  44    0.2165        0.0054        0.0009        1.2282        1.2291       1.223697       3.85037
  43    0.2613        0.0052        0.0011        1.2054        1.2065       1.201348       4.21261
  42    0.3336        0.0049        0.0015        1.1639        1.1654       1.160524       4.75970
  41    0.4307        0.0045        0.0020        1.1051        1.1070       1.102565       5.03943
  40    0.5894        0.0039        0.0026        1.0039        1.0064       1.002524       5.32007
  39     1.339        0.0022        0.0035        0.5438        0.5473       0.545105       5.14971
  38     1.782        0.0016        0.0032        0.3635        0.3666       0.365006       3.42879
  37     2.292        0.0012        0.0027        0.2356        0.2383       0.237058       2.11916
  36     2.964        0.0009        0.0022        0.1455        0.1477       0.146786       1.13318
  35     3.853        0.0006        0.0017        0.0858        0.0875       0.086906       0.56828
  34     5.035        0.0004        0.0013        0.0488        0.0501       0.049701       0.26578
  33     6.613        0.0003        0.0010        0.0273        0.0282       0.027974       0.11615
  32     8.786        0.0002        0.0007        0.0144        0.0151       0.014928       0.05067
  31     11.80        0.0001        0.0004        0.0065        0.0070       0.006903       0.02247
  30     15.07        0.0000        0.0003        0.0031        0.0034       0.003329       0.00923
  29     18.79        0.0000        0.0002        0.0014        0.0016       0.001583       0.00396
  28     23.16        0.0000        0.0001        0.0006        0.0007       0.000720       0.00167
  27     28.12        0.0000        0.0001        0.0003        0.0003       0.000317       0.00069
  26     33.73        0.0000        0.0000        0.0001        0.0001       0.000140       0.00027
  25     40.54        0.0000        0.0000        0.0000        0.0001       0.000057       0.00010
  24     48.69        0.0000        0.0000        0.0000        0.0000       0.000021       0.00004
  23     57.69        0.0000        0.0000        0.0000        0.0000       0.000008       0.00001
  22     68.43        0.0000        0.0000        0.0000        0.0000       0.000003       0.00000
  21     81.20        0.0000        0.0000        0.0000        0.0000       0.000001       0.00000
  20     96.49        0.0000        0.0000        0.0000        0.0000       0.000000       0.00000
  19     114.6        0.0000        0.0000        0.0000        0.0000       0.000000       0.00000
  18     136.5        0.0000        0.0000        0.0000        0.0000       0.000000       0.00000
  17     162.9        0.0000        0.0000        0.0000        0.0000       0.000000       0.00000
  16     196.4        0.0000        0.0000        0.0000        0.0000       0.000000       0.00000
  15     218.7        0.0000        0.0000        0.0000        0.0000       0.000000       0.00000
  14     243.0        0.0000        0.0000        0.0000        0.0000       0.000000       0.00000
  13     269.0        0.0000        0.0000        0.0000        0.0000       0.000000       0.00000
  12     297.5        0.0000        0.0000        0.0000        0.0000       0.000000       0.00000
  11     328.5        0.0000        0.0000        0.0000        0.0000       0.000000       0.00000
  10     361.9        0.0000        0.0000        0.0000        0.0000       0.000000       0.00000
   9     398.1        0.0000        0.0000        0.0000        0.0000       0.000000       0.00000
   8     437.6        0.0000        0.0000        0.0000        0.0000       0.000000       0.00000
   7     480.5        0.0000        0.0000        0.0000        0.0000       0.000000       0.00000
   6     533.0        0.0000        0.0000        0.0000        0.0000       0.000000       0.00000
   5     589.8        0.0000        0.0000        0.0000        0.0000       0.000000       0.00000
   4     651.6        0.0000        0.0000        0.0000        0.0000       0.000000       0.00000
   3     718.7        0.0000        0.0000        0.0000        0.0000       0.000000       0.00000
   2     792.3        0.0000        0.0000        0.0000        0.0000       0.000000       0.00000
   1     891.5        0.0000        0.0000        0.0000        0.0000       0.000000       0.00000
   0    1013.0        0.0000        0.0000        0.0000        0.0000       0.000000       0.00000



 Wavenumbers:   820. -  2600. cm-1, ATM      1
 LEVEL PRESSURE   UPWARD FLUX   DIFDOWN FLUX  DIRDOWN FLUX  DOWNWARD FLUX   NET FLUX    HEATING RATE
          mb          W/m2          W/m2          W/m2        W/m2          W/m2       degree/day
  51    .06700        0.0314        0.0000        6.0047        6.0047       5.973278       0.00000
  50    .07753        0.0314        0.0000        6.0009        6.0009       5.969493       3.03367
  49    .09103        0.0314        0.0000        6.0001        6.0001       5.968696       0.49815
  48    0.1069        0.0314        0.0000        5.9992        5.9992       5.967813       0.47016
  47    0.1255        0.0314        0.0000        5.9982        5.9982       5.966822       0.44922
  46    0.1487        0.0314        0.0000        5.9970        5.9970       5.965631       0.43417
  45    0.1794        0.0314        0.0000        5.9955        5.9955       5.964146       0.40766
  44    0.2165        0.0314        0.0000        5.9940        5.9940       5.962590       0.35375
  43    0.2613        0.0314        0.0000        5.9924        5.9924       5.960983       0.30295
  42    0.3336        0.0314        0.0000        5.9901        5.9901       5.958706       0.26546
  41    0.4307        0.0314        0.0000        5.9874        5.9874       5.956054       0.23066
  40    0.5894        0.0314        0.0000        5.9833        5.9833       5.951913       0.22018
  39     1.339        0.0314        0.0000        5.9643        5.9643       5.932887       0.21420
  38     1.782        0.0314        0.0000        5.9537        5.9537       5.922377       0.20010
  37     2.292        0.0314        0.0000        5.9420        5.9420       5.910599       0.19508
  36     2.964        0.0314        0.0000        5.9270        5.9270       5.895604       0.18823
  35     3.853        0.0314        0.0000        5.9079        5.9079       5.876529       0.18102
  34     5.035        0.0314        0.0000        5.8837        5.8837       5.852303       0.17306
  33     6.613        0.0314        0.0000        5.8523        5.8523       5.820890       0.16793
  32     8.786        0.0314        0.0000        5.8104        5.8104       5.779056       0.16247
  31     11.80        0.0314        0.0000        5.7549        5.7549       5.723498       0.15555
  30     15.07        0.0314        0.0000        5.7057        5.7057       5.674338       0.12692
  29     18.79        0.0314        0.0000        5.6649        5.6649       5.633526       0.09253
  28     23.16        0.0314        0.0000        5.6335        5.6335       5.602156       0.06066
  27     28.12        0.0314        0.0000        5.6108        5.6108       5.579432       0.03863
  26     33.73        0.0314        0.0000        5.5929        5.5929       5.561491       0.02698
  25     40.54        0.0314        0.0000        5.5744        5.5744       5.543009       0.02293
  24     48.69        0.0314        0.0000        5.5527        5.5527       5.521297       0.02247
  23     57.69        0.0314        0.0000        5.5284        5.5284       5.497032       0.02274
  22     68.43        0.0314        0.0000        5.4990        5.4990       5.467614       0.02313
  21     81.20        0.0314        0.0000        5.4643        5.4643       5.432912       0.02293
  20     96.49        0.0314        0.0000        5.4235        5.4235       5.392137       0.02251
  19     114.6        0.0314        0.0000        5.3768        5.3768       5.345449       0.02180
  18     136.5        0.0314        0.0000        5.3248        5.3248       5.293466       0.01999
  17     162.9        0.0314        0.0000        5.2665        5.2666       5.235184       0.01863
  16     196.4        0.0314        0.0000        5.1949        5.1950       5.163562       0.01803
  15     218.7        0.0314        0.0000        5.1475        5.1475       5.116083       0.01803
  14     243.0        0.0314        0.0000        5.0913        5.0914       5.059969       0.01946
  13     269.0        0.0314        0.0000        5.0228        5.0228       4.991423       0.02224
  12     297.5        0.0314        0.0000        4.9368        4.9369       4.905445       0.02550
  11     328.5        0.0314        0.0000        4.8415        4.8416       4.810144       0.02591
  10     361.9        0.0314        0.0000        4.7408        4.7408       4.709362       0.02550
   9     398.1        0.0315        0.0000        4.6374        4.6375       4.605993       0.02408
   8     437.6        0.0315        0.0000        4.5302        4.5303       4.498772       0.02292
   7     480.5        0.0315        0.0000        4.4152        4.4153       4.383759       0.02259
   6     533.0        0.0316        0.0001        4.2591        4.2591       4.227560       0.02513
   5     589.8        0.0317        0.0001        4.0596        4.0597       4.027989       0.02962
   4     651.6        0.0318        0.0001        3.8060        3.8060       3.774234       0.03470
   3     718.7        0.0320        0.0001        3.5489        3.5489       3.516933       0.03234
   2     792.3        0.0323        0.0001        3.3440        3.3441       3.311791       0.02353
   1     891.5        0.0330        0.0001        3.1797        3.1798       3.146796       0.01404
   0    1013.0        0.0343        0.0001        3.0128        3.0128       2.978496       0.01169

  Modules and versions used in this calculation:

       rrtmg_sw.1col.f90:  $Revision$                    rrtmg_sw_init.f90:  $Revision$        
     rrtmgsw_cldprop.f90:  $Revision$                  rrtmgsw_cldprmc.f90:  NOT USED          
     rrtmg_sw_reftra.f90:  $Revision$                  rrtmg_sw_spcvrt.f90:  NOT USED          
     rrtmg_sw_spcvmc.f90:  NOT USED                    rrtmgsw_setcoef.f90:  NOT USED          
     rrtmg_sw_taumol.f90:  $Revision$                  rrtmg_sw_vrtqdr.f90:  NOT USED          
                rrtatm.f:  NOT USED                             util_xxx.f:  NOT USED          
                 extra.f:  NOT USED                       rrtmg_sw_k_g.f90:  $Revision$        

