

 Wavenumbers:   820. - 50000. cm-1, ATM      1
 LEVEL PRESSURE   UPWARD FLUX   DIFDOWN FLUX  DIRDOWN FLUX  DOWNWARD FLUX   NET FLUX    HEATING RATE
          mb          W/m2          W/m2          W/m2        W/m2          W/m2       degree/day
  51    .06700      444.7985        0.0000      617.8126      617.8126     173.014105       0.00000
  50    .07753      444.7981        0.0014      617.7950      617.7964     172.998289      12.67666
  49    .09103      444.7977        0.0030      617.7785      617.7815     172.983869       9.01310
  48    0.1069      444.7972        0.0050      617.7592      617.7642     172.967043       8.95658
  47    0.1255      444.7967        0.0072      617.7356      617.7429     172.946188       9.45449
  46    0.1487      444.7961        0.0101      617.7032      617.7132     172.917107      10.60017
  45    0.1794      444.7954        0.0139      617.6552      617.6691     172.873678      11.92231
  44    0.2165      444.7947        0.0185      617.5935      617.6120     172.817293      12.82681
  43    0.2613      444.7940        0.0238      617.5141      617.5379     172.743891      13.83585
  42    0.3336      444.7932        0.0327      617.3712      617.4039     172.610673      15.53191
  41    0.4307      444.7926        0.0443      617.1688      617.2131     172.420555      16.53032
  40    0.5894      444.7925        0.0631      616.8144      616.8775     172.084980      17.84545
  39     1.339      444.8109        0.1480      614.9765      615.1246     170.313652      19.94193
  38     1.782      444.8346        0.1958      614.0088      614.2046     169.369947      17.96662
  37     2.292      444.8738        0.2502      613.0578      613.3080     168.434188      15.49861
  36     2.964      444.9428        0.3209      612.0219      612.3428     167.399983      12.98240
  35     3.853      445.0586        0.4136      610.8818      611.2954     166.236801      11.03881
  34     5.035      445.2366        0.5359      609.6310      610.1669     164.930240       9.33354
  33     6.613      445.4873        0.6983      608.2675      608.9658     163.478515       7.76093
  32     8.786      445.8138        0.9161      606.7731      607.6892     161.875361       6.22607
  31     11.80      446.2368        1.2262      605.0289      606.2551     160.018294       5.19920
  30     15.07      446.6396        1.5572      603.4532      605.0104     158.370808       4.25349
  29     18.79      447.0485        1.9296      601.8895      603.8190     156.770501       3.62839
  28     23.16      447.4733        2.3623      600.2631      602.6254     155.152068       3.12953
  27     28.12      447.8971        2.8548      598.5936      601.4484     153.551297       2.72120
  26     33.73      448.2807        3.4038      596.9368      600.3407     152.060007       2.24219
  25     40.54      448.6386        4.0649      595.1539      599.2188     150.580217       1.83585
  24     48.69      448.9679        4.8582      593.2100      598.0681     149.100285       1.53150
  23     57.69      449.2305        5.7253      591.2623      596.9876     147.757121       1.25901
  22     68.43      449.4359        6.7526      589.1333      595.8859     146.450009       1.02756
  21     81.20      449.5313        7.9706      586.8363      594.8070     145.275664       0.77599
  20     96.49      449.5068        9.4128      584.3223      593.7352     144.228404       0.57801
  19     114.6      449.4166       11.1092      581.4794      592.5887     143.172073       0.49323
  18     136.5      449.2658       13.0957      578.2404      591.3360     142.070224       0.42369
  17     162.9      449.0490       15.4269      574.5240      589.9510     140.901916       0.37344
  16     196.4      448.6813       18.4001      569.9311      588.3312     139.649904       0.31515
  15     218.7      448.4113       20.3226      566.9815      587.3040     138.892723       0.28747
  14     243.0      448.1085       22.3848      563.7700      586.1548     138.046360       0.29355
  13     269.0      447.7717       24.5886      560.2405      584.8291     137.057373       0.32082
  12     297.5      447.4022       26.9346      556.3536      583.2881     135.885980       0.34742
  11     328.5      447.0074       29.4293      552.1527      581.5821     134.574640       0.35655
  10     361.9      446.5902       32.0691      547.6354      579.7045     133.114331       0.36947
   9     398.1      446.1528       34.8590      542.7340      577.5929     131.440143       0.39005
   8     437.6      445.7025       37.7982      537.3568      575.1550     129.452484       0.42497
   7     480.5      445.2450       40.8853      531.4923      572.3776     127.132535       0.45563
   6     533.0      444.7263       44.5990      524.1673      568.7663     124.039945       0.49750
   5     589.8      444.2402       48.4997      516.1140      564.6137     120.373483       0.54422
   4     651.6      443.8477       52.5810      507.0249      559.6058     115.758102       0.63117
   3     718.7      443.6239       56.8351      496.9228      553.7579     110.134068       0.70679
   2     792.3      443.7181       61.2502      485.7298      546.9801     103.261979       0.78815
   1     891.5      444.6555       66.9850      470.5357      537.5207      92.865250       0.88471
   0    1013.0      447.7603       73.5573      452.9664      526.5237      78.763353       0.97917



 Wavenumbers:  2600. -  3250. cm-1, ATM      1
 LEVEL PRESSURE   UPWARD FLUX   DIFDOWN FLUX  DIRDOWN FLUX  DOWNWARD FLUX   NET FLUX    HEATING RATE
          mb          W/m2          W/m2          W/m2        W/m2          W/m2       degree/day
  51    .06700        2.4505        0.0000        5.4450        5.4450       2.994500       0.00000
  50    .07753        2.4505        0.0000        5.4450        5.4450       2.994492       0.00640
  49    .09103        2.4505        0.0000        5.4450        5.4450       2.994482       0.00627
  48    0.1069        2.4505        0.0000        5.4450        5.4450       2.994471       0.00613
  47    0.1255        2.4505        0.0000        5.4450        5.4450       2.994458       0.00600
  46    0.1487        2.4505        0.0000        5.4450        5.4450       2.994441       0.00608
  45    0.1794        2.4505        0.0000        5.4450        5.4450       2.994418       0.00625
  44    0.2165        2.4505        0.0000        5.4449        5.4449       2.994391       0.00612
  43    0.2613        2.4505        0.0000        5.4449        5.4449       2.994359       0.00600
  42    0.3336        2.4505        0.0000        5.4448        5.4448       2.994307       0.00617
  41    0.4307        2.4505        0.0000        5.4448        5.4448       2.994235       0.00620
  40    0.5894        2.4505        0.0000        5.4446        5.4446       2.994116       0.00637
  39     1.339        2.4505        0.0000        5.4439        5.4439       2.993408       0.00797
  38     1.782        2.4505        0.0000        5.4434        5.4434       2.992865       0.01034
  37     2.292        2.4505        0.0000        5.4427        5.4427       2.992148       0.01186
  36     2.964        2.4505        0.0000        5.4416        5.4416       2.991109       0.01304
  35     3.853        2.4505        0.0000        5.4402        5.4402       2.989631       0.01403
  34     5.035        2.4505        0.0000        5.4381        5.4381       2.987574       0.01469
  33     6.613        2.4505        0.0000        5.4353        5.4353       2.984791       0.01488
  32     8.786        2.4505        0.0000        5.4317        5.4317       2.981155       0.01412
  31     11.80        2.4505        0.0000        5.4269        5.4269       2.976367       0.01340
  30     15.07        2.4506        0.0000        5.4224        5.4224       2.971830       0.01171
  29     18.79        2.4506        0.0000        5.4180        5.4180       2.967403       0.01004
  28     23.16        2.4506        0.0000        5.4135        5.4135       2.962896       0.00872
  27     28.12        2.4506        0.0000        5.4088        5.4088       2.958218       0.00795
  26     33.73        2.4507        0.0000        5.4036        5.4036       2.952936       0.00794
  25     40.54        2.4507        0.0000        5.3966        5.3967       2.945931       0.00869
  24     48.69        2.4508        0.0000        5.3872        5.3872       2.936359       0.00991
  23     57.69        2.4510        0.0000        5.3754        5.3754       2.924447       0.01117
  22     68.43        2.4511        0.0000        5.3599        5.3599       2.908778       0.01232
  21     81.20        2.4514        0.0000        5.3401        5.3401       2.888693       0.01327
  20     96.49        2.4518        0.0000        5.3155        5.3155       2.863781       0.01375
  19     114.6        2.4522        0.0001        5.2861        5.2861       2.833927       0.01394
  18     136.5        2.4529        0.0001        5.2520        5.2520       2.799171       0.01336
  17     162.9        2.4537        0.0001        5.2136        5.2137       2.759986       0.01253
  16     196.4        2.4550        0.0001        5.1691        5.1692       2.714128       0.01154
  15     218.7        2.4560        0.0001        5.1429        5.1430       2.686948       0.01032
  14     243.0        2.4572        0.0001        5.1168        5.1169       2.659633       0.00947
  13     269.0        2.4588        0.0001        5.0907        5.0908       2.632029       0.00895
  12     297.5        2.4607        0.0001        5.0642        5.0643       2.603661       0.00841
  11     328.5        2.4631        0.0002        5.0371        5.0372       2.574125       0.00803
  10     361.9        2.4661        0.0002        5.0086        5.0087       2.542591       0.00798
   9     398.1        2.4700        0.0002        4.9774        4.9775       2.507516       0.00817
   8     437.6        2.4751        0.0002        4.9414        4.9416       2.466491       0.00877
   7     480.5        2.4816        0.0002        4.8985        4.8987       2.417085       0.00970
   6     533.0        2.4914        0.0002        4.8399        4.8401       2.348731       0.01100
   5     589.8        2.5043        0.0003        4.7676        4.7679       2.263638       0.01263
   4     651.6        2.5223        0.0003        4.6736        4.6739       2.151591       0.01532
   3     718.7        2.5477        0.0003        4.5544        4.5548       2.007081       0.01816
   2     792.3        2.5844        0.0003        4.4049        4.4052       1.820791       0.02137
   1     891.5        2.6566        0.0004        4.1770        4.1774       1.520760       0.02553
   0    1013.0        2.7963        0.0004        3.8937        3.8940       1.097701       0.02938



 Wavenumbers:  3250. -  4000. cm-1, ATM      1
 LEVEL PRESSURE   UPWARD FLUX   DIFDOWN FLUX  DIRDOWN FLUX  DOWNWARD FLUX   NET FLUX    HEATING RATE
          mb          W/m2          W/m2          W/m2        W/m2          W/m2       degree/day
  51    .06700        0.8114        0.0000        9.1795        9.1795       8.368103       0.00000
  50    .07753        0.8114        0.0000        9.1749        9.1749       8.363434       3.74228
  49    .09103        0.8114        0.0000        9.1717        9.1717       8.360240       1.99626
  48    0.1069        0.8114        0.0000        9.1693        9.1693       8.357918       1.23598
  47    0.1255        0.8114        0.0000        9.1673        9.1673       8.355873       0.92727
  46    0.1487        0.8114        0.0000        9.1651        9.1651       8.353676       0.80078
  45    0.1794        0.8114        0.0000        9.1625        9.1625       8.351092       0.70935
  44    0.2165        0.8114        0.0000        9.1599        9.1599       8.348488       0.59248
  43    0.2613        0.8114        0.0000        9.1573        9.1573       8.345870       0.49341
  42    0.3336        0.8114        0.0000        9.1537        9.1537       8.342274       0.41929
  41    0.4307        0.8114        0.0000        9.1497        9.1497       8.338276       0.34758
  40    0.5894        0.8114        0.0000        9.1439        9.1439       8.332506       0.30687
  39     1.339        0.8114        0.0000        9.1213        9.1213       8.309842       0.25515
  38     1.782        0.8114        0.0000        9.1109        9.1109       8.299506       0.19679
  37     2.292        0.8114        0.0000        9.1009        9.1009       8.289476       0.16612
  36     2.964        0.8114        0.0000        9.0896        9.0896       8.278154       0.14212
  35     3.853        0.8114        0.0000        9.0762        9.0762       8.264773       0.12698
  34     5.035        0.8114        0.0000        9.0595        9.0595       8.248075       0.11929
  33     6.613        0.8114        0.0000        9.0374        9.0374       8.226008       0.11797
  32     8.786        0.8114        0.0000        9.0066        9.0066       8.195192       0.11967
  31     11.80        0.8114        0.0000        8.9603        8.9603       8.148899       0.12961
  30     15.07        0.8114        0.0000        8.9085        8.9086       8.097158       0.13359
  29     18.79        0.8114        0.0000        8.8485        8.8486       8.037151       0.13605
  28     23.16        0.8114        0.0000        8.7783        8.7783       7.966948       0.13575
  27     28.12        0.8114        0.0000        8.7002        8.7003       7.888885       0.13270
  26     33.73        0.8114        0.0001        8.6183        8.6184       7.806997       0.12312
  25     40.54        0.8114        0.0001        8.5284        8.5285       7.717083       0.11155
  24     48.69        0.8114        0.0001        8.4324        8.4324       7.621067       0.09936
  23     57.69        0.8114        0.0001        8.3378        8.3378       7.526488       0.08865
  22     68.43        0.8113        0.0001        8.2325        8.2326       7.421227       0.08275
  21     81.20        0.8113        0.0001        8.1113        8.1114       7.300045       0.08008
  20     96.49        0.8113        0.0001        7.9703        7.9704       7.159131       0.07777
  19     114.6        0.8113        0.0002        7.8102        7.8104       6.999108       0.07472
  18     136.5        0.8113        0.0002        7.6342        7.6344       6.823131       0.06767
  17     162.9        0.8112        0.0002        7.4439        7.4441       6.632874       0.06081
  16     196.4        0.8112        0.0002        7.2221        7.2224       6.411164       0.05581
  15     218.7        0.8112        0.0003        7.0807        7.0810       6.269746       0.05369
  14     243.0        0.8112        0.0003        6.9217        6.9220       6.110794       0.05513
  13     269.0        0.8113        0.0003        6.7354        6.7358       5.924476       0.06044
  12     297.5        0.8114        0.0003        6.5142        6.5145       5.703064       0.06567
  11     328.5        0.8117        0.0004        6.2756        6.2760       5.464212       0.06494
  10     361.9        0.8122        0.0004        6.0333        6.0337       5.221451       0.06142
   9     398.1        0.8130        0.0004        5.7815        5.7819       4.968891       0.05884
   8     437.6        0.8143        0.0004        5.4955        5.4959       4.681607       0.06142
   7     480.5        0.8163        0.0004        5.1717        5.1721       4.355843       0.06398
   6     533.0        0.8199        0.0005        4.7534        4.7538       3.933943       0.06787
   5     589.8        0.8258        0.0005        4.2970        4.2974       3.471624       0.06862
   4     651.6        0.8365        0.0005        3.7970        3.7974       2.960895       0.06984
   3     718.7        0.8554        0.0005        3.2937        3.2941       2.438752       0.06562
   2     792.3        0.8893        0.0004        2.7971        2.7976       1.908262       0.06084
   1     891.5        0.9730        0.0004        2.2142        2.2146       1.241531       0.05674
   0    1013.0        1.1868        0.0004        1.6523        1.6527       0.465869       0.05386



 Wavenumbers:  4000. -  4650. cm-1, ATM      1
 LEVEL PRESSURE   UPWARD FLUX   DIFDOWN FLUX  DIRDOWN FLUX  DOWNWARD FLUX   NET FLUX    HEATING RATE
          mb          W/m2          W/m2          W/m2        W/m2          W/m2       degree/day
  51    .06700        6.2283        0.0000       10.7795       10.7795       4.551287       0.00000
  50    .07753        6.2283        0.0000       10.7795       10.7795       4.551286       0.00085
  49    .09103        6.2283        0.0000       10.7795       10.7795       4.551285       0.00084
  48    0.1069        6.2283        0.0000       10.7795       10.7795       4.551284       0.00082
  47    0.1255        6.2283        0.0000       10.7795       10.7795       4.551282       0.00080
  46    0.1487        6.2283        0.0000       10.7795       10.7795       4.551280       0.00081
  45    0.1794        6.2283        0.0000       10.7795       10.7795       4.551276       0.00084
  44    0.2165        6.2283        0.0000       10.7795       10.7795       4.551273       0.00082
  43    0.2613        6.2283        0.0000       10.7795       10.7795       4.551269       0.00080
  42    0.3336        6.2283        0.0000       10.7795       10.7795       4.551262       0.00083
  41    0.4307        6.2283        0.0000       10.7795       10.7795       4.551252       0.00083
  40    0.5894        6.2283        0.0000       10.7795       10.7795       4.551236       0.00086
  39     1.339        6.2283        0.0000       10.7794       10.7794       4.551140       0.00108
  38     1.782        6.2283        0.0000       10.7793       10.7793       4.551064       0.00143
  37     2.292        6.2283        0.0000       10.7792       10.7792       4.550963       0.00168
  36     2.964        6.2283        0.0000       10.7791       10.7791       4.550812       0.00190
  35     3.853        6.2283        0.0000       10.7788       10.7788       4.550588       0.00213
  34     5.035        6.2283        0.0000       10.7785       10.7785       4.550257       0.00236
  33     6.613        6.2283        0.0000       10.7780       10.7780       4.549770       0.00260
  32     8.786        6.2283        0.0000       10.7773       10.7773       4.549050       0.00280
  31     11.80        6.2283        0.0001       10.7762       10.7762       4.547917       0.00317
  30     15.07        6.2283        0.0001       10.7748       10.7749       4.546585       0.00344
  29     18.79        6.2284        0.0001       10.7733       10.7733       4.544970       0.00366
  28     23.16        6.2284        0.0001       10.7713       10.7714       4.542960       0.00389
  27     28.12        6.2285        0.0001       10.7689       10.7690       4.540519       0.00415
  26     33.73        6.2286        0.0002       10.7660       10.7661       4.537499       0.00454
  25     40.54        6.2288        0.0002       10.7620       10.7622       4.533388       0.00510
  24     48.69        6.2291        0.0002       10.7567       10.7570       4.527887       0.00569
  23     57.69        6.2294        0.0003       10.7505       10.7508       4.521336       0.00614
  22     68.43        6.2299        0.0003       10.7427       10.7430       4.513084       0.00649
  21     81.20        6.2306        0.0004       10.7331       10.7335       4.502864       0.00675
  20     96.49        6.2316        0.0005       10.7215       10.7219       4.490351       0.00691
  19     114.6        6.2328        0.0006       10.7075       10.7080       4.475179       0.00708
  18     136.5        6.2346        0.0007       10.6907       10.6913       4.456780       0.00707
  17     162.9        6.2369        0.0008       10.6704       10.6712       4.434355       0.00717
  16     196.4        6.2403        0.0010       10.6438       10.6448       4.404541       0.00750
  15     218.7        6.2428        0.0011       10.6261       10.6271       4.384374       0.00766
  14     243.0        6.2458        0.0012       10.6063       10.6074       4.361646       0.00788
  13     269.0        6.2495        0.0013       10.5838       10.5851       4.335629       0.00844
  12     297.5        6.2541        0.0014       10.5582       10.5597       4.305527       0.00893
  11     328.5        6.2597        0.0016       10.5291       10.5307       4.271031       0.00938
  10     361.9        6.2664        0.0017       10.4963       10.4981       4.231669       0.00996
   9     398.1        6.2744        0.0019       10.4592       10.4611       4.186683       0.01048
   8     437.6        6.2842        0.0021       10.4168       10.4189       4.134699       0.01111
   7     480.5        6.2960        0.0023       10.3683       10.3706       4.074638       0.01180
   6     533.0        6.3126        0.0025       10.3040       10.3065       3.993911       0.01299
   5     589.8        6.3337        0.0028       10.2272       10.2300       3.896258       0.01450
   4     651.6        6.3614        0.0030       10.1306       10.1337       3.772218       0.01696
   3     718.7        6.3981        0.0033       10.0089       10.0123       3.614201       0.01986
   2     792.3        6.4476        0.0036        9.8553        9.8589       3.411273       0.02327
   1     891.5        6.5378        0.0040        9.6177        9.6217       3.083912       0.02786
   0    1013.0        6.6948        0.0044        9.3180        9.3225       2.627670       0.03168



 Wavenumbers:  4650. -  5150. cm-1, ATM      1
 LEVEL PRESSURE   UPWARD FLUX   DIFDOWN FLUX  DIRDOWN FLUX  DOWNWARD FLUX   NET FLUX    HEATING RATE
          mb          W/m2          W/m2          W/m2        W/m2          W/m2       degree/day
  51    .06700        4.2797        0.0000       10.2033       10.2033       5.923689       0.00000
  50    .07753        4.2797        0.0000       10.2031       10.2031       5.923460       0.18351
  49    .09103        4.2797        0.0000       10.2028       10.2028       5.923174       0.17893
  48    0.1069        4.2797        0.0000       10.2025       10.2025       5.922847       0.17411
  47    0.1255        4.2797        0.0000       10.2021       10.2021       5.922473       0.16922
  46    0.1487        4.2797        0.0000       10.2017       10.2017       5.922006       0.17030
  45    0.1794        4.2797        0.0000       10.2010       10.2010       5.921375       0.17338
  44    0.2165        4.2797        0.0000       10.2003       10.2003       5.920637       0.16783
  43    0.2613        4.2797        0.0000       10.1994       10.1994       5.919777       0.16214
  42    0.3336        4.2797        0.0000       10.1980       10.1980       5.918385       0.16228
  41    0.4307        4.2797        0.0000       10.1962       10.1963       5.916596       0.15551
  40    0.5894        4.2797        0.0000       10.1935       10.1935       5.913803       0.14855
  39     1.339        4.2797        0.0000       10.1822       10.1822       5.902529       0.12692
  38     1.782        4.2797        0.0000       10.1768       10.1768       5.897148       0.10245
  37     2.292        4.2797        0.0000       10.1715       10.1715       5.891834       0.08801
  36     2.964        4.2797        0.0000       10.1657       10.1657       5.886062       0.07247
  35     3.853        4.2797        0.0000       10.1596       10.1596       5.879997       0.05756
  34     5.035        4.2797        0.0000       10.1534       10.1535       5.873800       0.04427
  33     6.613        4.2797        0.0000       10.1471       10.1471       5.867464       0.03387
  32     8.786        4.2797        0.0001       10.1402       10.1402       5.860557       0.02682
  31     11.80        4.2797        0.0001       10.1312       10.1313       5.851617       0.02503
  30     15.07        4.2797        0.0001       10.1215       10.1216       5.841828       0.02528
  29     18.79        4.2798        0.0001       10.1096       10.1097       5.829916       0.02701
  28     23.16        4.2799        0.0002       10.0945       10.0946       5.814723       0.02938
  27     28.12        4.2800        0.0002       10.0756       10.0758       5.795757       0.03224
  26     33.73        4.2802        0.0002       10.0528       10.0530       5.772804       0.03451
  25     40.54        4.2804        0.0003       10.0232       10.0235       5.743062       0.03690
  24     48.69        4.2808        0.0003        9.9855        9.9859       5.705063       0.03932
  23     57.69        4.2813        0.0004        9.9425        9.9429       5.661676       0.04067
  22     68.43        4.2819        0.0005        9.8905        9.8910       5.609055       0.04137
  21     81.20        4.2828        0.0006        9.8289        9.8295       5.546679       0.04122
  20     96.49        4.2840        0.0007        9.7580        9.7587       5.474694       0.03973
  19     114.6        4.2857        0.0008        9.6792        9.6800       5.394334       0.03752
  18     136.5        4.2880        0.0009        9.5942        9.5951       5.307089       0.03355
  17     162.9        4.2912        0.0011        9.5035        9.5046       5.213425       0.02994
  16     196.4        4.2961        0.0013        9.3993        9.4006       5.104459       0.02743
  15     218.7        4.2998        0.0014        9.3357        9.3371       5.037307       0.02550
  14     243.0        4.3043        0.0016        9.2686        9.2702       4.965887       0.02477
  13     269.0        4.3098        0.0018        9.1969        9.1986       4.888821       0.02500
  12     297.5        4.3164        0.0019        9.1187        9.1206       4.804158       0.02511
  11     328.5        4.3244        0.0021        9.0327        9.0348       4.710337       0.02551
  10     361.9        4.3341        0.0023        8.9374        8.9398       4.605669       0.02648
   9     398.1        4.3457        0.0025        8.8320        8.8345       4.488778       0.02723
   8     437.6        4.3599        0.0027        8.7151        8.7178       4.357931       0.02798
   7     480.5        4.3770        0.0030        8.5861        8.5890       4.212043       0.02865
   6     533.0        4.4012        0.0033        8.4231        8.4264       4.025154       0.03006
   5     589.8        4.4318        0.0035        8.2430        8.2466       3.814722       0.03124
   4     651.6        4.4718        0.0038        8.0426        8.0464       3.574669       0.03283
   3     718.7        4.5247        0.0041        7.8202        7.8243       3.299629       0.03456
   2     792.3        4.5955        0.0045        7.5755        7.5799       2.984380       0.03616
   1     891.5        4.7191        0.0049        7.2445        7.2493       2.530232       0.03865
   0    1013.0        4.9263        0.0053        6.8544        6.8596       1.933333       0.04145



 Wavenumbers:  5150. -  6150. cm-1, ATM      1
 LEVEL PRESSURE   UPWARD FLUX   DIFDOWN FLUX  DIRDOWN FLUX  DOWNWARD FLUX   NET FLUX    HEATING RATE
          mb          W/m2          W/m2          W/m2        W/m2          W/m2       degree/day
  51    .06700       11.1310        0.0000       25.5798       25.5798      14.448815       0.00000
  50    .07753       11.1310        0.0000       25.5798       25.5798      14.448813       0.00165
  49    .09103       11.1310        0.0000       25.5798       25.5798      14.448810       0.00166
  48    0.1069       11.1310        0.0000       25.5798       25.5798      14.448807       0.00168
  47    0.1255       11.1310        0.0000       25.5798       25.5798      14.448803       0.00170
  46    0.1487       11.1310        0.0000       25.5798       25.5798      14.448798       0.00178
  45    0.1794       11.1310        0.0000       25.5798       25.5798      14.448791       0.00188
  44    0.2165       11.1310        0.0000       25.5798       25.5798      14.448783       0.00190
  43    0.2613       11.1310        0.0000       25.5798       25.5798      14.448773       0.00193
  42    0.3336       11.1310        0.0000       25.5798       25.5798      14.448755       0.00203
  41    0.4307       11.1310        0.0000       25.5797       25.5797      14.448732       0.00206
  40    0.5894       11.1310        0.0000       25.5797       25.5797      14.448692       0.00212
  39     1.339       11.1310        0.0000       25.5795       25.5795      14.448493       0.00224
  38     1.782       11.1310        0.0001       25.5793       25.5794      14.448370       0.00234
  37     2.292       11.1310        0.0001       25.5792       25.5792      14.448226       0.00240
  36     2.964       11.1310        0.0001       25.5789       25.5790      14.448033       0.00241
  35     3.853       11.1310        0.0001       25.5787       25.5788      14.447777       0.00243
  34     5.035       11.1310        0.0002       25.5783       25.5785      14.447430       0.00248
  33     6.613       11.1311        0.0002       25.5778       25.5780      14.446955       0.00254
  32     8.786       11.1311        0.0003       25.5771       25.5774      14.446300       0.00254
  31     11.80       11.1312        0.0004       25.5761       25.5765      14.445344       0.00268
  30     15.07       11.1313        0.0005       25.5751       25.5756      14.444296       0.00270
  29     18.79       11.1314        0.0006       25.5739       25.5745      14.443101       0.00271
  28     23.16       11.1315        0.0007       25.5725       25.5732      14.441690       0.00273
  27     28.12       11.1317        0.0009       25.5709       25.5718      14.440058       0.00277
  26     33.73       11.1320        0.0011       25.5691       25.5702      14.438182       0.00282
  25     40.54       11.1323        0.0013       25.5668       25.5681      14.435819       0.00293
  24     48.69       11.1328        0.0016       25.5641       25.5657      14.432871       0.00305
  23     57.69       11.1334        0.0019       25.5611       25.5629      14.429522       0.00314
  22     68.43       11.1342        0.0022       25.5574       25.5596      14.425435       0.00321
  21     81.20       11.1352        0.0026       25.5530       25.5556      14.420460       0.00329
  20     96.49       11.1364        0.0031       25.5477       25.5508      14.414400       0.00334
  19     114.6       11.1379        0.0037       25.5412       25.5449      14.407000       0.00346
  18     136.5       11.1397        0.0044       25.5332       25.5376      14.397925       0.00349
  17     162.9       11.1419        0.0052       25.5223       25.5275      14.385555       0.00395
  16     196.4       11.1449        0.0063       25.5018       25.5081      14.363128       0.00565
  15     218.7       11.1470        0.0070       25.4735       25.4805      14.333464       0.01126
  14     243.0       11.1493        0.0077       25.4149       25.4227      14.273349       0.02085
  13     269.0       11.1520        0.0086       25.3095       25.3181      14.166128       0.03478
  12     297.5       11.1551        0.0094       25.1577       25.1671      14.011998       0.04571
  11     328.5       11.1588        0.0104       24.9842       24.9946      13.835842       0.04790
  10     361.9       11.1631        0.0113       24.7758       24.7872      13.624062       0.05358
   9     398.1       11.1683        0.0124       24.5072       24.5196      13.351268       0.06355
   8     437.6       11.1749        0.0135       24.1636       24.1771      13.002226       0.07463
   7     480.5       11.1832        0.0146       23.7601       23.7747      12.591554       0.08065
   6     533.0       11.1959        0.0159       23.2421       23.2580      12.062092       0.08517
   5     589.8       11.2142        0.0173       22.6414       22.6587      11.444468       0.09168
   4     651.6       11.2437        0.0186       21.8607       21.8793      10.635613       0.11061
   3     718.7       11.2919        0.0198       20.9008       20.9206       9.628678       0.12654
   2     792.3       11.3760        0.0210       19.7906       19.8116       8.435566       0.13684
   1     891.5       11.5816        0.0223       18.3306       18.3529       6.771323       0.14162
   0    1013.0       12.1217        0.0238       16.8539       16.8777       4.756030       0.13993



 Wavenumbers:  6150. -  7700. cm-1, ATM      1
 LEVEL PRESSURE   UPWARD FLUX   DIFDOWN FLUX  DIRDOWN FLUX  DOWNWARD FLUX   NET FLUX    HEATING RATE
          mb          W/m2          W/m2          W/m2        W/m2          W/m2       degree/day
  51    .06700       21.1534        0.0000       47.3109       47.3109      26.157485       0.00000
  50    .07753       21.1534        0.0000       47.3108       47.3108      26.157467       0.01445
  49    .09103       21.1534        0.0000       47.3108       47.3108      26.157445       0.01421
  48    0.1069       21.1534        0.0000       47.3108       47.3108      26.157418       0.01397
  47    0.1255       21.1534        0.0000       47.3107       47.3108      26.157388       0.01373
  46    0.1487       21.1534        0.0000       47.3107       47.3107      26.157350       0.01399
  45    0.1794       21.1534        0.0000       47.3106       47.3107      26.157297       0.01445
  44    0.2165       21.1534        0.0000       47.3106       47.3106      26.157235       0.01423
  43    0.2613       21.1534        0.0000       47.3105       47.3105      26.157160       0.01403
  42    0.3336       21.1533        0.0000       47.3103       47.3104      26.157037       0.01441
  41    0.4307       21.1533        0.0001       47.3102       47.3102      26.156872       0.01430
  40    0.5894       21.1533        0.0001       47.3099       47.3099      26.156603       0.01433
  39     1.339       21.1533        0.0002       47.3084       47.3086      26.155325       0.01438
  38     1.782       21.1532        0.0002       47.3076       47.3078      26.154576       0.01427
  37     2.292       21.1532        0.0003       47.3066       47.3069      26.153712       0.01432
  36     2.964       21.1532        0.0004       47.3053       47.3057      26.152582       0.01418
  35     3.853       21.1531        0.0005       47.3037       47.3042      26.151097       0.01409
  34     5.035       21.1530        0.0007       47.3015       47.3021      26.149134       0.01402
  33     6.613       21.1529        0.0009       47.2985       47.2994      26.146523       0.01396
  32     8.786       21.1527        0.0012       47.2946       47.2958      26.143027       0.01358
  31     11.80       21.1525        0.0016       47.2890       47.2906      26.138069       0.01388
  30     15.07       21.1523        0.0021       47.2830       47.2851      26.132805       0.01359
  29     18.79       21.1520        0.0026       47.2764       47.2789      26.126932       0.01332
  28     23.16       21.1517        0.0032       47.2687       47.2719      26.120163       0.01309
  27     28.12       21.1513        0.0038       47.2600       47.2639      26.112535       0.01297
  26     33.73       21.1509        0.0046       47.2505       47.2551      26.104145       0.01261
  25     40.54       21.1505        0.0055       47.2391       47.2447      26.094203       0.01233
  24     48.69       21.1499        0.0066       47.2257       47.2324      26.082495       0.01212
  23     57.69       21.1492        0.0079       47.2113       47.2192      26.069927       0.01178
  22     68.43       21.1485        0.0093       47.1944       47.2038      26.055317       0.01149
  21     81.20       21.1475        0.0111       47.1748       47.1859      26.038349       0.01121
  20     96.49       21.1465        0.0132       47.1520       47.1651      26.018652       0.01087
  19     114.6       21.1452        0.0156       47.1253       47.1410      25.995803       0.01067
  18     136.5       21.1436        0.0186       47.0945       47.1131      25.969419       0.01015
  17     162.9       21.1419        0.0221       47.0575       47.0795      25.937680       0.01014
  16     196.4       21.1396        0.0266       47.0054       47.0320      25.892407       0.01140
  15     218.7       21.1383        0.0296       46.9590       46.9886      25.850306       0.01598
  14     243.0       21.1372        0.0329       46.8839       46.9168      25.779578       0.02453
  13     269.0       21.1365        0.0364       46.7585       46.7948      25.658305       0.03934
  12     297.5       21.1367        0.0401       46.5644       46.6045      25.467755       0.05652
  11     328.5       21.1378        0.0441       46.3198       46.3639      25.226096       0.06571
  10     361.9       21.1400        0.0484       46.0230       46.0714      24.931376       0.07457
   9     398.1       21.1441        0.0529       45.6529       45.7058      24.561704       0.08613
   8     437.6       21.1512        0.0577       45.1737       45.2314      24.080211       0.10295
   7     480.5       21.1624        0.0626       44.5692       44.6318      23.469407       0.11996
   6     533.0       21.1833        0.0684       43.7177       43.7862      22.602869       0.13940
   5     589.8       21.2185        0.0744       42.6810       42.7554      21.536893       0.15823
   4     651.6       21.2828        0.0803       41.3709       41.4512      20.168476       0.18713
   3     718.7       21.3953        0.0861       39.7957       39.8819      18.486619       0.21136
   2     792.3       21.5972        0.0914       37.8977       37.9891      16.391965       0.24023
   1     891.5       22.0865        0.0974       35.2378       35.3352      13.248629       0.26748
   0    1013.0       23.2845        0.1036       32.3105       32.4142       9.129685       0.28600



 Wavenumbers:  7700. -  8050. cm-1, ATM      1
 LEVEL PRESSURE   UPWARD FLUX   DIFDOWN FLUX  DIRDOWN FLUX  DOWNWARD FLUX   NET FLUX    HEATING RATE
          mb          W/m2          W/m2          W/m2        W/m2          W/m2       degree/day
  51    .06700        6.6349        0.0000       11.1810       11.1810       4.546074       0.00000
  50    .07753        6.6349        0.0000       11.1809       11.1809       4.546052       0.01794
  49    .09103        6.6349        0.0000       11.1809       11.1809       4.546024       0.01758
  48    0.1069        6.6349        0.0000       11.1809       11.1809       4.545991       0.01721
  47    0.1255        6.6349        0.0000       11.1809       11.1809       4.545954       0.01684
  46    0.1487        6.6349        0.0000       11.1808       11.1808       4.545907       0.01709
  45    0.1794        6.6349        0.0000       11.1808       11.1808       4.545843       0.01759
  44    0.2165        6.6350        0.0000       11.1807       11.1807       4.545767       0.01725
  43    0.2613        6.6350        0.0000       11.1806       11.1806       4.545677       0.01693
  42    0.3336        6.6350        0.0000       11.1805       11.1805       4.545529       0.01732
  41    0.4307        6.6350        0.0000       11.1803       11.1804       4.545332       0.01713
  40    0.5894        6.6351        0.0000       11.1801       11.1801       4.545010       0.01712
  39     1.339        6.6354        0.0001       11.1788       11.1789       4.543487       0.01714
  38     1.782        6.6356        0.0001       11.1781       11.1782       4.542593       0.01703
  37     2.292        6.6358        0.0001       11.1772       11.1773       4.541558       0.01715
  36     2.964        6.6360        0.0002       11.1761       11.1762       4.540198       0.01707
  35     3.853        6.6364        0.0002       11.1746       11.1748       4.538402       0.01704
  34     5.035        6.6369        0.0003       11.1726       11.1729       4.536017       0.01704
  33     6.613        6.6375        0.0004       11.1699       11.1703       4.532831       0.01703
  32     8.786        6.6383        0.0005       11.1664       11.1669       4.528538       0.01667
  31     11.80        6.6395        0.0007       11.1613       11.1619       4.522401       0.01718
  30     15.07        6.6408        0.0009       11.1558       11.1567       4.515816       0.01700
  29     18.79        6.6423        0.0011       11.1496       11.1507       4.508385       0.01685
  28     23.16        6.6440        0.0013       11.1424       11.1438       4.499715       0.01677
  27     28.12        6.6460        0.0016       11.1342       11.1358       4.489814       0.01683
  26     33.73        6.6482        0.0019       11.1251       11.1270       4.478754       0.01663
  25     40.54        6.6510        0.0023       11.1141       11.1164       4.465420       0.01654
  24     48.69        6.6542        0.0028       11.1009       11.1036       4.449388       0.01659
  23     57.69        6.6579        0.0033       11.0864       11.0897       4.431833       0.01645
  22     68.43        6.6622        0.0039       11.0693       11.0732       4.411002       0.01638
  21     81.20        6.6674        0.0046       11.0491       11.0537       4.386296       0.01633
  20     96.49        6.6737        0.0054       11.0253       11.0307       4.357012       0.01616
  19     114.6        6.6812        0.0065       10.9972       11.0037       4.322463       0.01613
  18     136.5        6.6902        0.0077       10.9644       10.9720       4.281810       0.01563
  17     162.9        6.7011        0.0091       10.9259       10.9349       4.233799       0.01535
  16     196.4        6.7155        0.0109       10.8768       10.8877       4.172147       0.01552
  15     218.7        6.7252        0.0121       10.8450       10.8572       4.131996       0.01524
  14     243.0        6.7358        0.0135       10.8109       10.8244       4.088627       0.01504
  13     269.0        6.7474        0.0149       10.7745       10.7894       4.041927       0.01515
  12     297.5        6.7603        0.0164       10.7356       10.7520       3.991765       0.01488
  11     328.5        6.7744        0.0181       10.6941       10.7122       3.937873       0.01465
  10     361.9        6.7899        0.0199       10.6501       10.6700       3.880150       0.01460
   9     398.1        6.8069        0.0218       10.6034       10.6252       3.818319       0.01441
   8     437.6        6.8256        0.0239       10.5539       10.5778       3.752160       0.01415
   7     480.5        6.8462        0.0261       10.5015       10.5276       3.681435       0.01389
   6     533.0        6.8723        0.0288       10.4379       10.4667       3.594416       0.01400
   5     589.8        6.9014        0.0318       10.3702       10.4020       3.500589       0.01393
   4     651.6        6.9340        0.0349       10.2981       10.3331       3.399103       0.01388
   3     718.7        6.9705        0.0383       10.2214       10.2597       3.289232       0.01381
   2     792.3        7.0115        0.0419       10.1395       10.1815       3.169939       0.01368
   1     891.5        7.0706        0.0468       10.0290       10.0758       3.005177       0.01402
   0    1013.0        7.1475        0.0527        9.8951        9.9478       2.800296       0.01423



 Wavenumbers:  8050. - 12850. cm-1, ATM      1
 LEVEL PRESSURE   UPWARD FLUX   DIFDOWN FLUX  DIRDOWN FLUX  DOWNWARD FLUX   NET FLUX    HEATING RATE
          mb          W/m2          W/m2          W/m2        W/m2          W/m2       degree/day
  51    .06700      103.9867        0.0000      156.5418      156.5418      52.555098       0.00000
  50    .07753      103.9866        0.0000      156.5417      156.5417      52.555098      -0.00000
  49    .09103      103.9866        0.0001      156.5417      156.5417      52.555098       0.00000
  48    0.1069      103.9866        0.0001      156.5416      156.5417      52.555098      -0.00000
  47    0.1255      103.9866        0.0002      156.5415      156.5417      52.555098       0.00000
  46    0.1487      103.9866        0.0002      156.5414      156.5417      52.555098       0.00000
  45    0.1794      103.9865        0.0003      156.5413      156.5416      52.555098      -0.00000
  44    0.2165      103.9865        0.0004      156.5412      156.5416      52.555098       0.00000
  43    0.2613      103.9864        0.0006      156.5410      156.5415      52.555098      -0.00000
  42    0.3336      103.9864        0.0008      156.5407      156.5415      52.555098       0.00000
  41    0.4307      103.9863        0.0011      156.5403      156.5414      52.555098       0.00000
  40    0.5894      103.9861        0.0015      156.5397      156.5412      52.555098       0.00000
  39     1.339      103.9853        0.0037      156.5367      156.5404      52.555098      -0.00000
  38     1.782      103.9848        0.0049      156.5350      156.5399      52.555098       0.00000
  37     2.292      103.9843        0.0064      156.5330      156.5394      52.555098       0.00000
  36     2.964      103.9836        0.0083      156.5303      156.5387      52.555098       0.00000
  35     3.853      103.9826        0.0109      156.5268      156.5377      52.555098      -0.00000
  34     5.035      103.9814        0.0143      156.5222      156.5365      52.555098       0.00000
  33     6.613      103.9797        0.0188      156.5160      156.5348      52.555098       0.00000
  32     8.786      103.9775        0.0249      156.5076      156.5326      52.555098       0.00000
  31     11.80      103.9743        0.0337      156.4957      156.5293      52.555098      -0.00000
  30     15.07      103.9708        0.0431      156.4828      156.5259      52.555098       0.00000
  29     18.79      103.9669        0.0537      156.4682      156.5220      52.555098       0.00000
  28     23.16      103.9623        0.0662      156.4512      156.5174      52.555098       0.00000
  27     28.12      103.9570        0.0804      156.4317      156.5121      52.555098      -0.00000
  26     33.73      103.9512        0.0964      156.4099      156.5063      52.555098       0.00000
  25     40.54      103.9441        0.1157      156.3834      156.4992      52.555098       0.00000
  24     48.69      103.9355        0.1390      156.3515      156.4906      52.555098      -0.00000
  23     57.69      103.9260        0.1647      156.3164      156.4811      52.555098       0.00000
  22     68.43      103.9147        0.1953      156.2746      156.4698      52.555098      -0.00000
  21     81.20      103.9013        0.2318      156.2246      156.4564      52.555098      -0.00000
  20     96.49      103.8852        0.2754      156.1649      156.4403      52.555098       0.00000
  19     114.6      103.8661        0.3272      156.0937      156.4210      52.554817       0.00013
  18     136.5      103.8434        0.3888      156.0091      156.3979      52.554466       0.00014
  17     162.9      103.8164        0.4624      155.9079      156.3702      52.553877       0.00019
  16     196.4      103.7812        0.5580      155.7755      156.3335      52.552339       0.00039
  15     218.7      103.7581        0.6209      155.6865      156.3075      52.549363       0.00113
  14     243.0      103.7332        0.6895      155.5856      156.2751      52.541880       0.00260
  13     269.0      103.7067        0.7640      155.4677      156.2317      52.524965       0.00549
  12     297.5      103.6791        0.8447      155.3260      156.1707      52.491597       0.00990
  11     328.5      103.6504        0.9321      155.1576      156.0897      52.439318       0.01421
  10     361.9      103.6213        1.0264      154.9574      155.9838      52.362488       0.01944
   9     398.1      103.5927        1.1282      154.7165      155.8448      52.252005       0.02574
   8     437.6      103.5664        1.2378      154.4238      155.6617      52.095251       0.03351
   7     480.5      103.5444        1.3556      154.0717      155.4273      51.882954       0.04169
   6     533.0      103.5286        1.5009      153.5826      155.0835      51.554902       0.05277
   5     589.8      103.5319        1.6578      152.9737      154.6315      51.099597       0.06758
   4     651.6      103.5775        1.8263      152.1739      154.0002      50.422675       0.09257
   3     718.7      103.6930        2.0065      151.1470      153.1535      49.460559       0.12091
   2     792.3      103.9346        2.1978      149.8003      151.9981      48.063530       0.16022
   1     891.5      104.5454        2.4514      147.5673      150.0187      45.473296       0.22042
   0    1013.0      105.8940        2.7487      144.4248      147.1736      41.279598       0.29119



 Wavenumbers: 12850. - 16000. cm-1, ATM      1
 LEVEL PRESSURE   UPWARD FLUX   DIFDOWN FLUX  DIRDOWN FLUX  DOWNWARD FLUX   NET FLUX    HEATING RATE
          mb          W/m2          W/m2          W/m2        W/m2          W/m2       degree/day
  51    .06700       77.1597        0.0000       98.0872       98.0872      20.927569       0.00000
  50    .07753       77.1597        0.0001       98.0864       98.0864      20.926776       0.63551
  49    .09103       77.1597        0.0002       98.0853       98.0855      20.925780       0.62257
  48    0.1069       77.1597        0.0003       98.0841       98.0843      20.924635       0.60941
  47    0.1255       77.1597        0.0004       98.0826       98.0830      20.923319       0.59656
  46    0.1487       77.1597        0.0005       98.0809       98.0814      20.921658       0.60563
  45    0.1794       77.1598        0.0007       98.0784       98.0792      20.919396       0.62078
  44    0.2165       77.1599        0.0010       98.0756       98.0766      20.916735       0.60545
  43    0.2613       77.1600        0.0012       98.0723       98.0736      20.913603       0.59037
  42    0.3336       77.1602        0.0017       98.0670       98.0687      20.908487       0.59648
  41    0.4307       77.1607        0.0023       98.0602       98.0625      20.901865       0.57578
  40    0.5894       77.1615        0.0034       98.0496       98.0529      20.891415       0.55568
  39     1.339       77.1687        0.0081       98.0043       98.0125      20.843835       0.53566
  38     1.782       77.1751        0.0110       97.9793       97.9903      20.815121       0.54668
  37     2.292       77.1847        0.0142       97.9498       97.9640      20.779255       0.59404
  36     2.964       77.2006        0.0185       97.9088       97.9273      20.726678       0.65999
  35     3.853       77.2262        0.0242       97.8503       97.8745      20.648263       0.74417
  34     5.035       77.2647        0.0317       97.7680       97.7996      20.534905       0.80978
  33     6.613       77.3185        0.0417       97.6562       97.6979      20.379367       0.83151
  32     8.786       77.3885        0.0552       97.5107       97.5658      20.177330       0.78464
  31     11.80       77.4797        0.0744       97.3179       97.3923      19.912585       0.74120
  30     15.07       77.5672        0.0951       97.1283       97.2234      19.656234       0.66185
  29     18.79       77.6567        0.1184       96.9300       97.0485      19.391806       0.59954
  28     23.16       77.7503        0.1457       96.7166       96.8623      19.111919       0.54121
  27     28.12       77.8448        0.1768       96.4935       96.6703      18.825483       0.48692
  26     33.73       77.9325        0.2116       96.2731       96.4847      18.552271       0.41078
  25     40.54       78.0174        0.2537       96.0408       96.2945      18.277078       0.34141
  24     48.69       78.0996        0.3045       95.7946       96.0991      17.999487       0.28726
  23     57.69       78.1702        0.3602       95.5573       95.9175      17.747332       0.23636
  22     68.43       78.2331        0.4267       95.3106       95.7373      17.504199       0.19113
  21     81.20       78.2790        0.5060       95.0644       95.5703      17.291325       0.14066
  20     96.49       78.3069        0.6006       94.8153       95.4159      17.108989       0.10064
  19     114.6       78.3342        0.7137       94.5412       95.2549      16.920601       0.08796
  18     136.5       78.3562        0.8477       94.2324       95.0802      16.723987       0.07560
  17     162.9       78.3728        1.0074       93.8760       94.8834      16.510559       0.06822
  16     196.4       78.3740        1.2144       93.4359       94.6503      16.276296       0.05897
  15     218.7       78.3676        1.3504       93.1535       94.5039      16.136307       0.05315
  14     243.0       78.3577        1.4982       92.8487       94.3469      15.989185       0.05103
  13     269.0       78.3439        1.6583       92.5216       94.1798      15.835914       0.04972
  12     297.5       78.3264        1.8313       92.1712       94.0024      15.676059       0.04741
  11     328.5       78.3068        2.0182       91.7946       93.8128      15.505980       0.04624
  10     361.9       78.2856        2.2195       91.3914       93.6108      15.325263       0.04572
   9     398.1       78.2629        2.4361       90.9607       93.3967      15.133839       0.04460
   8     437.6       78.2398        2.6687       90.5005       93.1692      14.929400       0.04371
   7     480.5       78.2169        2.9181       90.0102       92.9283      14.711383       0.04282
   6     533.0       78.1924        3.2253       89.4083       92.6336      14.441149       0.04347
   5     589.8       78.1724        3.5565       88.7597       92.3163      14.143840       0.04413
   4     651.6       78.1612        3.9129       88.0579       91.9708      13.809554       0.04571
   3     718.7       78.1641        4.2951       87.2992       91.5943      13.430141       0.04768
   2     792.3       78.1899        4.7038       86.4771       91.1809      12.990972       0.05037
   1     891.5       78.2731        5.2541       85.3507       90.6048      12.331709       0.05610
   0    1013.0       78.4663        5.9126       83.9809       89.8935      11.427170       0.06281



 Wavenumbers: 16000. - 22650. cm-1, ATM      1
 LEVEL PRESSURE   UPWARD FLUX   DIFDOWN FLUX  DIRDOWN FLUX  DOWNWARD FLUX   NET FLUX    HEATING RATE
          mb          W/m2          W/m2          W/m2        W/m2          W/m2       degree/day
  51    .06700      141.7232        0.0000      156.3892      156.3892      14.666095       0.00000
  50    .07753      141.7231        0.0004      156.3887      156.3891      14.665946       0.11910
  49    .09103      141.7231        0.0009      156.3879      156.3888      14.665730       0.13508
  48    0.1069      141.7231        0.0015      156.3871      156.3885      14.665441       0.15404
  47    0.1255      141.7231        0.0021      156.3861      156.3882      14.665053       0.17559
  46    0.1487      141.7232        0.0030      156.3847      156.3877      14.664482       0.20807
  45    0.1794      141.7233        0.0041      156.3828      156.3869      14.663590       0.24498
  44    0.2165      141.7236        0.0054      156.3805      156.3859      14.662380       0.27533
  43    0.2613      141.7239        0.0070      156.3776      156.3847      14.660738       0.30954
  42    0.3336      141.7247        0.0097      156.3726      156.3823      14.657615       0.36402
  41    0.4307      141.7260        0.0132      156.3657      156.3789      14.652909       0.40919
  40    0.5894      141.7286        0.0189      156.3537      156.3726      14.643934       0.47730
  39     1.339      141.7517        0.0459      156.2834      156.3293      14.577622       0.74655
  38     1.782      141.7730        0.0617      156.2324      156.2941      14.521131       1.07548
  37     2.292      141.8048        0.0801      156.1641      156.2442      14.439361       1.35433
  36     2.964      141.8578        0.1042      156.0605      156.1647      14.306891       1.66290
  35     3.853      141.9434        0.1360      155.9041      156.0401      14.096692       1.99483
  34     5.035      142.0725        0.1782      155.6774      155.8556      13.783086       2.24027
  33     6.613      142.2529        0.2345      155.3656      155.6001      13.347256       2.32995
  32     8.786      142.4879        0.3103      154.9577      155.2680      12.780126       2.20253
  31     11.80      142.7937        0.4186      154.4153      154.8339      12.040140       2.07173
  30     15.07      143.0868        0.5347      153.8804      154.4151      11.328267       1.83792
  29     18.79      143.3861        0.6657      153.3191      153.9847      10.598634       1.65430
  28     23.16      143.6990        0.8184      152.7126      153.5309       9.831943       1.48253
  27     28.12      144.0139        0.9928      152.0755      153.0683       9.054353       1.32185
  26     33.73      144.3047        1.1877      151.4409      152.6286       8.323930       1.09821
  25     40.54      144.5848        1.4231      150.7637      152.1867       7.601976       0.89567
  24     48.69      144.8531        1.7065      150.0339      151.7403       6.887197       0.73968
  23     57.69      145.0809        2.0174      149.3151      151.3326       6.251656       0.59572
  22     68.43      145.2800        2.3874      148.5476      150.9350       5.655025       0.46903
  21     81.20      145.4181        2.8279      147.7517      150.5796       5.161450       0.32615
  20     96.49      145.4908        3.3523      146.9127      150.2649       4.774103       0.21379
  19     114.6      145.5293        3.9731      145.9763      149.9494       4.420131       0.16528
  18     136.5      145.5431        4.7062      144.9088      149.6150       4.071912       0.13390
  17     162.9      145.5306        5.5751      143.6786      149.2537       3.723107       0.11149
  16     196.4      145.4519        6.6962      142.1652      148.8614       3.409470       0.07895
  15     218.7      145.3774        7.4288      141.2037      148.6325       3.255136       0.05859
  14     243.0      145.2857        8.2218      140.1761      148.3979       3.112168       0.04959
  13     269.0      145.1752        9.0772      139.0814      148.1586       2.983371       0.04178
  12     297.5      145.0450        9.9971      137.9176      147.9147       2.869696       0.03371
  11     328.5      144.8992       10.9858      136.6740      147.6598       2.760672       0.02964
  10     361.9      144.7372       12.0442      135.3499      147.3942       2.656984       0.02623
   9     398.1      144.5582       13.1764      133.9405      147.1169       2.558644       0.02291
   8     437.6      144.3628       14.3842      132.4425      146.8267       2.463917       0.02025
   7     480.5      144.1499       15.6699      130.8539      146.5238       2.373944       0.01767
   6     533.0      143.8846       17.2401      128.9203      146.1604       2.275763       0.01579
   5     589.8      143.5971       18.9175      126.8598      145.7773       2.180219       0.01418
   4     651.6      143.2878       20.7037      124.6698      145.3734       2.085662       0.01293
   3     718.7      142.9568       22.6004      122.3476      144.9480       1.991238       0.01187
   2     792.3      142.6051       24.6062      119.8943      144.5004       1.895329       0.01100
   1     891.5      142.1378       27.2718      116.6345      143.9063       1.768487       0.01079
   0    1013.0      141.5899       30.4097      112.7959      143.2056       1.615678       0.01061



 Wavenumbers: 22650. - 29000. cm-1, ATM      1
 LEVEL PRESSURE   UPWARD FLUX   DIFDOWN FLUX  DIRDOWN FLUX  DOWNWARD FLUX   NET FLUX    HEATING RATE
          mb          W/m2          W/m2          W/m2        W/m2          W/m2       degree/day
  51    .06700       58.3821        0.0000       59.0156       59.0156       0.633512       0.00000
  50    .07753       58.3820        0.0005       59.0151       59.0155       0.633512      -0.00000
  49    .09103       58.3819        0.0010       59.0144       59.0154       0.633512       0.00000
  48    0.1069       58.3818        0.0017       59.0136       59.0153       0.633512      -0.00000
  47    0.1255       58.3816        0.0025       59.0127       59.0151       0.633512      -0.00000
  46    0.1487       58.3814        0.0034       59.0115       59.0149       0.633512       0.00000
  45    0.1794       58.3812        0.0048       59.0099       59.0147       0.633512      -0.00000
  44    0.2165       58.3809        0.0063       59.0080       59.0144       0.633512       0.00000
  43    0.2613       58.3805        0.0082       59.0058       59.0140       0.633512       0.00000
  42    0.3336       58.3799        0.0113       59.0022       59.0134       0.633512       0.00000
  41    0.4307       58.3791        0.0153       58.9973       59.0126       0.633512      -0.00000
  40    0.5894       58.3778        0.0220       58.9894       59.0113       0.633512      -0.00000
  39     1.339       58.3717        0.0534       58.9518       59.0052       0.633512      -0.00000
  38     1.782       58.3681        0.0719       58.9297       59.0016       0.633512       0.00000
  37     2.292       58.3639        0.0933       58.9042       58.9974       0.633512       0.00000
  36     2.964       58.3584        0.1213       58.8706       58.9920       0.633512      -0.00000
  35     3.853       58.3512        0.1584       58.8264       58.9847       0.633512       0.00000
  34     5.035       58.3416        0.2076       58.7676       58.9751       0.633512       0.00000
  33     6.613       58.3288        0.2732       58.6891       58.9623       0.633512       0.00000
  32     8.786       58.3116        0.3617       58.5834       58.9451       0.633512       0.00000
  31     11.80       58.2869        0.4880       58.4325       58.9205       0.633512      -0.00000
  30     15.07       58.2605        0.6234       58.2706       58.8940       0.633512       0.00000
  29     18.79       58.2308        0.7760       58.0882       58.8643       0.633512       0.00000
  28     23.16       58.1961        0.9539       57.8757       58.8296       0.633512       0.00000
  27     28.12       58.1565        1.1567       57.6333       58.7900       0.633512      -0.00000
  26     33.73       58.1124        1.3828       57.3631       58.7459       0.633512       0.00000
  25     40.54       58.0593        1.6549       57.0379       58.6928       0.633512      -0.00000
  24     48.69       57.9956        1.9812       56.6479       58.6291       0.633512      -0.00000
  23     57.69       57.9260        2.3375       56.2221       58.5596       0.633512       0.00000
  22     68.43       57.8438        2.7587       55.7186       58.4773       0.633512       0.00000
  21     81.20       57.7466        3.2562       55.1239       58.3801       0.633512       0.00000
  20     96.49       57.6320        3.8427       54.4228       58.2655       0.633512      -0.00000
  19     114.6       57.4976        4.5301       53.6010       58.1311       0.633512      -0.00000
  18     136.5       57.3407        5.3324       52.6418       57.9742       0.633512       0.00000
  17     162.9       57.1571        6.2702       51.5204       57.7906       0.633512       0.00000
  16     196.4       56.9244        7.4584       50.0995       57.5579       0.633512       0.00000
  15     218.7       56.7747        8.2219       49.1863       57.4082       0.633512      -0.00000
  14     243.0       56.6148        9.0369       48.2114       57.2483       0.633512       0.00000
  13     269.0       56.4447        9.9031       47.1752       57.0782       0.633512      -0.00000
  12     297.5       56.2647       10.8194       46.0788       56.8982       0.633512       0.00000
  11     328.5       56.0743       11.7874       44.9204       56.7078       0.633512       0.00000
  10     361.9       55.8741       12.8043       43.7033       56.5076       0.633512      -0.00000
   9     398.1       55.6640       13.8702       42.4273       56.2975       0.633512       0.00000
   8     437.6       55.4444       14.9829       41.0950       56.0779       0.633512       0.00000
   7     480.5       55.2157       16.1398       39.7094       55.8492       0.633512      -0.00000
   6     533.0       54.9436       17.5146       38.0624       55.5771       0.633512       0.00000
   5     589.8       54.6612       18.9382       36.3565       55.2947       0.633512       0.00000
   4     651.6       54.3697       20.4041       34.5991       55.0032       0.633512      -0.00000
   3     718.7       54.0703       21.9055       32.7983       54.7039       0.633512       0.00000
   2     792.3       53.7646       23.4345       30.9636       54.3981       0.633512      -0.00000
   1     891.5       53.3759       25.3707       28.6388       54.0095       0.633512      -0.00000
   0    1013.0       52.9426       27.5179       26.0582       53.5761       0.633512       0.00000



 Wavenumbers: 29000. - 38000. cm-1, ATM      1
 LEVEL PRESSURE   UPWARD FLUX   DIFDOWN FLUX  DIRDOWN FLUX  DOWNWARD FLUX   NET FLUX    HEATING RATE
          mb          W/m2          W/m2          W/m2        W/m2          W/m2       degree/day
  51    .06700        8.7365        0.0000       20.8114       20.8114      12.074865       0.00000
  50    .07753        8.7363        0.0003       20.8070       20.8074      12.071058       3.05152
  49    .09103        8.7361        0.0007       20.8009       20.8016      12.065521       3.46081
  48    0.1069        8.7358        0.0012       20.7928       20.7939      12.058111       3.94425
  47    0.1255        8.7355        0.0017       20.7820       20.7837      12.048207       4.49029
  46    0.1487        8.7352        0.0024       20.7665       20.7688      12.033644       5.30838
  45    0.1794        8.7347        0.0033       20.7424       20.7457      12.010979       6.22197
  44    0.2165        8.7342        0.0044       20.7103       20.7147      11.980457       6.94332
  43    0.2613        8.7336        0.0056       20.6675       20.6731      11.939463       7.72723
  42    0.3336        8.7327        0.0077       20.5880       20.5956      11.862903       8.92613
  41    0.4307        8.7317        0.0104       20.4722       20.4826      11.750952       9.73389
  40    0.5894        8.7301        0.0147       20.2637       20.2784      11.548271      10.77831
  39     1.339        8.7267        0.0331       19.0984       19.1315      10.404816      12.87322
  38     1.782        8.7271        0.0427       18.4394       18.4820       9.754911      12.37315
  37     2.292        8.7298        0.0530       17.7714       17.8244       9.094593      10.93659
  36     2.964        8.7363        0.0656       17.0421       17.1078       8.371512       9.07685
  35     3.853        8.7490        0.0816       16.2679       16.3494       7.600400       7.31799
  34     5.035        8.7700        0.1017       15.4803       15.5820       6.812005       5.63197
  33     6.613        8.8006        0.1275       14.7157       14.8432       6.042559       4.11346
  32     8.786        8.8410        0.1612       13.9936       14.1548       5.313791       2.83027
  31     11.80        8.8937        0.2082       13.2835       13.4918       4.598066       2.00380
  30     15.07        8.9445        0.2570       12.7394       12.9963       4.051825       1.41029
  29     18.79        8.9970        0.3110       12.2666       12.5776       3.580621       1.06836
  28     23.16        9.0528        0.3725       11.8300       12.2025       3.149743       0.83318
  27     28.12        9.1099        0.4413       11.4279       11.8692       2.759321       0.66369
  26     33.73        9.1625        0.5172       11.0695       11.5866       2.424077       0.50405
  25     40.54        9.2125        0.6078       10.7209       11.3287       2.116176       0.38199
  24     48.69        9.2596        0.7153       10.3742       11.0895       1.829893       0.29626
  23     57.69        9.2982        0.8317       10.0549       10.8866       1.588383       0.22638
  22     68.43        9.3293        0.9682        9.7327       10.7009       1.371588       0.17043
  21     81.20        9.3441        1.1294        9.4134       10.5428       1.198728       0.11422
  20     96.49        9.3405        1.3189        9.0887       10.4076       1.067152       0.07262
  19     114.6        9.3265        1.5378        8.7388       10.2766       0.950041       0.05468
  18     136.5        9.3053        1.7881        8.3549       10.1430       0.837679       0.04321
  17     162.9        9.2768        2.0733        7.9311       10.0045       0.727675       0.03516
  16     196.4        9.2291        2.4267        7.4333        9.8600       0.630860       0.02437
  15     218.7        9.1948        2.6489        7.1296        9.7785       0.583645       0.01793
  14     243.0        9.1572        2.8812        6.8161        9.6973       0.540051       0.01512
  13     269.0        9.1162        3.1227        6.4944        9.6171       0.500909       0.01270
  12     297.5        9.0717        3.3723        6.1659        9.5381       0.466407       0.01023
  11     328.5        9.0253        3.6290        5.8296        9.4587       0.433377       0.00898
  10     361.9        8.9774        3.8904        5.4889        9.3793       0.401966       0.00795
   9     398.1        8.9280        4.1559        5.1444        9.3002       0.372202       0.00693
   8     437.6        8.8778        4.4240        4.7974        9.2214       0.343514       0.00613
   7     480.5        8.8271        4.6926        4.4508        9.1434       0.316282       0.00535
   6     533.0        8.7689        4.9984        4.0571        9.0555       0.286607       0.00477
   5     589.8        8.7116        5.2991        3.6704        8.9695       0.257877       0.00426
   4     651.6        8.6559        5.5925        3.2932        8.8857       0.229772       0.00384
   3     718.7        8.6026        5.8750        2.9298        8.8049       0.202249       0.00346
   2     792.3        8.5522        6.1447        2.5828        8.7275       0.175310       0.00309
   1     891.5        8.4943        6.4608        2.1756        8.6364       0.142055       0.00283
   0    1013.0        8.4386        6.7777        1.7662        8.5439       0.105329       0.00255



 Wavenumbers: 38000. - 50000. cm-1, ATM      1
 LEVEL PRESSURE   UPWARD FLUX   DIFDOWN FLUX  DIRDOWN FLUX  DOWNWARD FLUX   NET FLUX    HEATING RATE
          mb          W/m2          W/m2          W/m2        W/m2          W/m2       degree/day
  51    .06700        0.0061        0.0000        1.2836        1.2836       1.277518       0.00000
  50    .07753        0.0061        0.0001        1.2812        1.2812       1.275183       1.87150
  49    .09103        0.0060        0.0002        1.2777        1.2778       1.271851       2.08247
  48    0.1069        0.0059        0.0002        1.2731        1.2734       1.267473       2.33059
  47    0.1255        0.0058        0.0004        1.2672        1.2675       1.261717       2.60908
  46    0.1487        0.0057        0.0005        1.2586        1.2591       1.253391       3.03499
  45    0.1794        0.0055        0.0007        1.2455        1.2462       1.240623       3.50520
  44    0.2165        0.0054        0.0009        1.2282        1.2291       1.223697       3.85037
  43    0.2613        0.0052        0.0011        1.2054        1.2065       1.201348       4.21261
  42    0.3336        0.0049        0.0015        1.1639        1.1654       1.160524       4.75970
  41    0.4307        0.0045        0.0020        1.1051        1.1070       1.102565       5.03943
  40    0.5894        0.0039        0.0026        1.0039        1.0064       1.002524       5.32007
  39     1.339        0.0022        0.0035        0.5438        0.5473       0.545105       5.14971
  38     1.782        0.0016        0.0032        0.3635        0.3666       0.365006       3.42879
  37     2.292        0.0012        0.0027        0.2356        0.2383       0.237058       2.11916
  36     2.964        0.0009        0.0022        0.1455        0.1477       0.146786       1.13318
  35     3.853        0.0006        0.0017        0.0858        0.0875       0.086906       0.56828
  34     5.035        0.0004        0.0013        0.0488        0.0501       0.049701       0.26578
  33     6.613        0.0003        0.0010        0.0273        0.0282       0.027974       0.11615
  32     8.786        0.0002        0.0007        0.0144        0.0151       0.014928       0.05067
  31     11.80        0.0001        0.0004        0.0065        0.0070       0.006903       0.02247
  30     15.07        0.0000        0.0003        0.0031        0.0034       0.003329       0.00923
  29     18.79        0.0000        0.0002        0.0014        0.0016       0.001583       0.00396
  28     23.16        0.0000        0.0001        0.0006        0.0007       0.000720       0.00167
  27     28.12        0.0000        0.0001        0.0003        0.0003       0.000317       0.00069
  26     33.73        0.0000        0.0000        0.0001        0.0001       0.000140       0.00027
  25     40.54        0.0000        0.0000        0.0000        0.0001       0.000057       0.00010
  24     48.69        0.0000        0.0000        0.0000        0.0000       0.000021       0.00004
  23     57.69        0.0000        0.0000        0.0000        0.0000       0.000008       0.00001
  22     68.43        0.0000        0.0000        0.0000        0.0000       0.000003       0.00000
  21     81.20        0.0000        0.0000        0.0000        0.0000       0.000001       0.00000
  20     96.49        0.0000        0.0000        0.0000        0.0000       0.000000       0.00000
  19     114.6        0.0000        0.0000        0.0000        0.0000       0.000000       0.00000
  18     136.5        0.0000        0.0000        0.0000        0.0000       0.000000       0.00000
  17     162.9        0.0000        0.0000        0.0000        0.0000       0.000000       0.00000
  16     196.4        0.0000        0.0000        0.0000        0.0000       0.000000       0.00000
  15     218.7        0.0000        0.0000        0.0000        0.0000       0.000000       0.00000
  14     243.0        0.0000        0.0000        0.0000        0.0000       0.000000       0.00000
  13     269.0        0.0000        0.0000        0.0000        0.0000       0.000000       0.00000
  12     297.5        0.0000        0.0000        0.0000        0.0000       0.000000       0.00000
  11     328.5        0.0000        0.0000        0.0000        0.0000       0.000000       0.00000
  10     361.9        0.0000        0.0000        0.0000        0.0000       0.000000       0.00000
   9     398.1        0.0000        0.0000        0.0000        0.0000       0.000000       0.00000
   8     437.6        0.0000        0.0000        0.0000        0.0000       0.000000       0.00000
   7     480.5        0.0000        0.0000        0.0000        0.0000       0.000000       0.00000
   6     533.0        0.0000        0.0000        0.0000        0.0000       0.000000       0.00000
   5     589.8        0.0000        0.0000        0.0000        0.0000       0.000000       0.00000
   4     651.6        0.0000        0.0000        0.0000        0.0000       0.000000       0.00000
   3     718.7        0.0000        0.0000        0.0000        0.0000       0.000000       0.00000
   2     792.3        0.0000        0.0000        0.0000        0.0000       0.000000       0.00000
   1     891.5        0.0000        0.0000        0.0000        0.0000       0.000000       0.00000
   0    1013.0        0.0000        0.0000        0.0000        0.0000       0.000000       0.00000



 Wavenumbers:   820. -  2600. cm-1, ATM      1
 LEVEL PRESSURE   UPWARD FLUX   DIFDOWN FLUX  DIRDOWN FLUX  DOWNWARD FLUX   NET FLUX    HEATING RATE
          mb          W/m2          W/m2          W/m2        W/m2          W/m2       degree/day
  51    .06700        2.1152        0.0000        6.0047        6.0047       3.889494       0.00000
  50    .07753        2.1152        0.0000        6.0009        6.0009       3.885711       3.03196
  49    .09103        2.1152        0.0000        6.0001        6.0001       3.884917       0.49641
  48    0.1069        2.1152        0.0000        5.9992        5.9992       3.884037       0.46840
  47    0.1255        2.1152        0.0000        5.9982        5.9982       3.883050       0.44742
  46    0.1487        2.1152        0.0000        5.9970        5.9970       3.881864       0.43228
  45    0.1794        2.1152        0.0000        5.9955        5.9955       3.880387       0.40565
  44    0.2165        2.1152        0.0000        5.9940        5.9940       3.878841       0.35170
  43    0.2613        2.1152        0.0000        5.9924        5.9924       3.877245       0.30086
  42    0.3336        2.1152        0.0000        5.9901        5.9901       3.874987       0.26325
  41    0.4307        2.1152        0.0000        5.9875        5.9875       3.872359       0.22842
  40    0.5894        2.1152        0.0000        5.9834        5.9834       3.868262       0.21789
  39     1.339        2.1152        0.0000        5.9646        5.9646       3.849441       0.21189
  38     1.782        2.1152        0.0000        5.9542        5.9542       3.839047       0.19788
  37     2.292        2.1152        0.0000        5.9426        5.9426       3.827397       0.19296
  36     2.964        2.1152        0.0000        5.9277        5.9277       3.812557       0.18628
  35     3.853        2.1152        0.0000        5.9088        5.9088       3.793666       0.17928
  34     5.035        2.1152        0.0000        5.8848        5.8848       3.769647       0.17159
  33     6.613        2.1152        0.0000        5.8536        5.8536       3.738407       0.16701
  32     8.786        2.1152        0.0000        5.8119        5.8119       3.696757       0.16175
  31     11.80        2.1152        0.0000        5.7566        5.7566       3.641376       0.15505
  30     15.07        2.1152        0.0000        5.7074        5.7074       3.592225       0.12690
  29     18.79        2.1152        0.0000        5.6666        5.6666       3.551389       0.09259
  28     23.16        2.1153        0.0000        5.6353        5.6353       3.520038       0.06062
  27     28.12        2.1153        0.0000        5.6127        5.6127       3.497426       0.03844
  26     33.73        2.1154        0.0000        5.5950        5.5950       3.479663       0.02671
  25     40.54        2.1154        0.0000        5.5768        5.5768       3.461414       0.02264
  24     48.69        2.1155        0.0000        5.5554        5.5555       3.439948       0.02221
  23     57.69        2.1156        0.0000        5.5315        5.5315       3.415903       0.02254
  22     68.43        2.1158        0.0000        5.5024        5.5024       3.386687       0.02297
  21     81.20        2.1160        0.0000        5.4681        5.4681       3.352163       0.02281
  20     96.49        2.1162        0.0000        5.4277        5.4277       3.311530       0.02243
  19     114.6        2.1165        0.0000        5.3817        5.3817       3.265156       0.02165
  18     136.5        2.1169        0.0000        5.3302        5.3302       3.213343       0.01992
  17     162.9        2.1174        0.0000        5.2729        5.2729       3.155512       0.01848
  16     196.4        2.1180        0.0000        5.2034        5.2035       3.085454       0.01763
  15     218.7        2.1185        0.0000        5.1590        5.1591       3.040619       0.01702
  14     243.0        2.1190        0.0000        5.1090        5.1091       2.990051       0.01754
  13     269.0        2.1197        0.0000        5.0510        5.0511       2.931389       0.01903
  12     297.5        2.1206        0.0000        4.9813        4.9813       2.860782       0.02094
  11     328.5        2.1216        0.0000        4.9038        4.9038       2.782266       0.02135
  10     361.9        2.1228        0.0000        4.8199        4.8200       2.697151       0.02153
   9     398.1        2.1243        0.0001        4.7310        4.7311       2.606783       0.02105
   8     437.6        2.1261        0.0001        4.6377        4.6377       2.511566       0.02036
   7     480.5        2.1284        0.0001        4.5408        4.5408       2.412454       0.01947
   6     533.0        2.1317        0.0001        4.4185        4.4186       2.286895       0.02020
   5     589.8        2.1362        0.0001        4.2664        4.2665       2.130247       0.02325
   4     651.6        2.1432        0.0001        4.0574        4.0575       1.914361       0.02952
   3     718.7        2.1536        0.0001        3.8057        3.8058       1.652177       0.03295
   2     792.3        2.1700        0.0001        3.5511        3.5512       1.381149       0.03108
   1     891.5        2.2037        0.0001        3.3183        3.3183       1.114627       0.02268
   0    1013.0        2.2710        0.0001        3.1623        3.1624       0.891483       0.01549

  Modules and versions used in this calculation:

       rrtmg_sw.1col.f90:  $Revision$                    rrtmg_sw_init.f90:  $Revision$        
     rrtmgsw_cldprop.f90:  $Revision$                  rrtmgsw_cldprmc.f90:  NOT USED          
     rrtmg_sw_reftra.f90:  $Revision$                  rrtmg_sw_spcvrt.f90:  NOT USED          
     rrtmg_sw_spcvmc.f90:  NOT USED                    rrtmgsw_setcoef.f90:  NOT USED          
     rrtmg_sw_taumol.f90:  $Revision$                  rrtmg_sw_vrtqdr.f90:  NOT USED          
                rrtatm.f:  NOT USED                             util_xxx.f:  NOT USED          
                 extra.f:  NOT USED                       rrtmg_sw_k_g.f90:  $Revision$        

