

 Wavenumbers:   820. - 50000. cm-1, ATM      1
 LEVEL PRESSURE   UPWARD FLUX   DIFDOWN FLUX  DIRDOWN FLUX  DOWNWARD FLUX   NET FLUX    HEATING RATE
          mb          W/m2          W/m2          W/m2        W/m2          W/m2       degree/day
  51    .06700      430.2280        0.0000      617.8126      617.8126     187.584573       0.00000
  50    .07753      430.2276        0.0014      617.7950      617.7964     187.568736      12.69374
  49    .09103      430.2272        0.0031      617.7784      617.7815     187.554292       9.02758
  48    0.1069      430.2267        0.0050      617.7592      617.7642     187.537439       8.97103
  47    0.1255      430.2262        0.0073      617.7355      617.7428     187.516546       9.47177
  46    0.1487      430.2257        0.0101      617.7030      617.7131     187.487421      10.61658
  45    0.1794      430.2250        0.0140      617.6550      617.6689     187.443931      11.93907
  44    0.2165      430.2243        0.0185      617.5933      617.6118     187.387473      12.84313
  43    0.2613      430.2237        0.0239      617.5137      617.5377     187.313984      13.85233
  42    0.3336      430.2229        0.0328      617.3708      617.4035     187.180613      15.54973
  41    0.4307      430.2224        0.0445      617.1682      617.2127     186.990280      16.54907
  40    0.5894      430.2225        0.0633      616.8135      616.8769     186.654334      17.86516
  39     1.339      430.2420        0.1486      614.9745      615.1231     184.881081      19.96362
  38     1.782      430.2666        0.1966      614.0061      614.2027     183.936107      17.99077
  37     2.292      430.3070        0.2512      613.0545      613.3057     182.998729      15.52543
  36     2.964      430.3779        0.3222      612.0178      612.3400     181.962148      13.01222
  35     3.853      430.4966        0.4153      610.8768      611.2921     180.795481      11.07188
  34     5.035      430.6789        0.5381      609.6247      610.1628     179.483947       9.36906
  33     6.613      430.9355        0.7012      608.2598      608.9610     178.025496       7.79688
  32     8.786      431.2699        0.9200      606.7636      607.6836     176.413695       6.25965
  31     11.80      431.7031        1.2315      605.0171      606.2486     174.545525       5.23029
  30     15.07      432.1159        1.5640      603.4395      605.0034     172.887563       4.28054
  29     18.79      432.5352        1.9380      601.8737      603.8117     171.276477       3.65283
  28     23.16      432.9710        2.3726      600.2450      602.6176     169.646568       3.15172
  27     28.12      433.4062        2.8674      598.5728      601.4401     168.033960       2.74132
  26     33.73      433.8007        3.4190      596.9131      600.3321     166.531361       2.25920
  25     40.54      434.1697        4.0831      595.1270      599.2101     165.040333       1.84979
  24     48.69      434.5103        4.8800      593.1796      598.0597     163.549338       1.54295
  23     57.69      434.7833        5.7512      591.2283      596.9795     162.196181       1.26838
  22     68.43      434.9987        6.7834      589.0950      595.8784     160.879675       1.03495
  21     81.20      435.1029        8.0072      586.7930      594.8002     159.697263       0.78132
  20     96.49      435.0859        9.4563      584.2733      593.7296     158.643682       0.58150
  19     114.6      435.0045       11.1611      581.4222      592.5832     157.578728       0.49726
  18     136.5      434.8622       13.1574      578.1739      591.3313     156.469059       0.42669
  17     162.9      434.6537       15.5006      574.4421      589.9426     155.288960       0.37721
  16     196.4      434.2929       18.4892      569.8095      588.2986     154.005775       0.32299
  15     218.7      434.0256       20.4218      566.7890      587.2108     153.185213       0.31154
  14     243.0      433.7243       22.4952      563.4274      585.9226     152.198225       0.34232
  13     269.0      433.3875       24.7109      559.6457      584.3566     150.969064       0.39873
  12     297.5      433.0158       27.0699      555.4291      582.4991     149.483254       0.44068
  11     328.5      432.6168       29.5786      550.8306      580.4092     147.792403       0.45974
  10     361.9      432.1929       32.2334      545.7941      578.0275     145.834617       0.49534
   9     398.1      431.7459       35.0392      540.2511      575.2904     143.544456       0.53356
   8     437.6      431.2822       37.9955      534.1541      572.1496     140.867382       0.57238
   7     480.5      430.8066       41.1008      527.5425      568.6433     137.836763       0.59520
   6     533.0      430.2599       44.8366      519.3153      564.1519     133.892007       0.63459
   5     589.8      429.7357       48.7607      510.2007      558.9614     129.225698       0.69263
   4     651.6      429.2896       52.8661      499.7879      552.6540     123.364464       0.80154
   3     718.7      428.9892       57.1452      488.2780      545.4231     116.433917       0.87098
   2     792.3      428.9728       61.5835      475.7043      537.2877     108.314931       0.93116
   1     891.5      429.6887       67.3446      458.8480      526.1926      96.503893       1.00506
   0    1013.0      432.2462       73.9433      439.5348      513.4780      81.231834       1.06042



 Wavenumbers:  2600. -  3250. cm-1, ATM      1
 LEVEL PRESSURE   UPWARD FLUX   DIFDOWN FLUX  DIRDOWN FLUX  DOWNWARD FLUX   NET FLUX    HEATING RATE
          mb          W/m2          W/m2          W/m2        W/m2          W/m2       degree/day
  51    .06700        0.0476        0.0000        5.4450        5.4450       5.397479       0.00000
  50    .07753        0.0476        0.0000        5.4450        5.4450       5.397471       0.00640
  49    .09103        0.0476        0.0000        5.4450        5.4450       5.397461       0.00627
  48    0.1069        0.0476        0.0000        5.4450        5.4450       5.397450       0.00613
  47    0.1255        0.0476        0.0000        5.4450        5.4450       5.397437       0.00599
  46    0.1487        0.0476        0.0000        5.4450        5.4450       5.397420       0.00608
  45    0.1794        0.0476        0.0000        5.4450        5.4450       5.397397       0.00625
  44    0.2165        0.0476        0.0000        5.4449        5.4449       5.397370       0.00612
  43    0.2613        0.0476        0.0000        5.4449        5.4449       5.397339       0.00600
  42    0.3336        0.0476        0.0000        5.4448        5.4448       5.397286       0.00617
  41    0.4307        0.0476        0.0000        5.4448        5.4448       5.397214       0.00620
  40    0.5894        0.0476        0.0000        5.4446        5.4446       5.397095       0.00637
  39     1.339        0.0476        0.0000        5.4439        5.4439       5.396387       0.00797
  38     1.782        0.0476        0.0000        5.4434        5.4434       5.395844       0.01034
  37     2.292        0.0476        0.0000        5.4427        5.4427       5.395128       0.01186
  36     2.964        0.0476        0.0000        5.4416        5.4416       5.394090       0.01304
  35     3.853        0.0476        0.0000        5.4402        5.4402       5.392612       0.01402
  34     5.035        0.0476        0.0000        5.4381        5.4381       5.390557       0.01468
  33     6.613        0.0476        0.0000        5.4353        5.4353       5.387776       0.01487
  32     8.786        0.0476        0.0000        5.4317        5.4317       5.384144       0.01411
  31     11.80        0.0476        0.0000        5.4269        5.4269       5.379364       0.01338
  30     15.07        0.0475        0.0000        5.4224        5.4224       5.374838       0.01169
  29     18.79        0.0475        0.0000        5.4180        5.4180       5.370426       0.01000
  28     23.16        0.0475        0.0000        5.4135        5.4135       5.365941       0.00867
  27     28.12        0.0475        0.0000        5.4088        5.4088       5.361294       0.00790
  26     33.73        0.0475        0.0000        5.4036        5.4036       5.356054       0.00788
  25     40.54        0.0475        0.0000        5.3966        5.3967       5.349114       0.00861
  24     48.69        0.0475        0.0000        5.3872        5.3872       5.339640       0.00980
  23     57.69        0.0475        0.0000        5.3754        5.3754       5.327859       0.01104
  22     68.43        0.0475        0.0000        5.3599        5.3599       5.312376       0.01217
  21     81.20        0.0475        0.0000        5.3401        5.3401       5.292549       0.01310
  20     96.49        0.0475        0.0000        5.3155        5.3155       5.267992       0.01355
  19     114.6        0.0475        0.0000        5.2860        5.2860       5.238511       0.01377
  18     136.5        0.0475        0.0000        5.2518        5.2519       5.204315       0.01315
  17     162.9        0.0475        0.0001        5.2135        5.2135       5.165990       0.01225
  16     196.4        0.0476        0.0001        5.1688        5.1688       5.121290       0.01125
  15     218.7        0.0476        0.0001        5.1423        5.1424       5.094795       0.01006
  14     243.0        0.0476        0.0001        5.1154        5.1155       5.067955       0.00931
  13     269.0        0.0476        0.0001        5.0878        5.0879       5.040303       0.00897
  12     297.5        0.0476        0.0001        5.0584        5.0585       5.010852       0.00873
  11     328.5        0.0477        0.0001        5.0266        5.0267       4.979090       0.00864
  10     361.9        0.0477        0.0001        4.9913        4.9914       4.943674       0.00896
   9     398.1        0.0478        0.0001        4.9511        4.9512       4.903425       0.00938
   8     437.6        0.0479        0.0001        4.9040        4.9042       4.856302       0.01008
   7     480.5        0.0480        0.0002        4.8476        4.8477       4.799740       0.01111
   6     533.0        0.0482        0.0002        4.7682        4.7684       4.720229       0.01279
   5     589.8        0.0484        0.0002        4.6671        4.6673       4.618847       0.01505
   4     651.6        0.0488        0.0002        4.5335        4.5337       4.484897       0.01832
   3     718.7        0.0494        0.0002        4.3653        4.3655       4.316099       0.02121
   2     792.3        0.0502        0.0002        4.1603        4.1605       4.110281       0.02361
   1     891.5        0.0520        0.0002        3.8676        3.8679       3.815901       0.02505
   0    1013.0        0.0554        0.0002        3.5310        3.5313       3.475853       0.02361



 Wavenumbers:  3250. -  4000. cm-1, ATM      1
 LEVEL PRESSURE   UPWARD FLUX   DIFDOWN FLUX  DIRDOWN FLUX  DOWNWARD FLUX   NET FLUX    HEATING RATE
          mb          W/m2          W/m2          W/m2        W/m2          W/m2       degree/day
  51    .06700        0.0151        0.0000        9.1795        9.1795       9.164470       0.00000
  50    .07753        0.0151        0.0000        9.1749        9.1749       9.159790       3.75083
  49    .09103        0.0151        0.0000        9.1716        9.1716       9.156587       2.00190
  48    0.1069        0.0151        0.0000        9.1693        9.1693       9.154256       1.24123
  47    0.1255        0.0151        0.0000        9.1673        9.1673       9.152193       0.93496
  46    0.1487        0.0151        0.0000        9.1650        9.1650       9.149980       0.80679
  45    0.1794        0.0151        0.0000        9.1624        9.1624       9.147376       0.71475
  44    0.2165        0.0151        0.0000        9.1598        9.1598       9.144752       0.59693
  43    0.2613        0.0151        0.0000        9.1572        9.1572       9.142113       0.49746
  42    0.3336        0.0151        0.0000        9.1535        9.1535       9.138481       0.42351
  41    0.4307        0.0151        0.0000        9.1495        9.1495       9.134432       0.35205
  40    0.5894        0.0151        0.0000        9.1436        9.1436       9.128579       0.31124
  39     1.339        0.0151        0.0000        9.1207        9.1207       9.105656       0.25807
  38     1.782        0.0151        0.0000        9.1103        9.1103       9.095233       0.19844
  37     2.292        0.0151        0.0000        9.1002        9.1002       9.085130       0.16733
  36     2.964        0.0151        0.0000        9.0888        9.0888       9.073732       0.14308
  35     3.853        0.0151        0.0000        9.0753        9.0753       9.060273       0.12774
  34     5.035        0.0151        0.0000        9.0585        9.0585       9.043455       0.12014
  33     6.613        0.0151        0.0000        9.0363        9.0363       9.021210       0.11892
  32     8.786        0.0150        0.0000        9.0052        9.0052       8.990150       0.12063
  31     11.80        0.0150        0.0000        8.9585        8.9586       8.943519       0.13055
  30     15.07        0.0150        0.0000        8.9065        8.9065       8.891500       0.13430
  29     18.79        0.0150        0.0000        8.8462        8.8462       8.831178       0.13677
  28     23.16        0.0150        0.0000        8.7757        8.7757       8.760677       0.13633
  27     28.12        0.0150        0.0000        8.6974        8.6974       8.682381       0.13310
  26     33.73        0.0150        0.0000        8.6153        8.6154       8.600352       0.12333
  25     40.54        0.0150        0.0001        8.5254        8.5254       8.510435       0.11155
  24     48.69        0.0150        0.0001        8.4294        8.4295       8.414466       0.09931
  23     57.69        0.0150        0.0001        8.3346        8.3347       8.319718       0.08881
  22     68.43        0.0150        0.0001        8.2290        8.2291       8.214165       0.08298
  21     81.20        0.0150        0.0001        8.1072        8.1073       8.092358       0.08049
  20     96.49        0.0149        0.0001        7.9656        7.9657       7.950810       0.07812
  19     114.6        0.0149        0.0001        7.8040        7.8041       7.789201       0.07546
  18     136.5        0.0149        0.0002        7.6267        7.6269       7.612015       0.06813
  17     162.9        0.0149        0.0002        7.4340        7.4342       7.419326       0.06159
  16     196.4        0.0148        0.0002        7.2052        7.2054       7.190615       0.05757
  15     218.7        0.0148        0.0002        7.0489        7.0492       7.034394       0.05931
  14     243.0        0.0148        0.0003        6.8552        6.8554       6.840676       0.06719
  13     269.0        0.0147        0.0003        6.6027        6.6029       6.588197       0.08190
  12     297.5        0.0147        0.0003        6.3060        6.3063       6.291575       0.08797
  11     328.5        0.0147        0.0003        6.0036        6.0039       5.989199       0.08222
  10     361.9        0.0147        0.0003        5.6907        5.6910       5.676353       0.07915
   9     398.1        0.0147        0.0003        5.3488        5.3491       5.334463       0.07965
   8     437.6        0.0147        0.0004        4.9628        4.9631       4.948436       0.08253
   7     480.5        0.0147        0.0004        4.5442        4.5446       4.529861       0.08221
   6     533.0        0.0148        0.0004        4.0546        4.0549       4.040157       0.07878
   5     589.8        0.0149        0.0003        3.5637        3.5640       3.549145       0.07288
   4     651.6        0.0151        0.0003        3.0538        3.0541       3.038961       0.06977
   3     718.7        0.0156        0.0003        2.5586        2.5589       2.543303       0.06229
   2     792.3        0.0165        0.0003        2.0766        2.0769       2.060322       0.05539
   1     891.5        0.0189        0.0002        1.5207        1.5209       1.501983       0.04751
   0    1013.0        0.0256        0.0002        0.9896        0.9898       0.964139       0.03735



 Wavenumbers:  4000. -  4650. cm-1, ATM      1
 LEVEL PRESSURE   UPWARD FLUX   DIFDOWN FLUX  DIRDOWN FLUX  DOWNWARD FLUX   NET FLUX    HEATING RATE
          mb          W/m2          W/m2          W/m2        W/m2          W/m2       degree/day
  51    .06700        1.5457        0.0000       10.7795       10.7795       9.233800       0.00000
  50    .07753        1.5457        0.0000       10.7795       10.7795       9.233799       0.00083
  49    .09103        1.5457        0.0000       10.7795       10.7795       9.233797       0.00081
  48    0.1069        1.5457        0.0000       10.7795       10.7795       9.233796       0.00079
  47    0.1255        1.5457        0.0000       10.7795       10.7795       9.233794       0.00077
  46    0.1487        1.5457        0.0000       10.7795       10.7795       9.233792       0.00079
  45    0.1794        1.5457        0.0000       10.7795       10.7795       9.233789       0.00081
  44    0.2165        1.5457        0.0000       10.7795       10.7795       9.233786       0.00079
  43    0.2613        1.5457        0.0000       10.7795       10.7795       9.233782       0.00078
  42    0.3336        1.5457        0.0000       10.7795       10.7795       9.233775       0.00080
  41    0.4307        1.5457        0.0000       10.7795       10.7795       9.233765       0.00080
  40    0.5894        1.5457        0.0000       10.7795       10.7795       9.233750       0.00083
  39     1.339        1.5457        0.0000       10.7794       10.7794       9.233657       0.00105
  38     1.782        1.5457        0.0000       10.7793       10.7793       9.233584       0.00138
  37     2.292        1.5457        0.0000       10.7792       10.7792       9.233487       0.00162
  36     2.964        1.5457        0.0000       10.7791       10.7791       9.233341       0.00183
  35     3.853        1.5457        0.0000       10.7788       10.7789       9.233125       0.00205
  34     5.035        1.5457        0.0000       10.7785       10.7785       9.232807       0.00227
  33     6.613        1.5457        0.0000       10.7780       10.7781       9.232338       0.00250
  32     8.786        1.5457        0.0000       10.7773       10.7774       9.231647       0.00269
  31     11.80        1.5457        0.0000       10.7762       10.7763       9.230560       0.00304
  30     15.07        1.5457        0.0001       10.7749       10.7750       9.229286       0.00329
  29     18.79        1.5457        0.0001       10.7734       10.7735       9.227744       0.00350
  28     23.16        1.5457        0.0001       10.7714       10.7715       9.225829       0.00370
  27     28.12        1.5457        0.0001       10.7691       10.7692       9.223510       0.00394
  26     33.73        1.5457        0.0001       10.7662       10.7664       9.220650       0.00430
  25     40.54        1.5457        0.0002       10.7623       10.7625       9.216769       0.00481
  24     48.69        1.5457        0.0002       10.7572       10.7573       9.211596       0.00535
  23     57.69        1.5458        0.0002       10.7510       10.7512       9.205461       0.00575
  22     68.43        1.5458        0.0003       10.7434       10.7436       9.197769       0.00605
  21     81.20        1.5459        0.0003       10.7339       10.7342       9.188295       0.00626
  20     96.49        1.5461        0.0004       10.7225       10.7228       9.176765       0.00636
  19     114.6        1.5462        0.0004       10.7086       10.7091       9.162828       0.00651
  18     136.5        1.5465        0.0005       10.6920       10.6925       9.146039       0.00646
  17     162.9        1.5469        0.0006       10.6720       10.6726       9.125732       0.00649
  16     196.4        1.5474        0.0007       10.6456       10.6463       9.098887       0.00676
  15     218.7        1.5478        0.0008       10.6277       10.6285       9.080663       0.00692
  14     243.0        1.5484        0.0009       10.6073       10.6082       9.059790       0.00724
  13     269.0        1.5491        0.0010       10.5835       10.5845       9.035408       0.00791
  12     297.5        1.5501        0.0011       10.5554       10.5566       9.006513       0.00857
  11     328.5        1.5512        0.0012       10.5227       10.5240       8.972756       0.00918
  10     361.9        1.5527        0.0014       10.4851       10.4864       8.933773       0.00986
   9     398.1        1.5545        0.0015       10.4415       10.4430       8.888497       0.01055
   8     437.6        1.5568        0.0016       10.3904       10.3921       8.835317       0.01137
   7     480.5        1.5596        0.0018       10.3305       10.3323       8.772666       0.01230
   6     533.0        1.5638        0.0020       10.2477       10.2496       8.685884       0.01396
   5     589.8        1.5692        0.0022       10.1438       10.1460       8.576756       0.01620
   4     651.6        1.5768        0.0024       10.0068       10.0092       8.432413       0.01974
   3     718.7        1.5872        0.0026        9.8343        9.8369       8.249732       0.02296
   2     792.3        1.6016        0.0028        9.6268        9.6296       8.027954       0.02544
   1     891.5        1.6294        0.0030        9.3288        9.3318       7.702435       0.02770
   0    1013.0        1.6819        0.0033        8.9486        8.9519       7.269930       0.03003



 Wavenumbers:  4650. -  5150. cm-1, ATM      1
 LEVEL PRESSURE   UPWARD FLUX   DIFDOWN FLUX  DIRDOWN FLUX  DOWNWARD FLUX   NET FLUX    HEATING RATE
          mb          W/m2          W/m2          W/m2        W/m2          W/m2       degree/day
  51    .06700        0.3899        0.0000       10.2033       10.2033       9.813414       0.00000
  50    .07753        0.3899        0.0000       10.2031       10.2031       9.813184       0.18396
  49    .09103        0.3899        0.0000       10.2028       10.2028       9.812897       0.17938
  48    0.1069        0.3899        0.0000       10.2025       10.2025       9.812569       0.17455
  47    0.1255        0.3899        0.0000       10.2021       10.2021       9.812195       0.16965
  46    0.1487        0.3899        0.0000       10.2017       10.2017       9.811727       0.17073
  45    0.1794        0.3899        0.0000       10.2010       10.2010       9.811093       0.17381
  44    0.2165        0.3899        0.0000       10.2003       10.2003       9.810354       0.16825
  43    0.2613        0.3899        0.0000       10.1994       10.1994       9.809492       0.16255
  42    0.3336        0.3899        0.0000       10.1980       10.1980       9.808096       0.16269
  41    0.4307        0.3899        0.0000       10.1962       10.1962       9.806303       0.15590
  40    0.5894        0.3899        0.0000       10.1934       10.1934       9.803503       0.14892
  39     1.339        0.3899        0.0000       10.1821       10.1821       9.792201       0.12724
  38     1.782        0.3899        0.0000       10.1767       10.1767       9.786806       0.10270
  37     2.292        0.3899        0.0000       10.1714       10.1714       9.781480       0.08822
  36     2.964        0.3899        0.0000       10.1656       10.1656       9.775694       0.07263
  35     3.853        0.3899        0.0000       10.1595       10.1595       9.769617       0.05768
  34     5.035        0.3899        0.0000       10.1533       10.1533       9.763410       0.04434
  33     6.613        0.3899        0.0000       10.1469       10.1470       9.757067       0.03391
  32     8.786        0.3899        0.0000       10.1400       10.1400       9.750158       0.02683
  31     11.80        0.3899        0.0001       10.1310       10.1311       9.741227       0.02501
  30     15.07        0.3899        0.0001       10.1212       10.1213       9.731455       0.02523
  29     18.79        0.3898        0.0001       10.1093       10.1094       9.719573       0.02694
  28     23.16        0.3898        0.0001       10.0941       10.0943       9.704429       0.02928
  27     28.12        0.3898        0.0002       10.0752       10.0754       9.685534       0.03212
  26     33.73        0.3898        0.0002       10.0523       10.0525       9.662683       0.03436
  25     40.54        0.3898        0.0002       10.0227       10.0229       9.633095       0.03671
  24     48.69        0.3898        0.0003        9.9848        9.9851       9.595327       0.03908
  23     57.69        0.3898        0.0003        9.9417        9.9420       9.552252       0.04038
  22     68.43        0.3898        0.0004        9.8895        9.8899       9.500086       0.04101
  21     81.20        0.3898        0.0004        9.8277        9.8282       9.438373       0.04078
  20     96.49        0.3898        0.0005        9.7566        9.7572       9.367348       0.03920
  19     114.6        0.3899        0.0006        9.6776        9.6782       9.288356       0.03688
  18     136.5        0.3899        0.0007        9.5922        9.5929       9.203008       0.03282
  17     162.9        0.3901        0.0009        9.5014        9.5022       9.112153       0.02904
  16     196.4        0.3903        0.0010        9.3968        9.3978       9.007528       0.02634
  15     218.7        0.3905        0.0011        9.3330        9.3342       8.943662       0.02425
  14     243.0        0.3908        0.0012        9.2657        9.2669       8.876139       0.02342
  13     269.0        0.3911        0.0014        9.1933        9.1946       8.803564       0.02354
  12     297.5        0.3915        0.0015        9.1139        9.1154       8.723924       0.02362
  11     328.5        0.3920        0.0016        9.0261        9.0277       8.635724       0.02398
  10     361.9        0.3927        0.0018        8.9281        8.9299       8.537271       0.02491
   9     398.1        0.3935        0.0020        8.8185        8.8205       8.426990       0.02569
   8     437.6        0.3945        0.0021        8.6955        8.6977       8.303140       0.02648
   7     480.5        0.3958        0.0023        8.5582        8.5605       8.164621       0.02720
   6     533.0        0.3978        0.0025        8.3811        8.3836       7.985819       0.02876
   5     589.8        0.4004        0.0027        8.1804        8.1831       7.782647       0.03016
   4     651.6        0.4040        0.0029        7.9530        7.9559       7.551930       0.03155
   3     718.7        0.4087        0.0031        7.6999        7.7030       7.294224       0.03239
   2     792.3        0.4153        0.0033        7.4194        7.4227       7.007407       0.03289
   1     891.5        0.4274        0.0035        7.0364        7.0399       6.612518       0.03360
   0    1013.0        0.4486        0.0038        6.5936        6.5973       6.148781       0.03220



 Wavenumbers:  5150. -  6150. cm-1, ATM      1
 LEVEL PRESSURE   UPWARD FLUX   DIFDOWN FLUX  DIRDOWN FLUX  DOWNWARD FLUX   NET FLUX    HEATING RATE
          mb          W/m2          W/m2          W/m2        W/m2          W/m2       degree/day
  51    .06700        3.2313        0.0000       25.5798       25.5798      22.348569       0.00000
  50    .07753        3.2313        0.0000       25.5798       25.5798      22.348565       0.00341
  49    .09103        3.2313        0.0000       25.5798       25.5798      22.348559       0.00346
  48    0.1069        3.2313        0.0000       25.5798       25.5798      22.348553       0.00351
  47    0.1255        3.2313        0.0000       25.5798       25.5798      22.348545       0.00355
  46    0.1487        3.2312        0.0000       25.5798       25.5798      22.348535       0.00374
  45    0.1794        3.2312        0.0000       25.5798       25.5798      22.348520       0.00398
  44    0.2165        3.2312        0.0000       25.5797       25.5798      22.348503       0.00403
  43    0.2613        3.2312        0.0000       25.5797       25.5797      22.348481       0.00409
  42    0.3336        3.2312        0.0000       25.5797       25.5797      22.348444       0.00432
  41    0.4307        3.2312        0.0000       25.5796       25.5796      22.348393       0.00438
  40    0.5894        3.2312        0.0000       25.5795       25.5795      22.348309       0.00450
  39     1.339        3.2312        0.0000       25.5791       25.5791      22.347894       0.00467
  38     1.782        3.2312        0.0000       25.5788       25.5789      22.347646       0.00472
  37     2.292        3.2312        0.0001       25.5785       25.5786      22.347360       0.00474
  36     2.964        3.2312        0.0001       25.5781       25.5782      22.346989       0.00466
  35     3.853        3.2312        0.0001       25.5776       25.5777      22.346505       0.00459
  34     5.035        3.2312        0.0001       25.5769       25.5770      22.345864       0.00458
  33     6.613        3.2312        0.0002       25.5760       25.5762      22.345006       0.00459
  32     8.786        3.2311        0.0002       25.5747       25.5750      22.343848       0.00450
  31     11.80        3.2311        0.0003       25.5730       25.5733      22.342200       0.00462
  30     15.07        3.2311        0.0004       25.5711       25.5715      22.340445       0.00453
  29     18.79        3.2310        0.0005       25.5690       25.5695      22.338494       0.00442
  28     23.16        3.2310        0.0006       25.5666       25.5672      22.336252       0.00434
  27     28.12        3.2310        0.0008       25.5639       25.5647      22.333723       0.00430
  26     33.73        3.2309        0.0009       25.5609       25.5619      22.330933       0.00420
  25     40.54        3.2309        0.0011       25.5574       25.5585      22.327589       0.00415
  24     48.69        3.2309        0.0013       25.5532       25.5545      22.323626       0.00410
  23     57.69        3.2309        0.0016       25.5487       25.5502      22.319304       0.00405
  22     68.43        3.2309        0.0018       25.5433       25.5451      22.314194       0.00402
  21     81.20        3.2310        0.0022       25.5369       25.5391      22.308118       0.00402
  20     96.49        3.2310        0.0026       25.5293       25.5318      22.300808       0.00403
  19     114.6        3.2311        0.0031       25.5200       25.5231      22.291928       0.00415
  18     136.5        3.2313        0.0037       25.5086       25.5123      22.281039       0.00419
  17     162.9        3.2314        0.0044       25.4921       25.4965      22.265072       0.00510
  16     196.4        3.2317        0.0053       25.4581       25.4634      22.231684       0.00840
  15     218.7        3.2319        0.0058       25.4070       25.4128      22.180971       0.01925
  14     243.0        3.2321        0.0065       25.3059       25.3124      22.080298       0.03492
  13     269.0        3.2324        0.0071       25.1460       25.1532      21.920774       0.05175
  12     297.5        3.2328        0.0078       24.9310       24.9388      21.706002       0.06370
  11     328.5        3.2333        0.0085       24.6586       24.6671      21.433843       0.07400
  10     361.9        3.2339        0.0093       24.3091       24.3184      21.084530       0.08838
   9     398.1        3.2347        0.0101       23.8893       23.8994      20.664648       0.09782
   8     437.6        3.2358        0.0109       23.4128       23.4237      20.187870       0.10194
   7     480.5        3.2373        0.0117       22.8933       22.9049      19.667643       0.10217
   6     533.0        3.2397        0.0126       22.2089       22.2215      18.981809       0.11033
   5     589.8        3.2434        0.0135       21.3701       21.3836      18.140250       0.12491
   4     651.6        3.2496        0.0143       20.3215       20.3358      17.086208       0.14414
   3     718.7        3.2601        0.0149       19.1603       19.1752      15.915065       0.14718
   2     792.3        3.2789        0.0155       17.9370       17.9525      14.673603       0.14238
   1     891.5        3.3255        0.0162       16.5122       16.5283      13.202838       0.12516
   0    1013.0        3.4519        0.0171       15.2808       15.2980      11.846034       0.09421



 Wavenumbers:  6150. -  7700. cm-1, ATM      1
 LEVEL PRESSURE   UPWARD FLUX   DIFDOWN FLUX  DIRDOWN FLUX  DOWNWARD FLUX   NET FLUX    HEATING RATE
          mb          W/m2          W/m2          W/m2        W/m2          W/m2       degree/day
  51    .06700        6.1038        0.0000       47.3108       47.3108      41.207092       0.00000
  50    .07753        6.1038        0.0000       47.3108       47.3108      41.207072       0.01635
  49    .09103        6.1037        0.0000       47.3108       47.3108      41.207046       0.01615
  48    0.1069        6.1037        0.0000       47.3108       47.3108      41.207016       0.01594
  47    0.1255        6.1037        0.0000       47.3107       47.3107      41.206982       0.01573
  46    0.1487        6.1037        0.0000       47.3107       47.3107      41.206937       0.01610
  45    0.1794        6.1037        0.0000       47.3106       47.3106      41.206877       0.01671
  44    0.2165        6.1037        0.0000       47.3105       47.3105      41.206804       0.01653
  43    0.2613        6.1037        0.0000       47.3104       47.3104      41.206717       0.01636
  42    0.3336        6.1037        0.0000       47.3103       47.3103      41.206572       0.01688
  41    0.4307        6.1037        0.0000       47.3101       47.3101      41.206379       0.01681
  40    0.5894        6.1037        0.0001       47.3097       47.3098      41.206061       0.01691
  39     1.339        6.1036        0.0001       47.3080       47.3082      41.204548       0.01703
  38     1.782        6.1036        0.0002       47.3071       47.3072      41.203662       0.01689
  37     2.292        6.1035        0.0003       47.3059       47.3062      41.202641       0.01691
  36     2.964        6.1035        0.0003       47.3045       47.3048      41.201311       0.01669
  35     3.853        6.1034        0.0004       47.3025       47.3030      41.199572       0.01651
  34     5.035        6.1033        0.0006       47.3000       47.3006      41.197278       0.01639
  33     6.613        6.1031        0.0008       47.2966       47.2974      41.194233       0.01628
  32     8.786        6.1029        0.0010       47.2921       47.2931      41.190164       0.01580
  31     11.80        6.1026        0.0013       47.2857       47.2870      41.184415       0.01610
  30     15.07        6.1023        0.0017       47.2789       47.2807      41.178336       0.01570
  29     18.79        6.1020        0.0021       47.2714       47.2736      41.171588       0.01530
  28     23.16        6.1016        0.0026       47.2628       47.2654      41.163849       0.01496
  27     28.12        6.1011        0.0032       47.2530       47.2562      41.155167       0.01476
  26     33.73        6.1006        0.0038       47.2424       47.2462      41.145679       0.01427
  25     40.54        6.0999        0.0046       47.2298       47.2344      41.134511       0.01385
  24     48.69        6.0991        0.0055       47.2151       47.2206      41.121468       0.01350
  23     57.69        6.0983        0.0066       47.1993       47.2058      41.107553       0.01304
  22     68.43        6.0973        0.0078       47.1809       47.1887      41.091455       0.01265
  21     81.20        6.0961        0.0092       47.1596       47.1689      41.072818       0.01232
  20     96.49        6.0946        0.0110       47.1348       47.1458      41.051185       0.01194
  19     114.6        6.0929        0.0130       47.1059       47.1189      41.026019       0.01175
  18     136.5        6.0909        0.0155       47.0722       47.0877      40.996800       0.01124
  17     162.9        6.0884        0.0184       47.0303       47.0487      40.960240       0.01169
  16     196.4        6.0853        0.0222       46.9656       46.9878      40.902510       0.01453
  15     218.7        6.0833        0.0246       46.8965       46.9212      40.837866       0.02454
  14     243.0        6.0812        0.0273       46.7717       46.7991      40.717850       0.04163
  13     269.0        6.0791        0.0302       46.5598       46.5899      40.510803       0.06716
  12     297.5        6.0771        0.0332       46.2513       46.2845      40.207401       0.08999
  11     328.5        6.0751        0.0364       45.8723       45.9087      39.833590       0.10164
  10     361.9        6.0733        0.0397       45.3915       45.4312      39.357929       0.12035
   9     398.1        6.0719        0.0432       44.7703       44.8135      38.741541       0.14360
   8     437.6        6.0713        0.0467       43.9897       44.0364      37.965094       0.16601
   7     480.5        6.0718        0.0502       43.0817       43.1320      37.060128       0.17773
   6     533.0        6.0747        0.0544       41.9063       41.9607      35.885955       0.18889
   5     589.8        6.0819        0.0584       40.5234       40.5819      34.499990       0.20572
   4     651.6        6.0979        0.0621       38.7534       38.8154      32.717488       0.24376
   3     718.7        6.1291        0.0652       36.6740       36.7392      30.610130       0.26484
   2     792.3        6.1883        0.0677       34.3653       34.4330      28.244655       0.27129
   1     891.5        6.3380        0.0703       31.4049       31.4752      25.137185       0.26443
   0    1013.0        6.7186        0.0729       28.3957       28.4686      21.750019       0.23519



 Wavenumbers:  7700. -  8050. cm-1, ATM      1
 LEVEL PRESSURE   UPWARD FLUX   DIFDOWN FLUX  DIRDOWN FLUX  DOWNWARD FLUX   NET FLUX    HEATING RATE
          mb          W/m2          W/m2          W/m2        W/m2          W/m2       degree/day
  51    .06700        5.8183        0.0000       11.1810       11.1810       5.362697       0.00000
  50    .07753        5.8183        0.0000       11.1809       11.1809       5.362675       0.01748
  49    .09103        5.8183        0.0000       11.1809       11.1809       5.362648       0.01713
  48    0.1069        5.8183        0.0000       11.1809       11.1809       5.362616       0.01677
  47    0.1255        5.8183        0.0000       11.1809       11.1809       5.362580       0.01641
  46    0.1487        5.8183        0.0000       11.1808       11.1808       5.362534       0.01665
  45    0.1794        5.8183        0.0000       11.1808       11.1808       5.362472       0.01714
  44    0.2165        5.8183        0.0000       11.1807       11.1807       5.362398       0.01681
  43    0.2613        5.8183        0.0000       11.1806       11.1806       5.362310       0.01649
  42    0.3336        5.8184        0.0000       11.1805       11.1805       5.362166       0.01688
  41    0.4307        5.8184        0.0000       11.1803       11.1804       5.361974       0.01669
  40    0.5894        5.8184        0.0000       11.1801       11.1801       5.361660       0.01668
  39     1.339        5.8187        0.0001       11.1788       11.1789       5.360176       0.01670
  38     1.782        5.8189        0.0001       11.1781       11.1782       5.359305       0.01659
  37     2.292        5.8190        0.0001       11.1772       11.1773       5.358296       0.01671
  36     2.964        5.8193        0.0002       11.1761       11.1762       5.356972       0.01663
  35     3.853        5.8196        0.0002       11.1746       11.1748       5.355222       0.01660
  34     5.035        5.8200        0.0003       11.1726       11.1729       5.352899       0.01660
  33     6.613        5.8205        0.0004       11.1699       11.1703       5.349795       0.01659
  32     8.786        5.8212        0.0005       11.1664       11.1668       5.345613       0.01624
  31     11.80        5.8223        0.0006       11.1613       11.1619       5.339635       0.01674
  30     15.07        5.8234        0.0008       11.1558       11.1566       5.333222       0.01656
  29     18.79        5.8247        0.0010       11.1496       11.1507       5.325985       0.01641
  28     23.16        5.8262        0.0013       11.1424       11.1437       5.317542       0.01632
  27     28.12        5.8279        0.0015       11.1342       11.1358       5.307903       0.01639
  26     33.73        5.8298        0.0018       11.1251       11.1269       5.297137       0.01619
  25     40.54        5.8321        0.0022       11.1141       11.1163       5.284159       0.01610
  24     48.69        5.8350        0.0027       11.1009       11.1035       5.268558       0.01614
  23     57.69        5.8381        0.0031       11.0864       11.0896       5.251480       0.01601
  22     68.43        5.8418        0.0037       11.0693       11.0731       5.231221       0.01593
  21     81.20        5.8463        0.0044       11.0491       11.0535       5.207200       0.01587
  20     96.49        5.8518        0.0052       11.0253       11.0305       5.178742       0.01571
  19     114.6        5.8583        0.0062       10.9972       11.0034       5.145182       0.01567
  18     136.5        5.8661        0.0074       10.9644       10.9718       5.105715       0.01518
  17     162.9        5.8755        0.0088       10.9259       10.9346       5.059136       0.01489
  16     196.4        5.8879        0.0105       10.8768       10.8873       4.999373       0.01504
  15     218.7        5.8962        0.0117       10.8450       10.8567       4.960482       0.01477
  14     243.0        5.9054        0.0130       10.8109       10.8239       4.918499       0.01456
  13     269.0        5.9155        0.0143       10.7745       10.7888       4.873314       0.01466
  12     297.5        5.9266        0.0158       10.7356       10.7514       4.824802       0.01439
  11     328.5        5.9388        0.0174       10.6941       10.7115       4.772707       0.01416
  10     361.9        5.9522        0.0192       10.6500       10.6692       4.716930       0.01411
   9     398.1        5.9670        0.0210       10.6032       10.6242       4.657200       0.01392
   8     437.6        5.9833        0.0230       10.5535       10.5765       4.593287       0.01367
   7     480.5        6.0012        0.0251       10.5010       10.5261       4.524942       0.01342
   6     533.0        6.0239        0.0278       10.4370       10.4648       4.440842       0.01353
   5     589.8        6.0494        0.0306       10.3687       10.3993       4.349901       0.01350
   4     651.6        6.0781        0.0336       10.2956       10.3293       4.251126       0.01351
   3     718.7        6.1107        0.0369       10.2172       10.2541       4.143448       0.01353
   2     792.3        6.1478        0.0403       10.1326       10.1729       4.025124       0.01357
   1     891.5        6.2024        0.0450       10.0162       10.0612       3.858832       0.01415
   0    1013.0        6.2749        0.0506        9.8727        9.9233       3.648454       0.01461



 Wavenumbers:  8050. - 12850. cm-1, ATM      1
 LEVEL PRESSURE   UPWARD FLUX   DIFDOWN FLUX  DIRDOWN FLUX  DOWNWARD FLUX   NET FLUX    HEATING RATE
          mb          W/m2          W/m2          W/m2        W/m2          W/m2       degree/day
  51    .06700      118.6613        0.0000      156.5418      156.5418      37.880459       0.00000
  50    .07753      118.6613        0.0000      156.5417      156.5417      37.880459      -0.00000
  49    .09103      118.6613        0.0001      156.5417      156.5417      37.880459       0.00000
  48    0.1069      118.6613        0.0001      156.5416      156.5417      37.880459      -0.00000
  47    0.1255      118.6612        0.0002      156.5415      156.5417      37.880459       0.00000
  46    0.1487      118.6612        0.0002      156.5414      156.5417      37.880459       0.00000
  45    0.1794      118.6612        0.0003      156.5413      156.5416      37.880459      -0.00000
  44    0.2165      118.6612        0.0005      156.5412      156.5416      37.880459       0.00000
  43    0.2613      118.6611        0.0006      156.5410      156.5416      37.880459      -0.00000
  42    0.3336      118.6610        0.0008      156.5407      156.5415      37.880459       0.00000
  41    0.4307      118.6610        0.0011      156.5403      156.5414      37.880459       0.00000
  40    0.5894      118.6608        0.0016      156.5397      156.5413      37.880459      -0.00000
  39     1.339      118.6601        0.0038      156.5367      156.5406      37.880459       0.00000
  38     1.782      118.6597        0.0052      156.5350      156.5402      37.880459       0.00000
  37     2.292      118.6592        0.0067      156.5330      156.5397      37.880459       0.00000
  36     2.964      118.6586        0.0087      156.5303      156.5391      37.880459       0.00000
  35     3.853      118.6578        0.0114      156.5268      156.5383      37.880459      -0.00000
  34     5.035      118.6567        0.0150      156.5222      156.5372      37.880459       0.00000
  33     6.613      118.6553        0.0197      156.5160      156.5357      37.880459      -0.00000
  32     8.786      118.6533        0.0262      156.5076      156.5338      37.880459       0.00000
  31     11.80      118.6505        0.0353      156.4957      156.5310      37.880459      -0.00000
  30     15.07      118.6475        0.0452      156.4828      156.5280      37.880459       0.00000
  29     18.79      118.6441        0.0564      156.4682      156.5246      37.880459      -0.00000
  28     23.16      118.6402        0.0694      156.4512      156.5206      37.880459       0.00000
  27     28.12      118.6356        0.0844      156.4317      156.5161      37.880459       0.00000
  26     33.73      118.6305        0.1011      156.4099      156.5110      37.880459       0.00000
  25     40.54      118.6243        0.1214      156.3834      156.5048      37.880459      -0.00000
  24     48.69      118.6169        0.1458      156.3515      156.4974      37.880459       0.00000
  23     57.69      118.6087        0.1727      156.3164      156.4892      37.880459      -0.00000
  22     68.43      118.5989        0.2048      156.2746      156.4794      37.880459       0.00000
  21     81.20      118.5873        0.2431      156.2246      156.4677      37.880459       0.00000
  20     96.49      118.5733        0.2889      156.1649      156.4538      37.880459      -0.00000
  19     114.6      118.5568        0.3432      156.0934      156.4366      37.879806       0.00030
  18     136.5      118.5371        0.4079      156.0083      156.4161      37.878992       0.00031
  17     162.9      118.5137        0.4850      155.9063      156.3913      37.877635       0.00043
  16     196.4      118.4832        0.5853      155.7721      156.3574      37.874112       0.00089
  15     218.7      118.4633        0.6513      155.6793      156.3307      37.867330       0.00257
  14     243.0      118.4420        0.7233      155.5691      156.2924      37.850361       0.00589
  13     269.0      118.4197        0.8014      155.4307      156.2321      37.812360       0.01233
  12     297.5      118.3972        0.8859      155.2500      156.1359      37.738719       0.02184
  11     328.5      118.3747        0.9775      155.0236      156.0010      37.626323       0.03056
  10     361.9      118.3534        1.0762      154.7439      155.8201      37.466707       0.04038
   9     398.1      118.3348        1.1827      154.3994      155.5821      37.247347       0.05111
   8     437.6      118.3218        1.2971      153.9760      155.2731      36.951324       0.06329
   7     480.5      118.3178        1.4199      153.4678      154.8877      36.569929       0.07490
   6     533.0      118.3312        1.5712      152.7657      154.3369      36.005647       0.09077
   5     589.8      118.3790        1.7341      151.8833      153.6174      35.238416       0.11388
   4     651.6      118.4990        1.9080      150.6840      152.5920      34.092982       0.15664
   3     718.7      118.7381        2.0927      149.0941      151.1867      32.448613       0.20665
   2     792.3      119.1943        2.2863      146.9860      149.2723      30.077988       0.27188
   1     891.5      120.3097        2.5392      143.5424      146.0815      25.771861       0.36643
   0    1013.0      122.8108        2.8307      138.8775      141.7081      18.897301       0.47734



 Wavenumbers: 12850. - 16000. cm-1, ATM      1
 LEVEL PRESSURE   UPWARD FLUX   DIFDOWN FLUX  DIRDOWN FLUX  DOWNWARD FLUX   NET FLUX    HEATING RATE
          mb          W/m2          W/m2          W/m2        W/m2          W/m2       degree/day
  51    .06700       85.0700        0.0000       98.0872       98.0872      13.017242       0.00000
  50    .07753       85.0700        0.0001       98.0864       98.0864      13.016447       0.63693
  49    .09103       85.0700        0.0002       98.0853       98.0855      13.015448       0.62419
  48    0.1069       85.0700        0.0003       98.0841       98.0843      13.014300       0.61125
  47    0.1255       85.0700        0.0004       98.0826       98.0830      13.012980       0.59866
  46    0.1487       85.0701        0.0005       98.0809       98.0814      13.011311       0.60812
  45    0.1794       85.0702        0.0008       98.0784       98.0792      13.009039       0.62372
  44    0.2165       85.0703        0.0010       98.0756       98.0766      13.006363       0.60875
  43    0.2613       85.0704        0.0013       98.0723       98.0736      13.003212       0.59408
  42    0.3336       85.0707        0.0018       98.0670       98.0688      12.998058       0.60084
  41    0.4307       85.0712        0.0024       98.0602       98.0626      12.991380       0.58068
  40    0.5894       85.0722        0.0035       98.0496       98.0531      12.980823       0.56140
  39     1.339       85.0803        0.0084       98.0043       98.0128      12.932448       0.54462
  38     1.782       85.0876        0.0113       97.9793       97.9906      12.903055       0.55958
  37     2.292       85.0983        0.0147       97.9498       97.9645      12.866208       0.61029
  36     2.964       85.1159        0.0191       97.9088       97.9280      12.812042       0.67995
  35     3.853       85.1442        0.0250       97.8503       97.8753      12.731102       0.76813
  34     5.035       85.1868        0.0328       97.7680       97.8007      12.613973       0.83672
  33     6.613       85.2461        0.0431       97.6562       97.6993      12.453184       0.85958
  32     8.786       85.3235        0.0571       97.5107       97.5678      12.244295       0.81125
  31     11.80       85.4243        0.0770       97.3179       97.3949      11.970577       0.76632
  30     15.07       85.5212        0.0984       97.1283       97.2268      11.705557       0.68423
  29     18.79       85.6204        0.1226       96.9300       97.0526      11.432203       0.61978
  28     23.16       85.7245        0.1508       96.7166       96.8674      11.142892       0.55943
  27     28.12       85.8297        0.1830       96.4935       96.6765      10.846851       0.50325
  26     33.73       85.9276        0.2191       96.2731       96.4922      10.564565       0.42442
  25     40.54       86.0231        0.2627       96.0408       96.3035      10.280350       0.35260
  24     48.69       86.1160        0.3152       95.7946       96.1098       9.993775       0.29656
  23     57.69       86.1967        0.3730       95.5573       95.9303       9.733592       0.24388
  22     68.43       86.2696        0.4418       95.3106       95.7524       9.482896       0.19708
  21     81.20       86.3246        0.5239       95.0644       95.5883       9.263759       0.14480
  20     96.49       86.3607        0.6220       94.8153       95.4372       9.076507       0.10335
  19     114.6       86.3982        0.7392       94.5412       95.2804       8.882211       0.09072
  18     136.5       86.4309        0.8783       94.2324       95.1107       8.679797       0.07783
  17     162.9       86.4593        1.0439       93.8760       94.9198       8.460585       0.07007
  16     196.4       86.4733        1.2587       93.4358       94.6945       8.221165       0.06026
  15     218.7       86.4745        1.3997       93.1534       94.5531       8.078623       0.05412
  14     243.0       86.4725        1.5531       92.8484       94.4014       7.928926       0.05192
  13     269.0       86.4669        1.7192       92.5208       94.2400       7.773114       0.05054
  12     297.5       86.4580        1.8988       92.1697       94.0685       7.610576       0.04821
  11     328.5       86.4476        2.0929       91.7921       93.8850       7.437387       0.04709
  10     361.9       86.4363        2.3018       91.3873       93.6891       7.252852       0.04669
   9     398.1       86.4245        2.5268       90.9543       93.4811       7.056570       0.04573
   8     437.6       86.4135        2.7684       90.4907       93.2591       6.845628       0.04510
   7     480.5       86.4040        3.0275       89.9955       93.0229       6.618868       0.04453
   6     533.0       86.3975        3.3465       89.3856       92.7321       6.334608       0.04573
   5     589.8       86.3992        3.6906       88.7249       92.4155       6.016335       0.04724
   4     651.6       86.4164        4.0607       88.0034       92.0641       5.647658       0.05042
   3     718.7       86.4577        4.4576       87.2136       91.6712       5.213498       0.05456
   2     792.3       86.5388        4.8815       86.3440       91.2255       4.686683       0.06042
   1     891.5       86.7313        5.4507       85.1249       90.5756       3.844293       0.07168
   0    1013.0       87.1202        6.1292       83.6073       89.7365       2.616282       0.08527



 Wavenumbers: 16000. - 22650. cm-1, ATM      1
 LEVEL PRESSURE   UPWARD FLUX   DIFDOWN FLUX  DIRDOWN FLUX  DOWNWARD FLUX   NET FLUX    HEATING RATE
          mb          W/m2          W/m2          W/m2        W/m2          W/m2       degree/day
  51    .06700      141.8598        0.0000      156.3892      156.3892      14.529426       0.00000
  50    .07753      141.8598        0.0004      156.3887      156.3891      14.529277       0.11910
  49    .09103      141.8598        0.0009      156.3879      156.3888      14.529061       0.13509
  48    0.1069      141.8598        0.0015      156.3871      156.3885      14.528772       0.15405
  47    0.1255      141.8598        0.0021      156.3861      156.3882      14.528384       0.17559
  46    0.1487      141.8599        0.0030      156.3847      156.3877      14.527813       0.20807
  45    0.1794      141.8600        0.0041      156.3828      156.3869      14.526921       0.24499
  44    0.2165      141.8602        0.0054      156.3805      156.3859      14.525711       0.27534
  43    0.2613      141.8606        0.0070      156.3776      156.3847      14.524068       0.30955
  42    0.3336      141.8614        0.0097      156.3726      156.3823      14.520946       0.36403
  41    0.4307      141.8626        0.0132      156.3657      156.3789      14.516240       0.40920
  40    0.5894      141.8653        0.0189      156.3537      156.3726      14.507264       0.47732
  39     1.339      141.8884        0.0459      156.2834      156.3293      14.440950       0.74658
  38     1.782      141.9097        0.0618      156.2324      156.2941      14.384458       1.07551
  37     2.292      141.9416        0.0801      156.1641      156.2442      14.302686       1.35437
  36     2.964      141.9945        0.1042      156.0605      156.1647      14.170212       1.66294
  35     3.853      142.0801        0.1361      155.9041      156.0401      13.960007       1.99489
  34     5.035      142.2093        0.1783      155.6774      155.8557      13.646392       2.24033
  33     6.613      142.3897        0.2346      155.3656      155.6003      13.210550       2.33001
  32     8.786      142.6247        0.3105      154.9577      155.2681      12.643405       2.20259
  31     11.80      142.9307        0.4188      154.4153      154.8341      11.903401       2.07178
  30     15.07      143.2238        0.5350      153.8804      154.4153      11.191511       1.83796
  29     18.79      143.5232        0.6660      153.3191      153.9851      10.461860       1.65434
  28     23.16      143.8362        0.8188      152.7126      153.5313       9.695151       1.48257
  27     28.12      144.1512        0.9932      152.0755      153.0687       8.917545       1.32188
  26     33.73      144.4421        1.1883      151.4409      152.6292       8.187107       1.09823
  25     40.54      144.7223        1.4237      150.7637      152.1874       7.465138       0.89568
  24     48.69      144.9908        1.7073      150.0339      151.7412       6.750345       0.73970
  23     57.69      145.2188        2.0184      149.3151      151.3336       6.114793       0.59573
  22     68.43      145.4180        2.3886      148.5476      150.9362       5.518151       0.46904
  21     81.20      145.5564        2.8293      147.7517      150.5810       5.024568       0.32615
  20     96.49      145.6294        3.3539      146.9127      150.2666       4.637215       0.21379
  19     114.6      145.6682        3.9750      145.9763      149.9514       4.283182       0.16531
  18     136.5      145.6824        4.7085      144.9088      149.6173       3.934902       0.13392
  17     162.9      145.6704        5.5778      143.6786      149.2564       3.586035       0.11151
  16     196.4      145.5924        6.6995      142.1652      148.8647       3.272335       0.07896
  15     218.7      145.5182        7.4325      141.2037      148.6362       3.117958       0.05861
  14     243.0      145.4270        8.2259      140.1760      148.4019       2.974923       0.04961
  13     269.0      145.3170        9.0818      139.0813      148.1630       2.846010       0.04182
  12     297.5      145.1874       10.0022      137.9174      147.9196       2.732129       0.03378
  11     328.5      145.0423       10.9914      136.6736      147.6650       2.622792       0.02973
  10     361.9      144.8811       12.0504      135.3493      147.3997       2.518645       0.02635
   9     398.1      144.7030       13.1832      133.9395      147.1227       2.419636       0.02307
   8     437.6      144.5087       14.3918      132.4409      146.8326       2.323930       0.02046
   7     480.5      144.2971       15.6782      130.8515      146.5297       2.232568       0.01794
   6     533.0      144.0338       17.2493      128.9166      146.1659       2.132097       0.01616
   5     589.8      143.7488       18.9278      126.8541      145.7819       2.033093       0.01470
   4     651.6      143.4432       20.7151      124.6609      145.3761       1.932878       0.01370
   3     718.7      143.1174       22.6131      122.3339      144.9470       1.829614       0.01298
   2     792.3      142.7737       24.6202      119.8728      144.4930       1.719324       0.01265
   1     891.5      142.3224       27.2873      116.5973      143.8846       1.562254       0.01337
   0    1013.0      141.8015       30.4264      112.7326      143.1590       1.357515       0.01422



 Wavenumbers: 22650. - 29000. cm-1, ATM      1
 LEVEL PRESSURE   UPWARD FLUX   DIFDOWN FLUX  DIRDOWN FLUX  DOWNWARD FLUX   NET FLUX    HEATING RATE
          mb          W/m2          W/m2          W/m2        W/m2          W/m2       degree/day
  51    .06700       58.6820        0.0000       59.0156       59.0156       0.333635       0.00000
  50    .07753       58.6819        0.0005       59.0151       59.0155       0.333635       0.00000
  49    .09103       58.6818        0.0010       59.0144       59.0154       0.333635      -0.00000
  48    0.1069       58.6816        0.0017       59.0136       59.0153       0.333635      -0.00000
  47    0.1255       58.6815        0.0025       59.0127       59.0151       0.333635       0.00000
  46    0.1487       58.6813        0.0035       59.0115       59.0149       0.333635      -0.00000
  45    0.1794       58.6811        0.0048       59.0099       59.0147       0.333635       0.00000
  44    0.2165       58.6808        0.0063       59.0080       59.0144       0.333635      -0.00000
  43    0.2613       58.6804        0.0082       59.0058       59.0140       0.333635       0.00000
  42    0.3336       58.6798        0.0113       59.0022       59.0134       0.333635       0.00000
  41    0.4307       58.6790        0.0154       58.9973       59.0127       0.333635      -0.00000
  40    0.5894       58.6777        0.0220       58.9894       59.0114       0.333635       0.00000
  39     1.339       58.6717        0.0535       58.9518       59.0053       0.333635       0.00000
  38     1.782       58.6681        0.0720       58.9297       59.0017       0.333635       0.00000
  37     2.292       58.6640        0.0934       58.9042       58.9976       0.333635       0.00000
  36     2.964       58.6586        0.1216       58.8706       58.9922       0.333635      -0.00000
  35     3.853       58.6514        0.1587       58.8264       58.9851       0.333635      -0.00000
  34     5.035       58.6419        0.2080       58.7676       58.9756       0.333635       0.00000
  33     6.613       58.6293        0.2738       58.6891       58.9629       0.333635      -0.00000
  32     8.786       58.6122        0.3624       58.5834       58.9458       0.333635      -0.00000
  31     11.80       58.5878        0.4890       58.4325       58.9215       0.333635       0.00000
  30     15.07       58.5617        0.6247       58.2706       58.8953       0.333635       0.00000
  29     18.79       58.5323        0.7776       58.0882       58.8659       0.333635      -0.00000
  28     23.16       58.4979        0.9559       57.8757       58.8316       0.333635      -0.00000
  27     28.12       58.4588        1.1591       57.6333       58.7924       0.333635       0.00000
  26     33.73       58.4152        1.3857       57.3631       58.7488       0.333635       0.00000
  25     40.54       58.3626        1.6584       57.0379       58.6963       0.333635      -0.00000
  24     48.69       58.2996        1.9854       56.6479       58.6333       0.333635      -0.00000
  23     57.69       58.2309        2.3424       56.2221       58.5645       0.333635       0.00000
  22     68.43       58.1495        2.7646       55.7186       58.4832       0.333635      -0.00000
  21     81.20       58.0534        3.2632       55.1239       58.3871       0.333635       0.00000
  20     96.49       57.9401        3.8510       54.4228       58.2738       0.333635      -0.00000
  19     114.6       57.8073        4.5400       53.6010       58.1410       0.333635       0.00000
  18     136.5       57.6522        5.3441       52.6418       57.9859       0.333635       0.00000
  17     162.9       57.4709        6.2842       51.5204       57.8045       0.333635      -0.00000
  16     196.4       57.2410        7.4752       50.0995       57.5747       0.333635      -0.00000
  15     218.7       57.0933        8.2406       49.1863       57.4269       0.333635       0.00000
  14     243.0       56.9354        9.0577       48.2114       57.2691       0.333635       0.00000
  13     269.0       56.7676        9.9261       47.1752       57.1013       0.333635       0.00000
  12     297.5       56.5900       10.8449       46.0787       56.9237       0.333635       0.00000
  11     328.5       56.4023       11.8156       44.9204       56.7359       0.333635      -0.00000
  10     361.9       56.2049       12.8354       43.7032       56.5386       0.333635       0.00000
   9     398.1       55.9979       13.9044       42.4271       56.3316       0.333635      -0.00000
   8     437.6       55.7817       15.0205       41.0948       56.1153       0.333635       0.00000
   7     480.5       55.5566       16.1811       39.7091       55.8903       0.333635       0.00000
   6     533.0       55.2889       17.5605       38.0620       55.6225       0.333635       0.00000
   5     589.8       55.0114       18.9890       36.3559       55.3450       0.333635       0.00000
   4     651.6       54.7251       20.4604       34.5983       55.0587       0.333635       0.00000
   3     718.7       54.4314       21.9679       32.7972       54.7651       0.333635       0.00000
   2     792.3       54.1318       23.5033       30.9622       54.4655       0.333635      -0.00000
   1     891.5       53.7516       25.4481       28.6371       54.0852       0.333635      -0.00000
   0    1013.0       53.3279       27.6085       26.0530       53.6615       0.333635       0.00000



 Wavenumbers: 29000. - 38000. cm-1, ATM      1
 LEVEL PRESSURE   UPWARD FLUX   DIFDOWN FLUX  DIRDOWN FLUX  DOWNWARD FLUX   NET FLUX    HEATING RATE
          mb          W/m2          W/m2          W/m2        W/m2          W/m2       degree/day
  51    .06700        8.7676        0.0000       20.8114       20.8114      12.043770       0.00000
  50    .07753        8.7674        0.0003       20.8070       20.8074      12.039963       3.05155
  49    .09103        8.7672        0.0007       20.8009       20.8016      12.034426       3.46085
  48    0.1069        8.7669        0.0012       20.7928       20.7939      12.027016       3.94429
  47    0.1255        8.7666        0.0017       20.7820       20.7837      12.017111       4.49034
  46    0.1487        8.7663        0.0024       20.7665       20.7688      12.002548       5.30844
  45    0.1794        8.7658        0.0033       20.7424       20.7457      11.979883       6.22204
  44    0.2165        8.7653        0.0044       20.7103       20.7147      11.949360       6.94340
  43    0.2613        8.7647        0.0056       20.6675       20.6731      11.908366       7.72732
  42    0.3336        8.7638        0.0077       20.5880       20.5957      11.831805       8.92625
  41    0.4307        8.7628        0.0104       20.4722       20.4826      11.719852       9.73402
  40    0.5894        8.7612        0.0147       20.2637       20.2784      11.517169      10.77846
  39     1.339        8.7578        0.0331       19.0984       19.1315      10.373692      12.87347
  38     1.782        8.7583        0.0427       18.4394       18.4821       9.723767      12.37351
  37     2.292        8.7610        0.0530       17.7714       17.8244       9.063423      10.93703
  36     2.964        8.7675        0.0657       17.0421       17.1078       8.340299       9.07739
  35     3.853        8.7804        0.0816       16.2679       16.3495       7.569120       7.31863
  34     5.035        8.8015        0.1018       15.4803       15.5821       6.780627       5.63267
  33     6.613        8.8322        0.1276       14.7157       14.8433       6.011045       4.11418
  32     8.786        8.8728        0.1614       13.9936       14.1549       5.282099       2.83096
  31     11.80        8.9258        0.2084       13.2835       13.4920       4.566141       2.00446
  30     15.07        8.9769        0.2573       12.7394       12.9966       4.019671       1.41088
  29     18.79        9.0297        0.3114       12.2666       12.5780       3.548229       1.06890
  28     23.16        9.0858        0.3729       11.8300       12.2029       3.117094       0.83368
  27     28.12        9.1433        0.4418       11.4279       11.8697       2.726404       0.66415
  26     33.73        9.1963        0.5178       11.0695       11.5872       2.390899       0.50444
  25     40.54        9.2467        0.6085       10.7209       11.3294       2.082733       0.38232
  24     48.69        9.2942        0.7162       10.3742       11.0904       1.796176       0.29654
  23     57.69        9.3332        0.8328       10.0549       10.8877       1.554414       0.22662
  22     68.43        9.3648        0.9695        9.7327       10.7022       1.337374       0.17062
  21     81.20        9.3800        1.1309        9.4134       10.5443       1.164304       0.11436
  20     96.49        9.3769        1.3207        9.0887       10.4094       1.032557       0.07272
  19     114.6        9.3635        1.5400        8.7388       10.2788       0.915284       0.05476
  18     136.5        9.3428        1.7907        8.3549       10.1456       0.802756       0.04327
  17     162.9        9.3151        2.0765        7.9311       10.0076       0.692577       0.03522
  16     196.4        9.2682        2.4305        7.4333        9.8638       0.595596       0.02441
  15     218.7        9.2345        2.6532        7.1296        9.7828       0.548296       0.01796
  14     243.0        9.1975        2.8860        6.8161        9.7021       0.504618       0.01515
  13     269.0        9.1570        3.1280        6.4944        9.6224       0.465398       0.01272
  12     297.5        9.1132        3.3782        6.1659        9.5441       0.430824       0.01025
  11     328.5        9.0675        3.6356        5.8296        9.4652       0.397721       0.00900
  10     361.9        9.0204        3.8977        5.4889        9.3866       0.366237       0.00797
   9     398.1        8.9719        4.1639        5.1443        9.3083       0.336400       0.00695
   8     437.6        8.9226        4.4328        4.7973        9.2302       0.307638       0.00615
   7     480.5        8.8728        4.7024        4.4507        9.1531       0.280332       0.00536
   6     533.0        8.8158        5.0092        4.0571        9.0663       0.250571       0.00479
   5     589.8        8.7598        5.3112        3.6703        8.9815       0.221753       0.00428
   4     651.6        8.7054        5.6061        3.2928        8.8990       0.193552       0.00386
   3     718.7        8.6535        5.8907        2.9287        8.8194       0.165932       0.00347
   2     792.3        8.6047        6.1620        2.5815        8.7436       0.138891       0.00310
   1     891.5        8.5489        6.4808        2.1737        8.6544       0.105500       0.00284
   0    1013.0        8.4959        6.8003        1.7642        8.5645       0.068616       0.00256



 Wavenumbers: 38000. - 50000. cm-1, ATM      1
 LEVEL PRESSURE   UPWARD FLUX   DIFDOWN FLUX  DIRDOWN FLUX  DOWNWARD FLUX   NET FLUX    HEATING RATE
          mb          W/m2          W/m2          W/m2        W/m2          W/m2       degree/day
  51    .06700        0.0061        0.0000        1.2836        1.2836       1.277518       0.00000
  50    .07753        0.0061        0.0001        1.2812        1.2812       1.275183       1.87150
  49    .09103        0.0060        0.0002        1.2777        1.2778       1.271851       2.08247
  48    0.1069        0.0059        0.0002        1.2731        1.2734       1.267473       2.33059
  47    0.1255        0.0058        0.0004        1.2672        1.2675       1.261717       2.60908
  46    0.1487        0.0057        0.0005        1.2586        1.2591       1.253391       3.03499
  45    0.1794        0.0055        0.0007        1.2455        1.2462       1.240623       3.50520
  44    0.2165        0.0054        0.0009        1.2282        1.2291       1.223697       3.85037
  43    0.2613        0.0052        0.0011        1.2054        1.2065       1.201348       4.21261
  42    0.3336        0.0049        0.0015        1.1639        1.1654       1.160524       4.75970
  41    0.4307        0.0045        0.0020        1.1051        1.1070       1.102565       5.03943
  40    0.5894        0.0039        0.0026        1.0039        1.0064       1.002524       5.32007
  39     1.339        0.0022        0.0035        0.5438        0.5473       0.545105       5.14971
  38     1.782        0.0016        0.0032        0.3635        0.3666       0.365006       3.42879
  37     2.292        0.0012        0.0027        0.2356        0.2383       0.237058       2.11916
  36     2.964        0.0009        0.0022        0.1455        0.1477       0.146786       1.13318
  35     3.853        0.0006        0.0017        0.0858        0.0875       0.086906       0.56828
  34     5.035        0.0004        0.0013        0.0488        0.0501       0.049701       0.26578
  33     6.613        0.0003        0.0010        0.0273        0.0282       0.027974       0.11615
  32     8.786        0.0002        0.0007        0.0144        0.0151       0.014928       0.05067
  31     11.80        0.0001        0.0004        0.0065        0.0070       0.006903       0.02247
  30     15.07        0.0000        0.0003        0.0031        0.0034       0.003329       0.00923
  29     18.79        0.0000        0.0002        0.0014        0.0016       0.001583       0.00396
  28     23.16        0.0000        0.0001        0.0006        0.0007       0.000720       0.00167
  27     28.12        0.0000        0.0001        0.0003        0.0003       0.000317       0.00069
  26     33.73        0.0000        0.0000        0.0001        0.0001       0.000140       0.00027
  25     40.54        0.0000        0.0000        0.0000        0.0001       0.000057       0.00010
  24     48.69        0.0000        0.0000        0.0000        0.0000       0.000021       0.00004
  23     57.69        0.0000        0.0000        0.0000        0.0000       0.000008       0.00001
  22     68.43        0.0000        0.0000        0.0000        0.0000       0.000003       0.00000
  21     81.20        0.0000        0.0000        0.0000        0.0000       0.000001       0.00000
  20     96.49        0.0000        0.0000        0.0000        0.0000       0.000000       0.00000
  19     114.6        0.0000        0.0000        0.0000        0.0000       0.000000       0.00000
  18     136.5        0.0000        0.0000        0.0000        0.0000       0.000000       0.00000
  17     162.9        0.0000        0.0000        0.0000        0.0000       0.000000       0.00000
  16     196.4        0.0000        0.0000        0.0000        0.0000       0.000000       0.00000
  15     218.7        0.0000        0.0000        0.0000        0.0000       0.000000       0.00000
  14     243.0        0.0000        0.0000        0.0000        0.0000       0.000000       0.00000
  13     269.0        0.0000        0.0000        0.0000        0.0000       0.000000       0.00000
  12     297.5        0.0000        0.0000        0.0000        0.0000       0.000000       0.00000
  11     328.5        0.0000        0.0000        0.0000        0.0000       0.000000       0.00000
  10     361.9        0.0000        0.0000        0.0000        0.0000       0.000000       0.00000
   9     398.1        0.0000        0.0000        0.0000        0.0000       0.000000       0.00000
   8     437.6        0.0000        0.0000        0.0000        0.0000       0.000000       0.00000
   7     480.5        0.0000        0.0000        0.0000        0.0000       0.000000       0.00000
   6     533.0        0.0000        0.0000        0.0000        0.0000       0.000000       0.00000
   5     589.8        0.0000        0.0000        0.0000        0.0000       0.000000       0.00000
   4     651.6        0.0000        0.0000        0.0000        0.0000       0.000000       0.00000
   3     718.7        0.0000        0.0000        0.0000        0.0000       0.000000       0.00000
   2     792.3        0.0000        0.0000        0.0000        0.0000       0.000000       0.00000
   1     891.5        0.0000        0.0000        0.0000        0.0000       0.000000       0.00000
   0    1013.0        0.0000        0.0000        0.0000        0.0000       0.000000       0.00000



 Wavenumbers:   820. -  2600. cm-1, ATM      1
 LEVEL PRESSURE   UPWARD FLUX   DIFDOWN FLUX  DIRDOWN FLUX  DOWNWARD FLUX   NET FLUX    HEATING RATE
          mb          W/m2          W/m2          W/m2        W/m2          W/m2       degree/day
  51    .06700        0.0296        0.0000        6.0047        6.0047       5.975002       0.00000
  50    .07753        0.0296        0.0000        6.0009        6.0009       5.971215       3.03539
  49    .09103        0.0296        0.0000        6.0001        6.0001       5.970415       0.49990
  48    0.1069        0.0296        0.0000        5.9992        5.9992       5.969529       0.47194
  47    0.1255        0.0296        0.0000        5.9982        5.9982       5.968534       0.45102
  46    0.1487        0.0296        0.0000        5.9970        5.9970       5.967338       0.43607
  45    0.1794        0.0296        0.0000        5.9955        5.9955       5.965845       0.40969
  44    0.2165        0.0296        0.0000        5.9939        5.9939       5.964281       0.35582
  43    0.2613        0.0296        0.0000        5.9923        5.9923       5.962663       0.30504
  42    0.3336        0.0296        0.0000        5.9900        5.9900       5.960367       0.26767
  41    0.4307        0.0296        0.0000        5.9873        5.9873       5.957688       0.23290
  40    0.5894        0.0296        0.0000        5.9832        5.9832       5.953505       0.22248
  39     1.339        0.0296        0.0000        5.9639        5.9639       5.934273       0.21652
  38     1.782        0.0296        0.0000        5.9533        5.9533       5.923645       0.20233
  37     2.292        0.0296        0.0000        5.9414        5.9414       5.911738       0.19721
  36     2.964        0.0296        0.0000        5.9262        5.9262       5.896586       0.19021
  35     3.853        0.0296        0.0000        5.9070        5.9070       5.877326       0.18278
  34     5.035        0.0296        0.0000        5.8825        5.8825       5.852891       0.17455
  33     6.613        0.0296        0.0000        5.8509        5.8509       5.821224       0.16929
  32     8.786        0.0296        0.0000        5.8088        5.8088       5.779148       0.16340
  31     11.80        0.0296        0.0000        5.7531        5.7531       5.723489       0.15583
  30     15.07        0.0296        0.0000        5.7040        5.7040       5.674320       0.12695
  29     18.79        0.0296        0.0000        5.6632        5.6632       5.633519       0.09251
  28     23.16        0.0296        0.0000        5.6317        5.6317       5.602097       0.06076
  27     28.12        0.0296        0.0000        5.6089        5.6089       5.579236       0.03886
  26     33.73        0.0296        0.0000        5.5907        5.5907       5.561068       0.02732
  25     40.54        0.0296        0.0000        5.5719        5.5719       5.542290       0.02330
  24     48.69        0.0296        0.0000        5.5499        5.5499       5.520245       0.02281
  23     57.69        0.0296        0.0000        5.5253        5.5253       5.495652       0.02305
  22     68.43        0.0296        0.0000        5.4955        5.4955       5.465890       0.02340
  21     81.20        0.0296        0.0000        5.4605        5.4605       5.430825       0.02317
  20     96.49        0.0296        0.0000        5.4193        5.4193       5.389660       0.02272
  19     114.6        0.0297        0.0000        5.3722        5.3722       5.342585       0.02198
  18     136.5        0.0297        0.0000        5.3197        5.3197       5.290045       0.02020
  17     162.9        0.0297        0.0000        5.2605        5.2605       5.230844       0.01892
  16     196.4        0.0297        0.0000        5.1867        5.1867       5.157045       0.01858
  15     218.7        0.0297        0.0000        5.1362        5.1362       5.106537       0.01918
  14     243.0        0.0297        0.0000        5.0742        5.0742       5.044555       0.02150
  13     269.0        0.0297        0.0000        4.9958        4.9959       4.966185       0.02542
  12     297.5        0.0297        0.0000        4.8960        4.8960       4.866301       0.02962
  11     328.5        0.0297        0.0000        4.7873        4.7873       4.757638       0.02955
  10     361.9        0.0297        0.0000        4.6758        4.6758       4.646081       0.02822
   9     398.1        0.0297        0.0000        4.5638        4.5638       4.534105       0.02609
   8     437.6        0.0298        0.0000        4.4455        4.4456       4.415780       0.02530
   7     480.5        0.0298        0.0000        4.3116        4.3116       4.281829       0.02631
   6     533.0        0.0299        0.0000        4.1246        4.1246       4.094756       0.03009
   5     589.8        0.0299        0.0001        3.8948        3.8949       3.864930       0.03411
   4     651.6        0.0301        0.0001        3.6308        3.6308       3.600736       0.03613
   3     718.7        0.0303        0.0001        3.4008        3.4009       3.370624       0.02892
   2     792.3        0.0306        0.0001        3.2396        3.2397       3.209064       0.01853
   1     891.5        0.0313        0.0001        3.0859        3.0860       3.054658       0.01314
   0    1013.0        0.0329        0.0001        2.8881        2.8882       2.855275       0.01384

  Modules and versions used in this calculation:

       rrtmg_sw.1col.f90:  $Revision$                    rrtmg_sw_init.f90:  $Revision$        
     rrtmgsw_cldprop.f90:  $Revision$                  rrtmgsw_cldprmc.f90:  NOT USED          
     rrtmg_sw_reftra.f90:  $Revision$                  rrtmg_sw_spcvrt.f90:  NOT USED          
     rrtmg_sw_spcvmc.f90:  NOT USED                    rrtmgsw_setcoef.f90:  NOT USED          
     rrtmg_sw_taumol.f90:  $Revision$                  rrtmg_sw_vrtqdr.f90:  NOT USED          
                rrtatm.f:  NOT USED                             util_xxx.f:  NOT USED          
                 extra.f:  NOT USED                       rrtmg_sw_k_g.f90:  $Revision$        

