

 Wavenumbers:   820. - 50000. cm-1, ATM      1
 LEVEL PRESSURE   UPWARD FLUX   DIFDOWN FLUX  DIRDOWN FLUX  DOWNWARD FLUX   NET FLUX    HEATING RATE
          mb          W/m2          W/m2          W/m2        W/m2          W/m2       degree/day
  51    .06700      392.9186        0.0000      617.8126      617.8126     224.893976       0.00000
  50    .07753      392.9182        0.0013      617.7947      617.7961     224.877831      12.93990
  49    .09103      392.9178        0.0030      617.7778      617.7808     224.863012       9.26247
  48    0.1069      392.9173        0.0050      617.7580      617.7630     224.845741       9.19345
  47    0.1255      392.9168        0.0072      617.7339      617.7412     224.824387       9.68107
  46    0.1487      392.9162        0.0100      617.7008      617.7109     224.794690      10.82470
  45    0.1794      392.9155        0.0139      617.6520      617.6659     224.750446      12.14616
  44    0.2165      392.9147        0.0184      617.5894      617.6078     224.693109      13.04317
  43    0.2613      392.9140        0.0238      617.5088      617.5326     224.618576      14.04904
  42    0.3336      392.9131        0.0326      617.3639      617.3966     224.483459      15.75331
  41    0.4307      392.9124        0.0443      617.1589      617.2032     224.290796      16.75165
  40    0.5894      392.9122        0.0630      616.8002      616.8632     223.951037      18.06794
  39     1.339      392.9292        0.1479      614.9435      615.0915     222.162225      20.13877
  38     1.782      392.9518        0.1957      613.9661      614.1618     221.209920      18.13035
  37     2.292      392.9894        0.2501      613.0047      613.2547     220.265316      15.64511
  36     2.964      393.0560        0.3207      611.9562      612.2769     219.220942      13.11005
  35     3.853      393.1678        0.4134      610.8006      611.2140     218.046208      11.14844
  34     5.035      393.3398        0.5356      609.5305      610.0662     216.726332       9.42865
  33     6.613      393.5822        0.6979      608.1438      608.8416     215.259433       7.84205
  32     8.786      393.8979        0.9156      606.6218      607.5374     213.639432       6.29150
  31     11.80      394.3066        1.2256      604.8447      606.0703     211.763649       5.25160
  30     15.07      394.6954        1.5563      603.2394      604.7958     210.100337       4.29435
  29     18.79      395.0899        1.9285      601.6459      603.5744     208.484503       3.66359
  28     23.16      395.4993        2.3609      599.9869      602.3478     206.848539       3.16343
  27     28.12      395.9071        2.8532      598.2816      601.1348     205.227689       2.75534
  26     33.73      396.2753        3.4019      596.5879      599.9898     203.714580       2.27500
  25     40.54      396.6173        4.0626      594.7648      598.8274     202.210029       1.86657
  24     48.69      396.9302        4.8553      592.7781      597.6334     200.703259       1.55927
  23     57.69      397.1772        5.7219      590.7868      596.5087     199.331510       1.28581
  22     68.43      397.3665        6.7486      588.6093      595.3578     197.991360       1.05354
  21     81.20      397.4463        7.9658      586.2585      594.2243     196.777989       0.80178
  20     96.49      397.4062        9.4070      583.6846      593.0915     195.685367       0.60305
  19     114.6      397.3065       11.1027      580.7579      591.8606     194.554140       0.52820
  18     136.5      397.1431       13.0882      577.4216      590.5098     193.366702       0.45660
  17     162.9      396.9097       15.4184      573.5459      588.9643     192.054652       0.41938
  16     196.4      396.5178       18.3901      568.5682      586.9583     190.440552       0.40629
  15     218.7      396.2303       20.3115      565.0265      585.3381     189.107728       0.50602
  14     243.0      395.9073       22.3724      560.7020      583.0744     187.167064       0.67309
  13     269.0      395.5477       24.5742      555.3189      579.8931     184.345429       0.91533
  12     297.5      395.1529       26.9176      548.8905      575.8081     180.655269       1.09446
  11     328.5      394.7308       29.4091      541.9542      571.3633     176.632467       1.09379
  10     361.9      394.2847       32.0448      534.4541      566.4989     172.214211       1.11786
   9     398.1      393.8182       34.8294      526.2120      561.0415     167.223271       1.16278
   8     437.6      393.3408       37.7616      517.1471      554.9087     161.567911       1.20915
   7     480.5      392.8609       40.8396      507.4462      548.2858     155.424823       1.20648
   6     533.0      392.3289       44.5403      495.5845      540.1248     147.795897       1.22725
   5     589.8      391.8586       48.4242      482.7202      531.1444     139.285808       1.26318
   4     651.6      391.5539       52.4789      468.2911      520.7700     129.216114       1.37706
   3     718.7      391.5262       56.6959      452.7887      509.4846     117.958359       1.41479
   2     792.3      392.0446       61.0544      436.0003      497.0547     105.010089       1.48502
   1     891.5      394.1349       66.6861      413.3611      480.0472      85.912281       1.62513
   0    1013.0      400.0455       73.0943      387.7761      460.8704      60.824918       1.74194



 Wavenumbers:  2600. -  3250. cm-1, ATM      1
 LEVEL PRESSURE   UPWARD FLUX   DIFDOWN FLUX  DIRDOWN FLUX  DOWNWARD FLUX   NET FLUX    HEATING RATE
          mb          W/m2          W/m2          W/m2        W/m2          W/m2       degree/day
  51    .06700        0.0241        0.0000        5.4450        5.4450       5.420898       0.00000
  50    .07753        0.0241        0.0000        5.4450        5.4450       5.420890       0.00640
  49    .09103        0.0241        0.0000        5.4450        5.4450       5.420880       0.00627
  48    0.1069        0.0241        0.0000        5.4450        5.4450       5.420869       0.00613
  47    0.1255        0.0241        0.0000        5.4450        5.4450       5.420855       0.00599
  46    0.1487        0.0241        0.0000        5.4450        5.4450       5.420839       0.00608
  45    0.1794        0.0241        0.0000        5.4450        5.4450       5.420816       0.00625
  44    0.2165        0.0241        0.0000        5.4449        5.4449       5.420789       0.00612
  43    0.2613        0.0241        0.0000        5.4449        5.4449       5.420757       0.00600
  42    0.3336        0.0241        0.0000        5.4448        5.4448       5.420704       0.00617
  41    0.4307        0.0241        0.0000        5.4448        5.4448       5.420633       0.00620
  40    0.5894        0.0241        0.0000        5.4446        5.4446       5.420513       0.00637
  39     1.339        0.0241        0.0000        5.4439        5.4439       5.419806       0.00797
  38     1.782        0.0241        0.0000        5.4434        5.4434       5.419263       0.01034
  37     2.292        0.0241        0.0000        5.4427        5.4427       5.418547       0.01186
  36     2.964        0.0241        0.0000        5.4416        5.4416       5.417508       0.01304
  35     3.853        0.0241        0.0000        5.4402        5.4402       5.416031       0.01402
  34     5.035        0.0241        0.0000        5.4381        5.4381       5.413976       0.01468
  33     6.613        0.0241        0.0000        5.4353        5.4353       5.411195       0.01487
  32     8.786        0.0241        0.0000        5.4317        5.4317       5.407563       0.01411
  31     11.80        0.0241        0.0000        5.4269        5.4269       5.402783       0.01338
  30     15.07        0.0241        0.0000        5.4224        5.4224       5.398257       0.01169
  29     18.79        0.0241        0.0000        5.4180        5.4180       5.393845       0.01000
  28     23.16        0.0241        0.0000        5.4135        5.4135       5.389360       0.00867
  27     28.12        0.0241        0.0000        5.4088        5.4088       5.384713       0.00790
  26     33.73        0.0241        0.0000        5.4036        5.4036       5.379475       0.00788
  25     40.54        0.0241        0.0000        5.3966        5.3967       5.372535       0.00861
  24     48.69        0.0241        0.0000        5.3872        5.3872       5.363062       0.00980
  23     57.69        0.0241        0.0000        5.3754        5.3754       5.351283       0.01104
  22     68.43        0.0241        0.0000        5.3599        5.3599       5.335802       0.01217
  21     81.20        0.0241        0.0000        5.3401        5.3401       5.315979       0.01310
  20     96.49        0.0241        0.0000        5.3155        5.3155       5.291426       0.01355
  19     114.6        0.0241        0.0000        5.2853        5.2853       5.261242       0.01409
  18     136.5        0.0241        0.0000        5.2504        5.2504       5.226353       0.01342
  17     162.9        0.0241        0.0001        5.2110        5.2111       5.186981       0.01258
  16     196.4        0.0241        0.0001        5.1639        5.1640       5.139925       0.01184
  15     218.7        0.0241        0.0001        5.1329        5.1330       5.108878       0.01179
  14     243.0        0.0241        0.0001        5.0958        5.0959       5.071813       0.01286
  13     269.0        0.0241        0.0001        5.0504        5.0505       5.026410       0.01473
  12     297.5        0.0241        0.0001        4.9945        4.9946       4.970493       0.01658
  11     328.5        0.0241        0.0001        4.9286        4.9287       4.904611       0.01791
  10     361.9        0.0241        0.0001        4.8485        4.8486       4.824472       0.02028
   9     398.1        0.0242        0.0001        4.7468        4.7469       4.722775       0.02369
   8     437.6        0.0242        0.0001        4.6166        4.6168       4.592542       0.02784
   7     480.5        0.0243        0.0001        4.4556        4.4557       4.431411       0.03165
   6     533.0        0.0244        0.0002        4.2373        4.2375       4.213078       0.03512
   5     589.8        0.0246        0.0002        3.9850        3.9852       3.960572       0.03748
   4     651.6        0.0249        0.0002        3.6977        3.6979       3.672975       0.03933
   3     718.7        0.0254        0.0002        3.3894        3.3896       3.364190       0.03881
   2     792.3        0.0262        0.0002        3.0418        3.0420       3.015751       0.03996
   1     891.5        0.0281        0.0002        2.5661        2.5663       2.538203       0.04064
   0    1013.0        0.0325        0.0001        2.0674        2.0676       2.035112       0.03493



 Wavenumbers:  3250. -  4000. cm-1, ATM      1
 LEVEL PRESSURE   UPWARD FLUX   DIFDOWN FLUX  DIRDOWN FLUX  DOWNWARD FLUX   NET FLUX    HEATING RATE
          mb          W/m2          W/m2          W/m2        W/m2          W/m2       degree/day
  51    .06700        0.0005        0.0000        9.1795        9.1795       9.179066       0.00000
  50    .07753        0.0005        0.0000        9.1747        9.1747       9.174222       3.88298
  49    .09103        0.0005        0.0000        9.1713        9.1713       9.170827       2.12156
  48    0.1069        0.0005        0.0000        9.1688        9.1688       9.168296       1.34720
  47    0.1255        0.0005        0.0000        9.1665        9.1665       9.166032       1.02671
  46    0.1487        0.0005        0.0000        9.1640        9.1640       9.163585       0.89187
  45    0.1794        0.0005        0.0000        9.1612        9.1612       9.160701       0.79171
  44    0.2165        0.0005        0.0000        9.1582        9.1582       9.157774       0.66580
  43    0.2613        0.0005        0.0000        9.1553        9.1553       9.154792       0.56206
  42    0.3336        0.0005        0.0000        9.1511        9.1511       9.150600       0.48885
  41    0.4307        0.0005        0.0000        9.1463        9.1463       9.145815       0.41602
  40    0.5894        0.0005        0.0000        9.1392        9.1392       9.138779       0.37417
  39     1.339        0.0005        0.0000        9.1125        9.1125       9.112081       0.30057
  38     1.782        0.0005        0.0000        9.1009        9.1009       9.100463       0.22119
  37     2.292        0.0005        0.0000        9.0898        9.0898       9.089369       0.18375
  36     2.964        0.0005        0.0000        9.0774        9.0774       9.076912       0.15637
  35     3.853        0.0005        0.0000        9.0625        9.0626       9.062091       0.14065
  34     5.035        0.0005        0.0000        9.0438        9.0438       9.043303       0.13422
  33     6.613        0.0005        0.0000        9.0187        9.0187       9.018236       0.13401
  32     8.786        0.0005        0.0000        8.9838        8.9838       8.983329       0.13557
  31     11.80        0.0004        0.0000        8.9320        8.9321       8.931616       0.14478
  30     15.07        0.0004        0.0000        8.8751        8.8751       8.874691       0.14697
  29     18.79        0.0004        0.0000        8.8101        8.8102       8.809712       0.14733
  28     23.16        0.0004        0.0000        8.7356        8.7356       8.735172       0.14414
  27     28.12        0.0004        0.0000        8.6544        8.6544       8.654014       0.13796
  26     33.73        0.0004        0.0000        8.5708        8.5709       8.570462       0.12562
  25     40.54        0.0004        0.0001        8.4800        8.4800       8.479638       0.11268
  24     48.69        0.0004        0.0001        8.3827        8.3828       8.382415       0.10061
  23     57.69        0.0004        0.0001        8.2849        8.2850       8.284563       0.09172
  22     68.43        0.0004        0.0001        8.1737        8.1738       8.173421       0.08737
  21     81.20        0.0004        0.0001        8.0441        8.0443       8.043893       0.08559
  20     96.49        0.0003        0.0001        7.8931        7.8933       7.892926       0.08332
  19     114.6        0.0003        0.0001        7.7140        7.7141       7.713776       0.08365
  18     136.5        0.0003        0.0002        7.5167        7.5169       7.516577       0.07583
  17     162.9        0.0003        0.0002        7.2880        7.2882       7.287968       0.07307
  16     196.4        0.0002        0.0002        6.9606        6.9609       6.960626       0.08240
  15     218.7        0.0002        0.0002        6.6577        6.6579       6.657736       0.11500
  14     243.0        0.0002        0.0002        6.2521        6.2524       6.252200       0.14065
  13     269.0        0.0002        0.0003        5.7445        5.7448       5.744594       0.16466
  12     297.5        0.0001        0.0003        5.1551        5.1554       5.155217       0.17480
  11     328.5        0.0001        0.0002        4.5554        4.5557       4.555563       0.16304
  10     361.9        0.0001        0.0002        3.9782        3.9785       3.978372       0.14604
   9     398.1        0.0001        0.0002        3.4444        3.4446       3.444524       0.12437
   8     437.6        0.0001        0.0002        2.9540        2.9542       2.954124       0.10485
   7     480.5        0.0001        0.0002        2.5113        2.5115       2.511457       0.08694
   6     533.0        0.0000        0.0002        2.0425        2.0426       2.042597       0.07542
   5     589.8        0.0000        0.0002        1.5963        1.5964       1.596386       0.06623
   4     651.6        0.0000        0.0001        1.1385        1.1386       1.138626       0.06260
   3     718.7        0.0000        0.0001        0.7239        0.7239       0.723936       0.05212
   2     792.3        0.0000        0.0001        0.3865        0.3865       0.386539       0.03870
   1     891.5        0.0000        0.0000        0.1075        0.1075       0.107455       0.02375
   0    1013.0        0.0002        0.0000        0.0083        0.0083       0.008124       0.00690



 Wavenumbers:  4000. -  4650. cm-1, ATM      1
 LEVEL PRESSURE   UPWARD FLUX   DIFDOWN FLUX  DIRDOWN FLUX  DOWNWARD FLUX   NET FLUX    HEATING RATE
          mb          W/m2          W/m2          W/m2        W/m2          W/m2       degree/day
  51    .06700        1.1629        0.0000       10.7795       10.7795       9.616597       0.00000
  50    .07753        1.1629        0.0000       10.7795       10.7795       9.616596       0.00080
  49    .09103        1.1629        0.0000       10.7795       10.7795       9.616595       0.00078
  48    0.1069        1.1629        0.0000       10.7795       10.7795       9.616593       0.00076
  47    0.1255        1.1629        0.0000       10.7795       10.7795       9.616591       0.00075
  46    0.1487        1.1629        0.0000       10.7795       10.7795       9.616589       0.00076
  45    0.1794        1.1629        0.0000       10.7795       10.7795       9.616587       0.00078
  44    0.2165        1.1629        0.0000       10.7795       10.7795       9.616583       0.00076
  43    0.2613        1.1629        0.0000       10.7795       10.7795       9.616579       0.00075
  42    0.3336        1.1629        0.0000       10.7795       10.7795       9.616573       0.00077
  41    0.4307        1.1629        0.0000       10.7795       10.7795       9.616564       0.00077
  40    0.5894        1.1629        0.0000       10.7795       10.7795       9.616549       0.00079
  39     1.339        1.1629        0.0000       10.7794       10.7794       9.616460       0.00101
  38     1.782        1.1629        0.0000       10.7793       10.7793       9.616390       0.00133
  37     2.292        1.1629        0.0000       10.7792       10.7792       9.616296       0.00156
  36     2.964        1.1629        0.0000       10.7791       10.7791       9.616156       0.00176
  35     3.853        1.1629        0.0000       10.7789       10.7789       9.615948       0.00197
  34     5.035        1.1629        0.0000       10.7786       10.7786       9.615641       0.00219
  33     6.613        1.1629        0.0000       10.7781       10.7781       9.615190       0.00241
  32     8.786        1.1629        0.0000       10.7774       10.7774       9.614524       0.00259
  31     11.80        1.1629        0.0000       10.7763       10.7764       9.613478       0.00293
  30     15.07        1.1629        0.0001       10.7751       10.7752       9.612252       0.00317
  29     18.79        1.1629        0.0001       10.7736       10.7737       9.610769       0.00336
  28     23.16        1.1629        0.0001       10.7717       10.7718       9.608930       0.00356
  27     28.12        1.1629        0.0001       10.7695       10.7696       9.606704       0.00378
  26     33.73        1.1628        0.0001       10.7667       10.7668       9.603961       0.00412
  25     40.54        1.1628        0.0002       10.7629       10.7631       9.600243       0.00461
  24     48.69        1.1628        0.0002       10.7579       10.7581       9.595294       0.00512
  23     57.69        1.1628        0.0002       10.7520       10.7522       9.589433       0.00549
  22     68.43        1.1628        0.0003       10.7446       10.7449       9.582096       0.00577
  21     81.20        1.1628        0.0003       10.7355       10.7358       9.573075       0.00596
  20     96.49        1.1627        0.0004       10.7245       10.7249       9.562116       0.00605
  19     114.6        1.1627        0.0004       10.7107       10.7112       9.548430       0.00639
  18     136.5        1.1627        0.0005       10.6942       10.6947       9.531972       0.00633
  17     162.9        1.1627        0.0006       10.6740       10.6746       9.511858       0.00643
  16     196.4        1.1628        0.0007       10.6463       10.6470       9.484210       0.00696
  15     218.7        1.1629        0.0008       10.6253       10.6261       9.463216       0.00797
  14     243.0        1.1631        0.0009       10.5978       10.5987       9.435575       0.00959
  13     269.0        1.1634        0.0010       10.5606       10.5616       9.398160       0.01214
  12     297.5        1.1639        0.0011       10.5110       10.5121       9.348240       0.01481
  11     328.5        1.1646        0.0012       10.4484       10.4496       9.285036       0.01718
  10     361.9        1.1655        0.0013       10.3677       10.3690       9.203561       0.02061
   9     398.1        1.1666        0.0014       10.2642       10.2656       9.098974       0.02437
   8     437.6        1.1681        0.0016       10.1341       10.1357       8.967606       0.02809
   7     480.5        1.1699        0.0017        9.9817        9.9834       8.813499       0.03027
   6     533.0        1.1727        0.0018        9.7869        9.7887       8.616072       0.03176
   5     589.8        1.1765        0.0020        9.5673        9.5693       8.392761       0.03315
   4     651.6        1.1824        0.0022        9.2849        9.2870       8.104574       0.03941
   3     718.7        1.1917        0.0023        8.9117        8.9139       7.722273       0.04804
   2     792.3        1.2070        0.0024        8.4347        8.4371       7.230105       0.05645
   1     891.5        1.2424        0.0025        7.7723        7.7748       6.532388       0.05937
   0    1013.0        1.3251        0.0026        7.0499        7.0525       5.727408       0.05589



 Wavenumbers:  4650. -  5150. cm-1, ATM      1
 LEVEL PRESSURE   UPWARD FLUX   DIFDOWN FLUX  DIRDOWN FLUX  DOWNWARD FLUX   NET FLUX    HEATING RATE
          mb          W/m2          W/m2          W/m2        W/m2          W/m2       degree/day
  51    .06700        0.2997        0.0000       10.2033       10.2033       9.903682       0.00000
  50    .07753        0.2997        0.0000       10.2031       10.2031       9.903446       0.18904
  49    .09103        0.2997        0.0000       10.2028       10.2028       9.903151       0.18431
  48    0.1069        0.2997        0.0000       10.2025       10.2025       9.902814       0.17933
  47    0.1255        0.2997        0.0000       10.2021       10.2021       9.902430       0.17428
  46    0.1487        0.2997        0.0000       10.2016       10.2016       9.901949       0.17538
  45    0.1794        0.2997        0.0000       10.2010       10.2010       9.901298       0.17853
  44    0.2165        0.2997        0.0000       10.2002       10.2002       9.900539       0.17279
  43    0.2613        0.2997        0.0000       10.1993       10.1993       9.899653       0.16692
  42    0.3336        0.2997        0.0000       10.1979       10.1979       9.898221       0.16704
  41    0.4307        0.2997        0.0000       10.1960       10.1960       9.896380       0.16004
  40    0.5894        0.2997        0.0000       10.1932       10.1932       9.893506       0.15285
  39     1.339        0.2997        0.0000       10.1816       10.1816       9.881913       0.13051
  38     1.782        0.2997        0.0000       10.1760       10.1760       9.876384       0.10527
  37     2.292        0.2996        0.0000       10.1706       10.1706       9.870927       0.09038
  36     2.964        0.2996        0.0000       10.1646       10.1646       9.865004       0.07435
  35     3.853        0.2996        0.0000       10.1584       10.1584       9.858790       0.05897
  34     5.035        0.2996        0.0000       10.1521       10.1521       9.852456       0.04525
  33     6.613        0.2996        0.0000       10.1456       10.1456       9.846001       0.03451
  32     8.786        0.2996        0.0000       10.1386       10.1386       9.838995       0.02721
  31     11.80        0.2996        0.0001       10.1295       10.1296       9.829963       0.02529
  30     15.07        0.2996        0.0001       10.1196       10.1197       9.820096       0.02547
  29     18.79        0.2996        0.0001       10.1076       10.1077       9.808105       0.02719
  28     23.16        0.2995        0.0001       10.0922       10.0924       9.792823       0.02955
  27     28.12        0.2995        0.0002       10.0731       10.0733       9.773759       0.03241
  26     33.73        0.2995        0.0002       10.0500       10.0502       9.750705       0.03466
  25     40.54        0.2995        0.0002       10.0201       10.0203       9.720857       0.03703
  24     48.69        0.2994        0.0003        9.9819        9.9822       9.682763       0.03942
  23     57.69        0.2994        0.0003        9.9384        9.9387       9.639322       0.04072
  22     68.43        0.2994        0.0004        9.8857        9.8861       9.586723       0.04135
  21     81.20        0.2993        0.0004        9.8234        9.8238       9.524514       0.04111
  20     96.49        0.2993        0.0005        9.7517        9.7522       9.452946       0.03950
  19     114.6        0.2993        0.0006        9.6719        9.6725       9.373232       0.03722
  18     136.5        0.2992        0.0007        9.5857        9.5865       9.287252       0.03306
  17     162.9        0.2992        0.0008        9.4940        9.4948       9.195650       0.02928
  16     196.4        0.2992        0.0010        9.3882        9.3892       9.090050       0.02658
  15     218.7        0.2992        0.0011        9.3228        9.3239       9.024761       0.02479
  14     243.0        0.2992        0.0012        9.2518        9.2530       8.953822       0.02460
  13     269.0        0.2993        0.0014        9.1713        9.1726       8.873356       0.02610
  12     297.5        0.2994        0.0015        9.0755        9.0770       8.777557       0.02841
  11     328.5        0.2996        0.0016        8.9640        8.9656       8.666022       0.03033
  10     361.9        0.2999        0.0018        8.8333        8.8351       8.535171       0.03311
   9     398.1        0.3004        0.0019        8.6798        8.6817       8.381373       0.03583
   8     437.6        0.3010        0.0021        8.4996        8.5017       8.200684       0.03863
   7     480.5        0.3018        0.0022        8.2907        8.2929       7.991093       0.04116
   6     533.0        0.3031        0.0024        8.0150        8.0174       7.714254       0.04453
   5     589.8        0.3049        0.0025        7.6984        7.7009       7.395970       0.04724
   4     651.6        0.3077        0.0027        7.3316        7.3343       7.026602       0.05051
   3     718.7        0.3119        0.0028        6.9270        6.9298       6.617945       0.05136
   2     792.3        0.3183        0.0029        6.4935        6.4964       6.178095       0.05045
   1     891.5        0.3319        0.0030        5.9197        5.9227       5.590813       0.04997
   0    1013.0        0.3596        0.0030        5.2853        5.2883       4.928758       0.04597



 Wavenumbers:  5150. -  6150. cm-1, ATM      1
 LEVEL PRESSURE   UPWARD FLUX   DIFDOWN FLUX  DIRDOWN FLUX  DOWNWARD FLUX   NET FLUX    HEATING RATE
          mb          W/m2          W/m2          W/m2        W/m2          W/m2       degree/day
  51    .06700        2.5242        0.0000       25.5798       25.5798      23.055621       0.00000
  50    .07753        2.5242        0.0000       25.5798       25.5798      23.055581       0.03228
  49    .09103        2.5242        0.0000       25.5797       25.5797      23.055529       0.03278
  48    0.1069        2.5242        0.0000       25.5797       25.5797      23.055466       0.03330
  47    0.1255        2.5242        0.0000       25.5796       25.5796      23.055392       0.03381
  46    0.1487        2.5242        0.0000       25.5795       25.5795      23.055294       0.03562
  45    0.1794        2.5242        0.0000       25.5793       25.5794      23.055156       0.03791
  44    0.2165        2.5242        0.0000       25.5792       25.5792      23.054987       0.03849
  43    0.2613        2.5242        0.0000       25.5790       25.5790      23.054779       0.03908
  42    0.3336        2.5242        0.0000       25.5786       25.5786      23.054425       0.04129
  41    0.4307        2.5242        0.0000       25.5781       25.5781      23.053944       0.04184
  40    0.5894        2.5242        0.0000       25.5773       25.5773      23.053138       0.04287
  39     1.339        2.5242        0.0000       25.5734       25.5734      23.049255       0.04371
  38     1.782        2.5242        0.0000       25.5711       25.5712      23.046996       0.04301
  37     2.292        2.5242        0.0001       25.5685       25.5686      23.044441       0.04232
  36     2.964        2.5241        0.0001       25.5653       25.5653      23.041196       0.04073
  35     3.853        2.5241        0.0001       25.5611       25.5612      23.037074       0.03911
  34     5.035        2.5241        0.0001       25.5557       25.5559      23.031770       0.03789
  33     6.613        2.5241        0.0002       25.5488       25.5490      23.024895       0.03675
  32     8.786        2.5240        0.0002       25.5398       25.5400      23.015996       0.03456
  31     11.80        2.5240        0.0003       25.5276       25.5280      23.003976       0.03365
  30     15.07        2.5239        0.0004       25.5155       25.5159      22.991943       0.03107
  29     18.79        2.5239        0.0005       25.5027       25.5032      22.979385       0.02847
  28     23.16        2.5238        0.0006       25.4891       25.4897      22.965880       0.02611
  27     28.12        2.5237        0.0007       25.4747       25.4754      22.951694       0.02412
  26     33.73        2.5236        0.0009       25.4600       25.4609      22.937307       0.02163
  25     40.54        2.5235        0.0011       25.4441       25.4452      22.921661       0.01941
  24     48.69        2.5234        0.0013       25.4271       25.4283      22.904941       0.01730
  23     57.69        2.5233        0.0015       25.4102       25.4117      22.888406       0.01550
  22     68.43        2.5232        0.0018       25.3919       25.3937      22.870538       0.01405
  21     81.20        2.5230        0.0021       25.3718       25.3739      22.850921       0.01296
  20     96.49        2.5228        0.0025       25.3492       25.3517      22.828895       0.01216
  19     114.6        2.5227        0.0030       25.3233       25.3263      22.803697       0.01177
  18     136.5        2.5224        0.0036       25.2932       25.2968      22.774393       0.01127
  17     162.9        2.5222        0.0042       25.2489       25.2532      22.731011       0.01387
  16     196.4        2.5219        0.0051       25.1554       25.1606      22.638698       0.02324
  15     218.7        2.5217        0.0057       25.0101       25.0158      22.494088       0.05490
  14     243.0        2.5215        0.0062       24.6982       24.7044      22.182885       0.10794
  13     269.0        2.5214        0.0067       24.1443       24.1510      21.629652       0.17947
  12     297.5        2.5213        0.0073       23.4332       23.4404      20.919095       0.21074
  11     328.5        2.5214        0.0078       22.7089       22.7167      20.195371       0.19678
  10     361.9        2.5215        0.0083       21.8880       21.8964      19.374848       0.20760
   9     398.1        2.5218        0.0088       20.9528       20.9616      18.439738       0.21786
   8     437.6        2.5224        0.0092       19.9374       19.9467      17.424292       0.21711
   7     480.5        2.5232        0.0096       18.9002       18.9099      16.386665       0.20379
   6     533.0        2.5248        0.0101       17.7311       17.7412      15.216445       0.18825
   5     589.8        2.5274        0.0105       16.6278       16.6383      14.110911       0.16410
   4     651.6        2.5322        0.0110       15.5962       15.6072      13.074939       0.14167
   3     718.7        2.5408        0.0115       14.7424       14.7539      12.213064       0.10831
   2     792.3        2.5567        0.0121       13.9996       14.0117      11.455034       0.08694
   1     891.5        2.5973        0.0128       13.0474       13.0602      10.462907       0.08443
   0    1013.0        2.7115        0.0135       12.0030       12.0165       9.305057       0.08040



 Wavenumbers:  6150. -  7700. cm-1, ATM      1
 LEVEL PRESSURE   UPWARD FLUX   DIFDOWN FLUX  DIRDOWN FLUX  DOWNWARD FLUX   NET FLUX    HEATING RATE
          mb          W/m2          W/m2          W/m2        W/m2          W/m2       degree/day
  51    .06700        3.9083        0.0000       47.3109       47.3109      43.402524       0.00000
  50    .07753        3.9083        0.0000       47.3108       47.3108      43.402466       0.04627
  49    .09103        3.9083        0.0000       47.3107       47.3107      43.402392       0.04658
  48    0.1069        3.9083        0.0000       47.3106       47.3106      43.402304       0.04691
  47    0.1255        3.9083        0.0000       47.3105       47.3105      43.402199       0.04723
  46    0.1487        3.9083        0.0000       47.3104       47.3104      43.402064       0.04934
  45    0.1794        3.9083        0.0000       47.3102       47.3102      43.401874       0.05214
  44    0.2165        3.9083        0.0000       47.3099       47.3100      43.401643       0.05256
  43    0.2613        3.9083        0.0000       47.3097       47.3097      43.401362       0.05301
  42    0.3336        3.9083        0.0000       47.3092       47.3092      43.400884       0.05567
  41    0.4307        3.9083        0.0000       47.3085       47.3085      43.400238       0.05618
  40    0.5894        3.9083        0.0001       47.3074       47.3074      43.399160       0.05733
  39     1.339        3.9082        0.0001       47.3020       47.3022      43.393978       0.05834
  38     1.782        3.9082        0.0002       47.2989       47.2991      43.390955       0.05754
  37     2.292        3.9081        0.0002       47.2954       47.2956      43.387521       0.05689
  36     2.964        3.9080        0.0003       47.2909       47.2912      43.383128       0.05514
  35     3.853        3.9080        0.0004       47.2850       47.2855      43.377500       0.05341
  34     5.035        3.9078        0.0006       47.2775       47.2780      43.370200       0.05215
  33     6.613        3.9077        0.0007       47.2676       47.2684      43.360659       0.05101
  32     8.786        3.9075        0.0010       47.2547       47.2556      43.348165       0.04853
  31     11.80        3.9072        0.0013       47.2369       47.2382      43.331002       0.04805
  30     15.07        3.9069        0.0017       47.2187       47.2203      43.313459       0.04529
  29     18.79        3.9065        0.0021       47.1991       47.2012      43.294719       0.04249
  28     23.16        3.9061        0.0026       47.1776       47.1801      43.274057       0.03995
  27     28.12        3.9056        0.0031       47.1543       47.1574      43.251786       0.03786
  26     33.73        3.9050        0.0037       47.1299       47.1336      43.228596       0.03487
  25     40.54        3.9044        0.0045       47.1026       47.1071      43.202680       0.03215
  24     48.69        3.9036        0.0054       47.0725       47.0778      43.174248       0.02942
  23     57.69        3.9027        0.0063       47.0417       47.0480      43.145346       0.02709
  22     68.43        3.9017        0.0075       47.0075       47.0150      43.113365       0.02514
  21     81.20        3.9004        0.0089       46.9691       46.9781      43.077658       0.02359
  20     96.49        3.8989        0.0106       46.9254       46.9360      43.037037       0.02242
  19     114.6        3.8972        0.0126       46.8746       46.8872      42.990079       0.02193
  18     136.5        3.8951        0.0149       46.8152       46.8301      42.935090       0.02114
  17     162.9        3.8926        0.0177       46.7307       46.7484      42.855891       0.02532
  16     196.4        3.8893        0.0214       46.5633       46.5847      42.695343       0.04041
  15     218.7        3.8873        0.0237       46.3383       46.3619      42.474689       0.08377
  14     243.0        3.8851        0.0261       45.9159       45.9419      42.056877       0.14491
  13     269.0        3.8828        0.0285       45.1450       45.1735      41.290648       0.24856
  12     297.5        3.8806        0.0308       43.9724       44.0031      40.122536       0.34645
  11     328.5        3.8785        0.0330       42.6754       42.7084      38.829928       0.35146
  10     361.9        3.8765        0.0353       41.2941       41.3294      37.452901       0.34840
   9     398.1        3.8749        0.0375       39.7213       39.7588      35.883969       0.36553
   8     437.6        3.8738        0.0395       37.9089       37.9484      34.074686       0.38684
   7     480.5        3.8735        0.0413       35.9715       36.0128      32.139336       0.38010
   6     533.0        3.8749        0.0431       33.6773       33.7204      29.845582       0.36899
   5     589.8        3.8794        0.0447       31.3046       31.3493      27.469863       0.35263
   4     651.6        3.8907        0.0457       28.7806       28.8263      24.935629       0.34656
   3     718.7        3.9133        0.0465       26.3103       26.3568      22.443483       0.31319
   2     792.3        3.9576        0.0469       23.9082       23.9552      19.997594       0.28052
   1     891.5        4.0731        0.0473       21.1414       21.1887      17.115606       0.24524
   0    1013.0        4.3836        0.0477       18.5270       18.5747      14.191117       0.20306



 Wavenumbers:  7700. -  8050. cm-1, ATM      1
 LEVEL PRESSURE   UPWARD FLUX   DIFDOWN FLUX  DIRDOWN FLUX  DOWNWARD FLUX   NET FLUX    HEATING RATE
          mb          W/m2          W/m2          W/m2        W/m2          W/m2       degree/day
  51    .06700        5.5583        0.0000       11.1810       11.1810       5.622661       0.00000
  50    .07753        5.5583        0.0000       11.1809       11.1809       5.622639       0.01714
  49    .09103        5.5583        0.0000       11.1809       11.1809       5.622612       0.01680
  48    0.1069        5.5583        0.0000       11.1809       11.1809       5.622581       0.01645
  47    0.1255        5.5583        0.0000       11.1809       11.1809       5.622546       0.01609
  46    0.1487        5.5583        0.0000       11.1808       11.1808       5.622501       0.01633
  45    0.1794        5.5583        0.0000       11.1808       11.1808       5.622440       0.01680
  44    0.2165        5.5583        0.0000       11.1807       11.1807       5.622367       0.01648
  43    0.2613        5.5584        0.0000       11.1806       11.1806       5.622282       0.01618
  42    0.3336        5.5584        0.0000       11.1805       11.1805       5.622140       0.01655
  41    0.4307        5.5584        0.0000       11.1803       11.1804       5.621951       0.01637
  40    0.5894        5.5585        0.0000       11.1801       11.1801       5.621644       0.01635
  39     1.339        5.5587        0.0001       11.1788       11.1789       5.620189       0.01638
  38     1.782        5.5588        0.0001       11.1781       11.1782       5.619335       0.01627
  37     2.292        5.5590        0.0001       11.1772       11.1773       5.618345       0.01638
  36     2.964        5.5592        0.0002       11.1761       11.1762       5.617047       0.01630
  35     3.853        5.5595        0.0002       11.1746       11.1748       5.615331       0.01628
  34     5.035        5.5598        0.0003       11.1726       11.1729       5.613052       0.01628
  33     6.613        5.5603        0.0004       11.1700       11.1703       5.610009       0.01627
  32     8.786        5.5610        0.0005       11.1664       11.1669       5.605909       0.01592
  31     11.80        5.5619        0.0006       11.1613       11.1619       5.600048       0.01641
  30     15.07        5.5629        0.0008       11.1558       11.1567       5.593761       0.01623
  29     18.79        5.5640        0.0010       11.1497       11.1507       5.586667       0.01608
  28     23.16        5.5654        0.0013       11.1425       11.1438       5.578392       0.01600
  27     28.12        5.5669        0.0015       11.1343       11.1358       5.568945       0.01606
  26     33.73        5.5686        0.0018       11.1252       11.1270       5.558395       0.01586
  25     40.54        5.5707        0.0022       11.1142       11.1164       5.545680       0.01577
  24     48.69        5.5732        0.0026       11.1010       11.1036       5.530398       0.01581
  23     57.69        5.5760        0.0031       11.0866       11.0897       5.513673       0.01568
  22     68.43        5.5794        0.0037       11.0695       11.0732       5.493837       0.01559
  21     81.20        5.5834        0.0044       11.0494       11.0537       5.470326       0.01554
  20     96.49        5.5882        0.0052       11.0255       11.0307       5.442481       0.01537
  19     114.6        5.5940        0.0061       10.9975       11.0037       5.409657       0.01533
  18     136.5        5.6010        0.0073       10.9648       10.9721       5.371076       0.01484
  17     162.9        5.6094        0.0087       10.9263       10.9349       5.325570       0.01455
  16     196.4        5.6205        0.0104       10.8773       10.8877       5.267224       0.01469
  15     218.7        5.6278        0.0116       10.8455       10.8571       5.229262       0.01441
  14     243.0        5.6360        0.0128       10.8114       10.8243       5.188255       0.01422
  13     269.0        5.6450        0.0142       10.7749       10.7890       5.144034       0.01435
  12     297.5        5.6550        0.0156       10.7357       10.7513       5.096367       0.01414
  11     328.5        5.6660        0.0172       10.6937       10.7109       5.044941       0.01398
  10     361.9        5.6782        0.0189       10.6488       10.6677       4.989518       0.01402
   9     398.1        5.6918        0.0208       10.6007       10.6214       4.929594       0.01396
   8     437.6        5.7071        0.0227       10.5489       10.5716       4.864533       0.01391
   7     480.5        5.7243        0.0248       10.4932       10.5180       4.793768       0.01390
   6     533.0        5.7467        0.0274       10.4239       10.4513       4.704615       0.01434
   5     589.8        5.7728        0.0302       10.3472       10.3774       4.604626       0.01484
   4     651.6        5.8042        0.0331       10.2604       10.2935       4.489344       0.01577
   3     718.7        5.8427        0.0363       10.1603       10.1966       4.353924       0.01702
   2     792.3        5.8915        0.0396       10.0417       10.0813       4.189827       0.01882
   1     891.5        5.9738        0.0440        9.8590        9.9030       3.929156       0.02218
   0    1013.0        6.1041        0.0490        9.6042        9.6532       3.549130       0.02639



 Wavenumbers:  8050. - 12850. cm-1, ATM      1
 LEVEL PRESSURE   UPWARD FLUX   DIFDOWN FLUX  DIRDOWN FLUX  DOWNWARD FLUX   NET FLUX    HEATING RATE
          mb          W/m2          W/m2          W/m2        W/m2          W/m2       degree/day
  51    .06700       92.2000        0.0000      156.5418      156.5418      64.341798       0.00000
  50    .07753       92.1999        0.0000      156.5417      156.5417      64.341798       0.00000
  49    .09103       92.1999        0.0001      156.5417      156.5417      64.341798       0.00000
  48    0.1069       92.1999        0.0001      156.5416      156.5417      64.341798       0.00000
  47    0.1255       92.1999        0.0002      156.5415      156.5417      64.341798       0.00000
  46    0.1487       92.1999        0.0002      156.5414      156.5417      64.341798      -0.00000
  45    0.1794       92.1998        0.0003      156.5413      156.5416      64.341798       0.00000
  44    0.2165       92.1998        0.0004      156.5412      156.5416      64.341798       0.00000
  43    0.2613       92.1997        0.0006      156.5410      156.5415      64.341798       0.00000
  42    0.3336       92.1997        0.0008      156.5407      156.5415      64.341798      -0.00000
  41    0.4307       92.1995        0.0010      156.5403      156.5413      64.341798       0.00000
  40    0.5894       92.1994        0.0015      156.5397      156.5412      64.341798       0.00000
  39     1.339       92.1985        0.0036      156.5367      156.5403      64.341798      -0.00000
  38     1.782       92.1980        0.0048      156.5350      156.5398      64.341798       0.00000
  37     2.292       92.1975        0.0063      156.5330      156.5393      64.341798      -0.00000
  36     2.964       92.1967        0.0082      156.5303      156.5385      64.341798       0.00000
  35     3.853       92.1957        0.0107      156.5268      156.5375      64.341798      -0.00000
  34     5.035       92.1944        0.0140      156.5222      156.5362      64.341798       0.00000
  33     6.613       92.1926        0.0184      156.5160      156.5344      64.341798      -0.00000
  32     8.786       92.1903        0.0244      156.5076      156.5321      64.341798       0.00000
  31     11.80       92.1869        0.0330      156.4957      156.5287      64.341798       0.00000
  30     15.07       92.1832        0.0422      156.4828      156.5250      64.341798       0.00000
  29     18.79       92.1791        0.0527      156.4682      156.5209      64.341798      -0.00000
  28     23.16       92.1743        0.0649      156.4512      156.5161      64.341798       0.00000
  27     28.12       92.1687        0.0788      156.4317      156.5105      64.341798       0.00000
  26     33.73       92.1625        0.0945      156.4099      156.5043      64.341798      -0.00000
  25     40.54       92.1550        0.1134      156.3834      156.4968      64.341798       0.00000
  24     48.69       92.1460        0.1363      156.3515      156.4878      64.341798       0.00000
  23     57.69       92.1360        0.1614      156.3164      156.4778      64.341798       0.00000
  22     68.43       92.1241        0.1914      156.2746      156.4659      64.341798       0.00000
  21     81.20       92.1100        0.2272      156.2246      156.4518      64.341798       0.00000
  20     96.49       92.0930        0.2699      156.1649      156.4348      64.341798       0.00000
  19     114.6       92.0731        0.3207      156.0878      156.4085      64.335450       0.00296
  18     136.5       92.0493        0.3810      155.9959      156.3769      64.327576       0.00303
  17     162.9       92.0210        0.4531      155.8825      156.3355      64.314507       0.00418
  16     196.4       91.9844        0.5467      155.7186      156.2654      64.281015       0.00843
  15     218.7       91.9604        0.6083      155.5706      156.1790      64.218581       0.02370
  14     243.0       91.9348        0.6753      155.3311      156.0064      64.071603       0.05098
  13     269.0       91.9081        0.7476      154.9409      155.6885      63.780433       0.09445
  12     297.5       91.8815        0.8256      154.3726      155.1982      63.316640       0.13756
  11     328.5       91.8556        0.9096      153.6917      154.6012      62.745622       0.15526
  10     361.9       91.8319        0.9997      152.8760      153.8758      62.043893       0.17754
   9     398.1       91.8128        1.0961      151.8529      152.9490      61.136267       0.21146
   8     437.6       91.8025        1.1986      150.5416      151.7402      59.937750       0.25625
   7     480.5       91.8060        1.3070      148.9201      150.2272      58.421153       0.29785
   6     533.0       91.8379        1.4381      146.6301      148.0683      56.230343       0.35243
   5     589.8       91.9227        1.5756      143.7340      145.3095      53.386856       0.42207
   4     651.6       92.1188        1.7166      139.9222      141.6388      49.519986       0.52880
   3     718.7       92.5019        1.8599      135.3226      137.1825      44.680579       0.60818
   2     792.3       93.2388        2.0019      129.8245      131.8264      38.587690       0.69879
   1     891.5       95.1036        2.1738      121.8332      124.0070      28.903386       0.82409
   0    1013.0       99.6515        2.3584      112.6276      114.9860      15.334595       0.94215



 Wavenumbers: 12850. - 16000. cm-1, ATM      1
 LEVEL PRESSURE   UPWARD FLUX   DIFDOWN FLUX  DIRDOWN FLUX  DOWNWARD FLUX   NET FLUX    HEATING RATE
          mb          W/m2          W/m2          W/m2        W/m2          W/m2       degree/day
  51    .06700       79.3554        0.0000       98.0872       98.0872      18.731839       0.00000
  50    .07753       79.3554        0.0001       98.0864       98.0864      18.731048       0.63446
  49    .09103       79.3554        0.0002       98.0853       98.0855      18.730053       0.62138
  48    0.1069       79.3554        0.0003       98.0841       98.0843      18.728911       0.60805
  47    0.1255       79.3554        0.0004       98.0826       98.0830      18.727599       0.59501
  46    0.1487       79.3554        0.0005       98.0809       98.0814      18.725942       0.60380
  45    0.1794       79.3555        0.0007       98.0784       98.0792      18.723689       0.61862
  44    0.2165       79.3556        0.0010       98.0756       98.0766      18.721038       0.60302
  43    0.2613       79.3557        0.0013       98.0723       98.0736      18.717920       0.58764
  42    0.3336       79.3559        0.0017       98.0670       98.0687      18.712832       0.59327
  41    0.4307       79.3563        0.0023       98.0602       98.0625      18.706251       0.57217
  40    0.5894       79.3571        0.0034       98.0496       98.0529      18.695881       0.55147
  39     1.339       79.3636        0.0082       98.0043       98.0125      18.648886       0.52908
  38     1.782       79.3696        0.0110       97.9793       97.9903      18.620669       0.53720
  37     2.292       79.3785        0.0142       97.9498       97.9640      18.585524       0.58211
  36     2.964       79.3932        0.0185       97.9088       97.9273      18.534115       0.64533
  35     3.853       79.4170        0.0242       97.8503       97.8745      18.457556       0.72656
  34     5.035       79.4527        0.0317       97.7680       97.7997      18.346973       0.78996
  33     6.613       79.5026        0.0417       97.6562       97.6979      18.195301       0.81084
  32     8.786       79.5676        0.0552       97.5107       97.5659      17.998313       0.76503
  31     11.80       79.6522        0.0745       97.3179       97.3924      17.740186       0.72267
  30     15.07       79.7333        0.0952       97.1283       97.2236      17.490234       0.64533
  29     18.79       79.8162        0.1186       96.9300       97.0486      17.232400       0.58459
  28     23.16       79.9030        0.1459       96.7166       96.8625      16.959483       0.52773
  27     28.12       79.9904        0.1771       96.4935       96.6705      16.680164       0.47482
  26     33.73       80.0714        0.2120       96.2731       96.4850      16.413685       0.40066
  25     40.54       80.1497        0.2541       96.0408       96.2949      16.145214       0.33307
  24     48.69       80.2251        0.3049       95.7946       96.0995      15.874400       0.28025
  23     57.69       80.2895        0.3607       95.5573       95.9180      15.628479       0.23051
  22     68.43       80.3464        0.4273       95.3106       95.7379      15.391519       0.18628
  21     81.20       80.3867        0.5066       95.0643       95.5710      15.184244       0.13696
  20     96.49       80.4096        0.6013       94.8153       95.4166      15.007036       0.09781
  19     114.6       80.4383        0.7150       94.5411       95.2560      14.817753       0.08838
  18     136.5       80.4607        0.8497       94.2320       95.0818      14.621052       0.07564
  17     162.9       80.4767        1.0102       93.8753       94.8855      14.408802       0.06784
  16     196.4       80.4747        1.2183       93.4347       94.6529      14.178199       0.05805
  15     218.7       80.4652        1.3549       93.1512       94.5062      14.040944       0.05211
  14     243.0       80.4514        1.5035       92.8439       94.3474      13.895966       0.05028
  13     269.0       80.4330        1.6645       92.5108       94.1753      13.742277       0.04986
  12     297.5       80.4106        1.8385       92.1489       93.9874      13.576819       0.04907
  11     328.5       80.3861        2.0265       91.7544       93.7809      13.394826       0.04948
  10     361.9       80.3602        2.2289       91.3246       93.5535      13.193334       0.05098
   9     398.1       80.3342        2.4468       90.8551       93.3018      12.967617       0.05259
   8     437.6       80.3107        2.6806       90.3380       93.0186      12.707917       0.05553
   7     480.5       80.2923        2.9312       89.7672       92.6984      12.406135       0.05927
   6     533.0       80.2830        3.2393       89.0335       92.2729      11.989925       0.06695
   5     589.8       80.2984        3.5706       88.1904       91.7611      11.462638       0.07827
   4     651.6       80.3679        3.9249       87.1783       91.1032      10.735305       0.09946
   3     718.7       80.5097        4.3002       85.9896       90.2898       9.780050       0.12005
   2     792.3       80.7862        4.6930       84.5598       89.2528       8.466588       0.15064
   1     891.5       81.4546        5.2044       82.3832       87.5876       6.133001       0.19858
   0    1013.0       82.8470        5.7922       79.5425       85.3348       2.487761       0.25311



 Wavenumbers: 16000. - 22650. cm-1, ATM      1
 LEVEL PRESSURE   UPWARD FLUX   DIFDOWN FLUX  DIRDOWN FLUX  DOWNWARD FLUX   NET FLUX    HEATING RATE
          mb          W/m2          W/m2          W/m2        W/m2          W/m2       degree/day
  51    .06700      140.4175        0.0000      156.3892      156.3892      15.971704       0.00000
  50    .07753      140.4175        0.0004      156.3887      156.3891      15.971557       0.11795
  49    .09103      140.4175        0.0009      156.3879      156.3888      15.971343       0.13378
  48    0.1069      140.4175        0.0015      156.3871      156.3885      15.971056       0.15256
  47    0.1255      140.4175        0.0021      156.3861      156.3882      15.970673       0.17389
  46    0.1487      140.4176        0.0030      156.3847      156.3877      15.970107       0.20606
  45    0.1794      140.4177        0.0041      156.3828      156.3869      15.969224       0.24262
  44    0.2165      140.4179        0.0054      156.3805      156.3859      15.968025       0.27268
  43    0.2613      140.4182        0.0070      156.3776      156.3846      15.966399       0.30656
  42    0.3336      140.4190        0.0096      156.3726      156.3823      15.963306       0.36051
  41    0.4307      140.4202        0.0131      156.3657      156.3788      15.958646       0.40525
  40    0.5894      140.4228        0.0188      156.3537      156.3725      15.949757       0.47271
  39     1.339      140.4451        0.0458      156.2834      156.3292      15.884084       0.73936
  38     1.782      140.4658        0.0616      156.2324      156.2940      15.828138       1.06511
  37     2.292      140.4969        0.0799      156.1641      156.2440      15.747157       1.34126
  36     2.964      140.5485        0.1040      156.0605      156.1645      15.615966       1.64684
  35     3.853      140.6320        0.1357      155.9041      156.0398      15.407799       1.97554
  34     5.035      140.7580        0.1778      155.6774      155.8552      15.097234       2.21855
  33     6.613      140.9340        0.2340      155.3656      155.5996      14.665641       2.30729
  32     8.786      141.1633        0.3097      154.9577      155.2673      14.104050       2.18102
  31     11.80      141.4617        0.4177      154.4153      154.8330      13.371330       2.05138
  30     15.07      141.7475        0.5336      153.8804      154.4139      12.666492       1.81976
  29     18.79      142.0392        0.6642      153.3191      153.9833      11.944112       1.63786
  28     23.16      142.3441        0.8166      152.7126      153.5292      11.185093       1.46770
  27     28.12      142.6508        0.9906      152.0755      153.0661      10.415338       1.30853
  26     33.73      142.9337        1.1851      151.4409      152.6261       9.692323       1.08707
  25     40.54      143.2059        1.4199      150.7637      152.1836       8.977740       0.88652
  24     48.69      143.4663        1.7027      150.0338      151.7366       8.270308       0.73208
  23     57.69      143.6868        2.0130      149.3151      151.3281       7.641345       0.58956
  22     68.43      143.8788        2.3821      148.5476      150.9297       7.050927       0.46415
  21     81.20      144.0107        2.8216      147.7517      150.5732       6.562524       0.32273
  20     96.49      144.0781        3.3447      146.9127      150.2573       6.179258       0.21153
  19     114.6      144.1121        3.9640      145.9763      149.9403       5.828248       0.16390
  18     136.5      144.1211        4.6953      144.9088      149.6041       5.482951       0.13277
  17     162.9      144.1036        5.5621      143.6785      149.2406       5.137070       0.11056
  16     196.4      144.0195        6.6804      142.1650      148.8455       4.825990       0.07830
  15     218.7      143.9419        7.4113      141.2033      148.6146       4.672739       0.05818
  14     243.0      143.8472        8.2023      140.1753      148.3776       4.530402       0.04937
  13     269.0      143.7338        9.0556      139.0796      148.1352       4.401392       0.04185
  12     297.5      143.6012        9.9733      137.9140      147.8873       4.286086       0.03420
  11     328.5      143.4532       10.9597      136.6674      147.6271       4.173875       0.03051
  10     361.9      143.2897       12.0157      135.3389      147.3546       4.064895       0.02757
   9     398.1      143.1101       13.1453      133.9231      147.0683       3.958256       0.02484
   8     437.6      142.9153       14.3505      132.4156      146.7661       3.850816       0.02297
   7     480.5      142.7050       15.6335      130.8138      146.4472       3.742281       0.02132
   6     533.0      142.4461       17.2005      128.8585      146.0590       3.612898       0.02081
   5     589.8      142.1710       18.8748      126.7658      145.6406       3.469629       0.02127
   4     651.6      141.8857       20.6580      124.5241      145.1821       3.296389       0.02369
   3     718.7      141.5964       22.5518      122.1234      144.6752       3.078741       0.02735
   2     792.3      141.3198       24.5541      119.5470      144.1011       2.781333       0.03411
   1     891.5      141.0266       27.2121      116.0432      143.2553       2.228677       0.04703
   0    1013.0      140.8060       30.3352      111.8190      142.1542       1.348207       0.06114



 Wavenumbers: 22650. - 29000. cm-1, ATM      1
 LEVEL PRESSURE   UPWARD FLUX   DIFDOWN FLUX  DIRDOWN FLUX  DOWNWARD FLUX   NET FLUX    HEATING RATE
          mb          W/m2          W/m2          W/m2        W/m2          W/m2       degree/day
  51    .06700       58.6820        0.0000       59.0156       59.0156       0.333642       0.00000
  50    .07753       58.6819        0.0005       59.0151       59.0155       0.333642      -0.00000
  49    .09103       58.6818        0.0010       59.0144       59.0154       0.333642       0.00000
  48    0.1069       58.6816        0.0017       59.0136       59.0153       0.333642      -0.00000
  47    0.1255       58.6815        0.0025       59.0127       59.0151       0.333642       0.00000
  46    0.1487       58.6813        0.0035       59.0115       59.0149       0.333642       0.00000
  45    0.1794       58.6810        0.0048       59.0099       59.0147       0.333642       0.00000
  44    0.2165       58.6807        0.0063       59.0080       59.0144       0.333642      -0.00000
  43    0.2613       58.6804        0.0082       59.0058       59.0140       0.333642       0.00000
  42    0.3336       58.6798        0.0113       59.0022       59.0134       0.333642       0.00000
  41    0.4307       58.6790        0.0154       58.9973       59.0127       0.333642       0.00000
  40    0.5894       58.6777        0.0220       58.9894       59.0114       0.333642       0.00000
  39     1.339       58.6717        0.0535       58.9518       59.0053       0.333642      -0.00000
  38     1.782       58.6681        0.0720       58.9297       59.0017       0.333642       0.00000
  37     2.292       58.6640        0.0934       58.9042       58.9976       0.333642      -0.00000
  36     2.964       58.6586        0.1216       58.8706       58.9922       0.333642       0.00000
  35     3.853       58.6514        0.1587       58.8264       58.9851       0.333642      -0.00000
  34     5.035       58.6419        0.2080       58.7676       58.9756       0.333642       0.00000
  33     6.613       58.6293        0.2738       58.6891       58.9629       0.333642       0.00000
  32     8.786       58.6122        0.3624       58.5834       58.9458       0.333642       0.00000
  31     11.80       58.5878        0.4890       58.4324       58.9215       0.333642       0.00000
  30     15.07       58.5617        0.6247       58.2706       58.8953       0.333642      -0.00000
  29     18.79       58.5322        0.7777       58.0882       58.8659       0.333642      -0.00000
  28     23.16       58.4979        0.9559       57.8757       58.8316       0.333642       0.00000
  27     28.12       58.4588        1.1591       57.6333       58.7924       0.333642       0.00000
  26     33.73       58.4151        1.3857       57.3631       58.7488       0.333642       0.00000
  25     40.54       58.3626        1.6584       57.0379       58.6963       0.333642      -0.00000
  24     48.69       58.2996        1.9854       56.6479       58.6333       0.333642       0.00000
  23     57.69       58.2309        2.3424       56.2221       58.5645       0.333642      -0.00000
  22     68.43       58.1495        2.7646       55.7186       58.4832       0.333642       0.00000
  21     81.20       58.0534        3.2632       55.1239       58.3871       0.333642      -0.00000
  20     96.49       57.9401        3.8510       54.4228       58.2738       0.333642      -0.00000
  19     114.6       57.8073        4.5400       53.6010       58.1410       0.333642       0.00000
  18     136.5       57.6522        5.3441       52.6418       57.9859       0.333642       0.00000
  17     162.9       57.4709        6.2842       51.5203       57.8045       0.333642      -0.00000
  16     196.4       57.2410        7.4752       50.0994       57.5747       0.333642       0.00000
  15     218.7       57.0932        8.2406       49.1863       57.4269       0.333642       0.00000
  14     243.0       56.9354        9.0578       48.2113       57.2691       0.333642      -0.00000
  13     269.0       56.7676        9.9263       47.1749       57.1012       0.333642       0.00000
  12     297.5       56.5899       10.8453       46.0782       56.9236       0.333642       0.00000
  11     328.5       56.4021       11.8163       44.9195       56.7358       0.333642       0.00000
  10     361.9       56.2047       12.8365       43.7018       56.5384       0.333642       0.00000
   9     398.1       55.9976       13.9062       42.4250       56.3312       0.333642      -0.00000
   8     437.6       55.7811       15.0232       41.0916       56.1148       0.333642       0.00000
   7     480.5       55.5558       16.1851       39.7044       55.8895       0.333642      -0.00000
   6     533.0       55.2876       17.5672       38.0541       55.6213       0.333642       0.00000
   5     589.8       55.0092       19.0000       36.3429       55.3429       0.333642       0.00000
   4     651.6       54.7220       20.4764       34.5792       55.0556       0.333642      -0.00000
   3     718.7       54.4270       21.9908       32.7698       54.7606       0.333642       0.00000
   2     792.3       54.1258       23.5344       30.9250       54.4594       0.333642      -0.00000
   1     891.5       53.7418       25.4982       28.5772       54.0754       0.333642       0.00000
   0    1013.0       53.3135       27.6819       25.9652       53.6471       0.333642      -0.00000



 Wavenumbers: 29000. - 38000. cm-1, ATM      1
 LEVEL PRESSURE   UPWARD FLUX   DIFDOWN FLUX  DIRDOWN FLUX  DOWNWARD FLUX   NET FLUX    HEATING RATE
          mb          W/m2          W/m2          W/m2        W/m2          W/m2       degree/day
  51    .06700        8.7676        0.0000       20.8114       20.8114      12.043748       0.00000
  50    .07753        8.7674        0.0003       20.8070       20.8074      12.039940       3.05155
  49    .09103        8.7672        0.0007       20.8009       20.8016      12.034403       3.46085
  48    0.1069        8.7669        0.0012       20.7928       20.7939      12.026994       3.94429
  47    0.1255        8.7667        0.0017       20.7820       20.7837      12.017089       4.49034
  46    0.1487        8.7663        0.0024       20.7665       20.7688      12.002526       5.30844
  45    0.1794        8.7659        0.0033       20.7424       20.7457      11.979861       6.22204
  44    0.2165        8.7653        0.0044       20.7103       20.7147      11.949338       6.94340
  43    0.2613        8.7648        0.0056       20.6675       20.6731      11.908343       7.72732
  42    0.3336        8.7639        0.0077       20.5880       20.5957      11.831782       8.92625
  41    0.4307        8.7628        0.0104       20.4722       20.4826      11.719830       9.73402
  40    0.5894        8.7612        0.0147       20.2637       20.2784      11.517146      10.77846
  39     1.339        8.7578        0.0331       19.0984       19.1315      10.373669      12.87347
  38     1.782        8.7583        0.0427       18.4394       18.4821       9.723745      12.37351
  37     2.292        8.7610        0.0530       17.7714       17.8244       9.063400      10.93703
  36     2.964        8.7676        0.0657       17.0421       17.1078       8.340276       9.07739
  35     3.853        8.7804        0.0816       16.2678       16.3495       7.569097       7.31863
  34     5.035        8.8015        0.1018       15.4803       15.5821       6.780603       5.63267
  33     6.613        8.8323        0.1276       14.7157       14.8433       6.011022       4.11419
  32     8.786        8.8729        0.1614       13.9936       14.1549       5.282075       2.83096
  31     11.80        8.9259        0.2084       13.2835       13.4920       4.566116       2.00446
  30     15.07        8.9770        0.2573       12.7394       12.9966       4.019646       1.41088
  29     18.79        9.0298        0.3114       12.2666       12.5780       3.548203       1.06891
  28     23.16        9.0859        0.3729       11.8300       12.2029       3.117066       0.83368
  27     28.12        9.1433        0.4418       11.4279       11.8697       2.726375       0.66415
  26     33.73        9.1964        0.5178       11.0695       11.5872       2.390869       0.50444
  25     40.54        9.2467        0.6085       10.7209       11.3294       2.082701       0.38232
  24     48.69        9.2942        0.7162       10.3742       11.0904       1.796143       0.29654
  23     57.69        9.3333        0.8328       10.0549       10.8877       1.554380       0.22662
  22     68.43        9.3649        0.9695        9.7327       10.7022       1.337338       0.17062
  21     81.20        9.3801        1.1309        9.4134       10.5443       1.164267       0.11436
  20     96.49        9.3769        1.3207        9.0887       10.4095       1.032519       0.07272
  19     114.6        9.3635        1.5400        8.7388       10.2788       0.915244       0.05476
  18     136.5        9.3429        1.7907        8.3549       10.1456       0.802715       0.04327
  17     162.9        9.3151        2.0765        7.9311       10.0076       0.692535       0.03522
  16     196.4        9.2683        2.4305        7.4333        9.8638       0.595554       0.02441
  15     218.7        9.2345        2.6532        7.1295        9.7828       0.548253       0.01796
  14     243.0        9.1975        2.8860        6.8161        9.7021       0.504575       0.01515
  13     269.0        9.1571        3.1281        6.4943        9.6224       0.465354       0.01272
  12     297.5        9.1133        3.3783        6.1657        9.5440       0.430780       0.01025
  11     328.5        9.0675        3.6358        5.8294        9.4652       0.397677       0.00900
  10     361.9        9.0204        3.8979        5.4886        9.3865       0.366195       0.00797
   9     398.1        8.9718        4.1642        5.1440        9.3082       0.336359       0.00695
   8     437.6        8.9225        4.4332        4.7969        9.2301       0.307596       0.00615
   7     480.5        8.8727        4.7027        4.4504        9.1530       0.280293       0.00536
   6     533.0        8.8157        5.0099        4.0563        9.0662       0.250529       0.00479
   5     589.8        8.7594        5.3129        3.6682        8.9811       0.221710       0.00428
   4     651.6        8.7050        5.6080        3.2905        8.8985       0.193513       0.00386
   3     718.7        8.6528        5.8935        2.9252        8.8187       0.165895       0.00347
   2     792.3        8.6036        6.1668        2.5757        8.7425       0.138859       0.00310
   1     891.5        8.5473        6.4877        2.1651        8.6528       0.105476       0.00284
   0    1013.0        8.4936        6.8104        1.7519        8.5623       0.068614       0.00256



 Wavenumbers: 38000. - 50000. cm-1, ATM      1
 LEVEL PRESSURE   UPWARD FLUX   DIFDOWN FLUX  DIRDOWN FLUX  DOWNWARD FLUX   NET FLUX    HEATING RATE
          mb          W/m2          W/m2          W/m2        W/m2          W/m2       degree/day
  51    .06700        0.0061        0.0000        1.2836        1.2836       1.277518       0.00000
  50    .07753        0.0061        0.0001        1.2812        1.2812       1.275183       1.87150
  49    .09103        0.0060        0.0002        1.2777        1.2778       1.271851       2.08247
  48    0.1069        0.0059        0.0002        1.2731        1.2734       1.267473       2.33059
  47    0.1255        0.0058        0.0004        1.2672        1.2675       1.261717       2.60908
  46    0.1487        0.0057        0.0005        1.2586        1.2591       1.253391       3.03499
  45    0.1794        0.0055        0.0007        1.2455        1.2462       1.240623       3.50520
  44    0.2165        0.0054        0.0009        1.2282        1.2291       1.223697       3.85037
  43    0.2613        0.0052        0.0011        1.2054        1.2065       1.201348       4.21261
  42    0.3336        0.0049        0.0015        1.1639        1.1654       1.160524       4.75970
  41    0.4307        0.0045        0.0020        1.1051        1.1070       1.102565       5.03943
  40    0.5894        0.0039        0.0026        1.0039        1.0064       1.002524       5.32007
  39     1.339        0.0022        0.0035        0.5438        0.5473       0.545104       5.14971
  38     1.782        0.0016        0.0032        0.3635        0.3666       0.365006       3.42879
  37     2.292        0.0012        0.0027        0.2356        0.2383       0.237058       2.11916
  36     2.964        0.0009        0.0022        0.1455        0.1477       0.146786       1.13318
  35     3.853        0.0006        0.0017        0.0858        0.0875       0.086906       0.56828
  34     5.035        0.0004        0.0013        0.0488        0.0501       0.049701       0.26578
  33     6.613        0.0003        0.0010        0.0273        0.0282       0.027974       0.11615
  32     8.786        0.0002        0.0007        0.0144        0.0151       0.014928       0.05067
  31     11.80        0.0001        0.0004        0.0065        0.0070       0.006903       0.02247
  30     15.07        0.0000        0.0003        0.0031        0.0034       0.003329       0.00923
  29     18.79        0.0000        0.0002        0.0014        0.0016       0.001583       0.00396
  28     23.16        0.0000        0.0001        0.0006        0.0007       0.000720       0.00167
  27     28.12        0.0000        0.0001        0.0003        0.0003       0.000317       0.00069
  26     33.73        0.0000        0.0000        0.0001        0.0001       0.000140       0.00027
  25     40.54        0.0000        0.0000        0.0000        0.0001       0.000057       0.00010
  24     48.69        0.0000        0.0000        0.0000        0.0000       0.000021       0.00004
  23     57.69        0.0000        0.0000        0.0000        0.0000       0.000008       0.00001
  22     68.43        0.0000        0.0000        0.0000        0.0000       0.000003       0.00000
  21     81.20        0.0000        0.0000        0.0000        0.0000       0.000001       0.00000
  20     96.49        0.0000        0.0000        0.0000        0.0000       0.000000       0.00000
  19     114.6        0.0000        0.0000        0.0000        0.0000       0.000000       0.00000
  18     136.5        0.0000        0.0000        0.0000        0.0000       0.000000       0.00000
  17     162.9        0.0000        0.0000        0.0000        0.0000       0.000000       0.00000
  16     196.4        0.0000        0.0000        0.0000        0.0000       0.000000       0.00000
  15     218.7        0.0000        0.0000        0.0000        0.0000       0.000000       0.00000
  14     243.0        0.0000        0.0000        0.0000        0.0000       0.000000       0.00000
  13     269.0        0.0000        0.0000        0.0000        0.0000       0.000000       0.00000
  12     297.5        0.0000        0.0000        0.0000        0.0000       0.000000       0.00000
  11     328.5        0.0000        0.0000        0.0000        0.0000       0.000000       0.00000
  10     361.9        0.0000        0.0000        0.0000        0.0000       0.000000       0.00000
   9     398.1        0.0000        0.0000        0.0000        0.0000       0.000000       0.00000
   8     437.6        0.0000        0.0000        0.0000        0.0000       0.000000       0.00000
   7     480.5        0.0000        0.0000        0.0000        0.0000       0.000000       0.00000
   6     533.0        0.0000        0.0000        0.0000        0.0000       0.000000       0.00000
   5     589.8        0.0000        0.0000        0.0000        0.0000       0.000000       0.00000
   4     651.6        0.0000        0.0000        0.0000        0.0000       0.000000       0.00000
   3     718.7        0.0000        0.0000        0.0000        0.0000       0.000000       0.00000
   2     792.3        0.0000        0.0000        0.0000        0.0000       0.000000       0.00000
   1     891.5        0.0000        0.0000        0.0000        0.0000       0.000000       0.00000
   0    1013.0        0.0000        0.0000        0.0000        0.0000       0.000000       0.00000



 Wavenumbers:   820. -  2600. cm-1, ATM      1
 LEVEL PRESSURE   UPWARD FLUX   DIFDOWN FLUX  DIRDOWN FLUX  DOWNWARD FLUX   NET FLUX    HEATING RATE
          mb          W/m2          W/m2          W/m2        W/m2          W/m2       degree/day
  51    .06700        0.0120        0.0000        6.0047        6.0047       5.992678       0.00000
  50    .07753        0.0120        0.0000        6.0008        6.0008       5.988823       3.08953
  49    .09103        0.0120        0.0000        5.9999        5.9999       5.987935       0.55492
  48    0.1069        0.0120        0.0000        5.9989        5.9989       5.986944       0.52788
  47    0.1255        0.0120        0.0000        5.9978        5.9978       5.985823       0.50788
  46    0.1487        0.0120        0.0000        5.9964        5.9964       5.984463       0.49603
  45    0.1794        0.0120        0.0000        5.9947        5.9947       5.982738       0.47355
  44    0.2165        0.0120        0.0000        5.9929        5.9929       5.980888       0.42068
  43    0.2613        0.0120        0.0000        5.9909        5.9909       5.978920       0.37093
  42    0.3336        0.0120        0.0000        5.9880        5.9880       5.976028       0.33725
  41    0.4307        0.0120        0.0000        5.9845        5.9845       5.972539       0.30336
  40    0.5894        0.0120        0.0000        5.9790        5.9790       5.967001       0.29450
  39     1.339        0.0120        0.0000        5.9533        5.9533       5.941360       0.28867
  38     1.782        0.0120        0.0000        5.9391        5.9391       5.927136       0.27080
  37     2.292        0.0120        0.0000        5.9233        5.9233       5.911292       0.26241
  36     2.964        0.0120        0.0000        5.9034        5.9034       5.891408       0.24961
  35     3.853        0.0120        0.0000        5.8786        5.8786       5.866644       0.23502
  34     5.035        0.0120        0.0000        5.8480        5.8480       5.835983       0.21903
  33     6.613        0.0120        0.0000        5.8098        5.8098       5.797870       0.20376
  32     8.786        0.0120        0.0000        5.7621        5.7621       5.750147       0.18534
  31     11.80        0.0120        0.0000        5.7028        5.7028       5.690808       0.16613
  30     15.07        0.0120        0.0000        5.6527        5.6527       5.640737       0.12927
  29     18.79        0.0120        0.0000        5.6115        5.6115       5.599562       0.09336
  28     23.16        0.0120        0.0000        5.5781        5.5781       5.566122       0.06466
  27     28.12        0.0120        0.0000        5.5504        5.5504       5.538439       0.04706
  26     33.73        0.0120        0.0000        5.5252        5.5252       5.513223       0.03791
  25     40.54        0.0120        0.0000        5.4975        5.4975       5.485581       0.03429
  24     48.69        0.0120        0.0000        5.4658        5.4658       5.453826       0.03286
  23     57.69        0.0120        0.0000        5.4318        5.4318       5.419833       0.03186
  22     68.43        0.0120        0.0000        5.3923        5.3923       5.380352       0.03104
  21     81.20        0.0120        0.0000        5.3471        5.3471       5.335149       0.02987
  20     96.49        0.0120        0.0000        5.2952        5.2953       5.283287       0.02862
  19     114.6        0.0120        0.0000        5.2356        5.2357       5.223688       0.02783
  18     136.5        0.0120        0.0000        5.1680        5.1680       5.156054       0.02601
  17     162.9        0.0120        0.0000        5.0851        5.0851       5.073167       0.02649
  16     196.4        0.0120        0.0000        4.9620        4.9620       4.950076       0.03098
  15     218.7        0.0120        0.0000        4.8529        4.8529       4.840939       0.04144
  14     243.0        0.0120        0.0000        4.7014        4.7014       4.689451       0.05254
  13     269.0        0.0120        0.0000        4.5274        4.5274       4.515476       0.05644
  12     297.5        0.0120        0.0000        4.3337        4.3338       4.321796       0.05744
  11     328.5        0.0120        0.0000        4.1173        4.1173       4.105353       0.05885
  10     361.9        0.0120        0.0000        3.8654        3.8654       3.853409       0.06374
   9     398.1        0.0120        0.0000        3.6022        3.6022       3.590183       0.06133
   8     437.6        0.0120        0.0000        3.3637        3.3638       3.351721       0.05098
   7     480.5        0.0121        0.0000        3.1861        3.1862       3.174091       0.03489
   6     533.0        0.0121        0.0000        3.0380        3.0380       3.025917       0.02384
   5     589.8        0.0122        0.0000        2.8924        2.8924       2.880245       0.02162
   4     651.6        0.0123        0.0000        2.7069        2.7069       2.694587       0.02539
   3     718.7        0.0126        0.0000        2.4932        2.4932       2.480636       0.02689
   2     792.3        0.0131        0.0000        2.2621        2.2621       2.249032       0.02656
   1     891.5        0.0143        0.0000        1.9458        1.9459       1.931570       0.02701
   0    1013.0        0.0174        0.0000        1.5247        1.5248       1.507392       0.02945

  Modules and versions used in this calculation:

       rrtmg_sw.1col.f90:  $Revision$                    rrtmg_sw_init.f90:  $Revision$        
     rrtmgsw_cldprop.f90:  $Revision$                  rrtmgsw_cldprmc.f90:  NOT USED          
     rrtmg_sw_reftra.f90:  $Revision$                  rrtmg_sw_spcvrt.f90:  NOT USED          
     rrtmg_sw_spcvmc.f90:  NOT USED                    rrtmgsw_setcoef.f90:  NOT USED          
     rrtmg_sw_taumol.f90:  $Revision$                  rrtmg_sw_vrtqdr.f90:  NOT USED          
                rrtatm.f:  NOT USED                             util_xxx.f:  NOT USED          
                 extra.f:  NOT USED                       rrtmg_sw_k_g.f90:  $Revision$        

