

 Wavenumbers:   820. - 50000. cm-1, ATM      1
 LEVEL PRESSURE   UPWARD FLUX   DIFDOWN FLUX  DIRDOWN FLUX  DOWNWARD FLUX   NET FLUX    HEATING RATE
          mb          W/m2          W/m2          W/m2        W/m2          W/m2       degree/day
  51    .06700      379.4653        0.0000      617.8126      617.8126     238.347282       0.00000
  50    .07753      379.4649        0.0013      617.7947      617.7961     238.331144      12.93444
  49    .09103      379.4645        0.0030      617.7778      617.7808     238.316338       9.25433
  48    0.1069      379.4640        0.0050      617.7581      617.7631     238.299081       9.18611
  47    0.1255      379.4635        0.0072      617.7340      617.7412     238.277741       9.67430
  46    0.1487      379.4629        0.0100      617.7009      617.7109     238.248063      10.81815
  45    0.1794      379.4621        0.0139      617.6521      617.6660     238.203842      12.13957
  44    0.2165      379.4614        0.0184      617.5895      617.6079     238.146534      13.03655
  43    0.2613      379.4606        0.0238      617.5089      617.5327     238.072039      14.04210
  42    0.3336      379.4597        0.0326      617.3641      617.3967     237.936985      15.74597
  41    0.4307      379.4589        0.0442      617.1591      617.2033     237.744406      16.74427
  40    0.5894      379.4586        0.0629      616.8005      616.8634     237.404796      18.06001
  39     1.339      379.4752        0.1477      614.9443      615.0919     235.616728      20.13040
  38     1.782      379.4974        0.1953      613.9670      614.1623     234.664906      18.12116
  37     2.292      379.5345        0.2496      613.0059      613.2554     233.720911      15.63503
  36     2.964      379.6003        0.3201      611.9577      612.2777     232.677412      13.09906
  35     3.853      379.7110        0.4125      610.8024      611.2149     231.503926      11.13660
  34     5.035      379.8814        0.5345      609.5327      610.0672     230.185801       9.41613
  33     6.613      380.1215        0.6964      608.1464      608.8429     228.721318       7.82913
  32     8.786      380.4343        0.9137      606.6250      607.5387     227.104406       6.27950
  31     11.80      380.8390        1.2229      604.8486      606.0716     225.232578       5.24053
  30     15.07      381.2239        1.5530      603.2440      604.7969     223.573053       4.28457
  29     18.79      381.6142        1.9243      601.6511      603.5754     221.961210       3.65454
  28     23.16      382.0190        2.3558      599.9927      602.3485     220.329443       3.15531
  27     28.12      382.4220        2.8469      598.2881      601.1349     218.712883       2.74804
  26     33.73      382.7854        3.3943      596.5951      599.9894     217.204012       2.26863
  25     40.54      383.1224        4.0535      594.7727      598.8262     215.703833       1.86114
  24     48.69      383.4296        4.8444      592.7865      597.6309     214.201294       1.55489
  23     57.69      383.6711        5.7090      590.7959      596.5049     212.833781       1.28184
  22     68.43      383.8545        6.7332      588.6191      595.3523     211.497825       1.05024
  21     81.20      383.9282        7.9475      586.2690      594.2165     210.288351       0.79920
  20     96.49      383.8816        9.3853      583.6961      593.0814     209.199760       0.60082
  19     114.6      383.7743       11.0768      580.7708      591.8476     208.073350       0.52595
  18     136.5      383.6022       13.0574      577.4359      590.4933     206.891162       0.45458
  17     162.9      383.3586       15.3817      573.5624      588.9442     205.585539       0.41733
  16     196.4      382.9543       18.3458      568.5907      586.9365     203.982206       0.40358
  15     218.7      382.6588       20.2621      565.0572      585.3193     202.660524       0.50179
  14     243.0      382.3270       22.3175      560.7495      583.0670     200.740009       0.66610
  13     269.0      381.9577       24.5133      555.3947      579.9080     197.950288       0.90497
  12     297.5      381.5521       26.8501      548.9964      575.8465     194.294426       1.08429
  11     328.5      381.1179       29.3345      542.0895      571.4241     190.306222       1.08438
  10     361.9      380.6579       31.9627      534.6242      566.5869     185.928934       1.10750
   9     398.1      380.1756       34.7391      526.4204      561.1595     180.983894       1.15208
   8     437.6      379.6795       37.6624      517.3907      555.0530     175.373521       1.19953
   7     480.5      379.1775       40.7307      507.7216      548.4523     169.274761       1.19777
   6     533.0      378.6141       44.4196      495.9006      540.3203     161.706169       1.21755
   5     589.8      378.1024       48.2906      483.0788      531.3694     153.267034       1.25264
   4     651.6      377.7379       52.3313      468.6907      521.0219     143.284038       1.36520
   3     718.7      377.6222       56.5334      453.2257      509.7592     132.137014       1.40087
   2     792.3      378.0000       60.8756      436.4928      497.3684     119.368439       1.46441
   1     891.5      379.7761       66.4865      413.9344      480.4209     100.644853       1.59329
   0    1013.0      384.9734       72.8697      388.4125      461.2822      76.308738       1.68978



 Wavenumbers:  2600. -  3250. cm-1, ATM      1
 LEVEL PRESSURE   UPWARD FLUX   DIFDOWN FLUX  DIRDOWN FLUX  DOWNWARD FLUX   NET FLUX    HEATING RATE
          mb          W/m2          W/m2          W/m2        W/m2          W/m2       degree/day
  51    .06700        0.0227        0.0000        5.4450        5.4450       5.422335       0.00000
  50    .07753        0.0227        0.0000        5.4450        5.4450       5.422327       0.00640
  49    .09103        0.0227        0.0000        5.4450        5.4450       5.422317       0.00627
  48    0.1069        0.0227        0.0000        5.4450        5.4450       5.422305       0.00613
  47    0.1255        0.0227        0.0000        5.4450        5.4450       5.422292       0.00599
  46    0.1487        0.0227        0.0000        5.4450        5.4450       5.422275       0.00608
  45    0.1794        0.0227        0.0000        5.4450        5.4450       5.422253       0.00625
  44    0.2165        0.0227        0.0000        5.4449        5.4449       5.422226       0.00612
  43    0.2613        0.0227        0.0000        5.4449        5.4449       5.422194       0.00600
  42    0.3336        0.0227        0.0000        5.4448        5.4448       5.422141       0.00617
  41    0.4307        0.0227        0.0000        5.4448        5.4448       5.422070       0.00620
  40    0.5894        0.0227        0.0000        5.4446        5.4446       5.421950       0.00637
  39     1.339        0.0227        0.0000        5.4439        5.4439       5.421242       0.00797
  38     1.782        0.0227        0.0000        5.4434        5.4434       5.420699       0.01034
  37     2.292        0.0227        0.0000        5.4427        5.4427       5.419984       0.01186
  36     2.964        0.0227        0.0000        5.4416        5.4416       5.418945       0.01304
  35     3.853        0.0227        0.0000        5.4402        5.4402       5.417468       0.01402
  34     5.035        0.0227        0.0000        5.4381        5.4381       5.415412       0.01468
  33     6.613        0.0227        0.0000        5.4353        5.4353       5.412631       0.01487
  32     8.786        0.0227        0.0000        5.4317        5.4317       5.408999       0.01411
  31     11.80        0.0227        0.0000        5.4269        5.4269       5.404219       0.01338
  30     15.07        0.0227        0.0000        5.4224        5.4224       5.399693       0.01169
  29     18.79        0.0227        0.0000        5.4180        5.4180       5.395282       0.01000
  28     23.16        0.0227        0.0000        5.4135        5.4135       5.390797       0.00867
  27     28.12        0.0227        0.0000        5.4088        5.4088       5.386150       0.00790
  26     33.73        0.0227        0.0000        5.4036        5.4036       5.380911       0.00788
  25     40.54        0.0227        0.0000        5.3966        5.3967       5.373972       0.00861
  24     48.69        0.0227        0.0000        5.3872        5.3872       5.364499       0.00980
  23     57.69        0.0227        0.0000        5.3754        5.3754       5.352720       0.01104
  22     68.43        0.0227        0.0000        5.3599        5.3599       5.337239       0.01217
  21     81.20        0.0227        0.0000        5.3401        5.3401       5.317415       0.01310
  20     96.49        0.0227        0.0000        5.3155        5.3155       5.292863       0.01355
  19     114.6        0.0227        0.0000        5.2853        5.2853       5.262684       0.01409
  18     136.5        0.0227        0.0000        5.2504        5.2505       5.227802       0.01341
  17     162.9        0.0226        0.0001        5.2111        5.2111       5.188494       0.01256
  16     196.4        0.0226        0.0001        5.1640        5.1641       5.141461       0.01184
  15     218.7        0.0226        0.0001        5.1331        5.1332       5.110543       0.01174
  14     243.0        0.0226        0.0001        5.0962        5.0963       5.073661       0.01279
  13     269.0        0.0226        0.0001        5.0511        5.0512       5.028542       0.01464
  12     297.5        0.0227        0.0001        4.9956        4.9957       4.973056       0.01646
  11     328.5        0.0227        0.0001        4.9304        4.9305       4.907818       0.01774
  10     361.9        0.0227        0.0001        4.8511        4.8512       4.828532       0.02006
   9     398.1        0.0227        0.0001        4.7507        4.7508       4.728093       0.02340
   8     437.6        0.0228        0.0001        4.6220        4.6222       4.599405       0.02751
   7     480.5        0.0228        0.0001        4.4625        4.4626       4.439785       0.03135
   6     533.0        0.0230        0.0002        4.2460        4.2462       4.223237       0.03484
   5     589.8        0.0231        0.0002        3.9954        3.9956       3.972429       0.03723
   4     651.6        0.0234        0.0002        3.7089        3.7090       3.685594       0.03923
   3     718.7        0.0239        0.0002        3.4018        3.4020       3.378101       0.03864
   2     792.3        0.0246        0.0002        3.0564        3.0566       3.031955       0.03970
   1     891.5        0.0264        0.0002        2.5828        2.5830       2.556610       0.04045
   0    1013.0        0.0304        0.0001        2.0845        2.0847       2.054225       0.03488



 Wavenumbers:  3250. -  4000. cm-1, ATM      1
 LEVEL PRESSURE   UPWARD FLUX   DIFDOWN FLUX  DIRDOWN FLUX  DOWNWARD FLUX   NET FLUX    HEATING RATE
          mb          W/m2          W/m2          W/m2        W/m2          W/m2       degree/day
  51    .06700        0.0005        0.0000        9.1795        9.1795       9.179064       0.00000
  50    .07753        0.0005        0.0000        9.1747        9.1747       9.174222       3.88148
  49    .09103        0.0005        0.0000        9.1713        9.1713       9.170834       2.11747
  48    0.1069        0.0005        0.0000        9.1688        9.1688       9.168309       1.34402
  47    0.1255        0.0005        0.0000        9.1665        9.1665       9.166050       1.02422
  46    0.1487        0.0005        0.0000        9.1641        9.1641       9.163608       0.88991
  45    0.1794        0.0005        0.0000        9.1612        9.1612       9.160730       0.79008
  44    0.2165        0.0005        0.0000        9.1583        9.1583       9.157810       0.66430
  43    0.2613        0.0005        0.0000        9.1553        9.1553       9.154837       0.56041
  42    0.3336        0.0005        0.0000        9.1511        9.1511       9.150658       0.48723
  41    0.4307        0.0005        0.0000        9.1464        9.1464       9.145890       0.41459
  40    0.5894        0.0005        0.0000        9.1393        9.1394       9.138884       0.37255
  39     1.339        0.0005        0.0000        9.1127        9.1127       9.112271       0.29962
  38     1.782        0.0005        0.0000        9.1011        9.1011       9.100682       0.22062
  37     2.292        0.0005        0.0000        9.0901        9.0901       9.089616       0.18329
  36     2.964        0.0005        0.0000        9.0776        9.0776       9.077186       0.15603
  35     3.853        0.0005        0.0000        9.0629        9.0629       9.062396       0.14036
  34     5.035        0.0005        0.0000        9.0441        9.0441       9.043657       0.13386
  33     6.613        0.0005        0.0000        9.0191        9.0191       9.018655       0.13366
  32     8.786        0.0005        0.0000        8.9843        8.9843       8.983872       0.13509
  31     11.80        0.0004        0.0000        8.9327        8.9327       8.932255       0.14451
  30     15.07        0.0004        0.0000        8.8758        8.8759       8.875410       0.14676
  29     18.79        0.0004        0.0000        8.8110        8.8110       8.810583       0.14698
  28     23.16        0.0004        0.0000        8.7365        8.7366       8.736138       0.14395
  27     28.12        0.0004        0.0000        8.6554        8.6555       8.655025       0.13789
  26     33.73        0.0004        0.0000        8.5719        8.5719       8.571526       0.12554
  25     40.54        0.0004        0.0001        8.4812        8.4812       8.480802       0.11255
  24     48.69        0.0004        0.0001        8.3838        8.3839       8.383501       0.10069
  23     57.69        0.0004        0.0001        8.2861        8.2862       8.285765       0.09161
  22     68.43        0.0004        0.0001        8.1751        8.1751       8.174769       0.08726
  21     81.20        0.0004        0.0001        8.0457        8.0458       8.045411       0.08548
  20     96.49        0.0003        0.0001        7.8949        7.8950       7.894707       0.08318
  19     114.6        0.0003        0.0001        7.7162        7.7163       7.715998       0.08344
  18     136.5        0.0003        0.0002        7.5193        7.5194       7.519154       0.07569
  17     162.9        0.0003        0.0002        7.2913        7.2915       7.291263       0.07284
  16     196.4        0.0002        0.0002        6.9660        6.9662       6.965991       0.08187
  15     218.7        0.0002        0.0002        6.6648        6.6650       6.664802       0.11435
  14     243.0        0.0002        0.0002        6.2619        6.2622       6.262008       0.13970
  13     269.0        0.0002        0.0003        5.7576        5.7579       5.757708       0.16359
  12     297.5        0.0001        0.0003        5.1719        5.1722       5.172018       0.17371
  11     328.5        0.0001        0.0002        4.5757        4.5760       4.575858       0.16209
  10     361.9        0.0001        0.0002        3.9995        3.9998       3.999684       0.14578
   9     398.1        0.0001        0.0002        3.4655        3.4657       3.465628       0.12442
   8     437.6        0.0001        0.0002        2.9740        2.9742       2.974182       0.10507
   7     480.5        0.0001        0.0002        2.5307        2.5309       2.530811       0.08708
   6     533.0        0.0000        0.0002        2.0614        2.0616       2.061519       0.07549
   5     589.8        0.0000        0.0002        1.6150        1.6151       1.615096       0.06626
   4     651.6        0.0000        0.0001        1.1565        1.1566       1.156563       0.06271
   3     718.7        0.0000        0.0001        0.7390        0.7391       0.739090       0.05246
   2     792.3        0.0000        0.0001        0.3985        0.3985       0.398509       0.03906
   1     891.5        0.0000        0.0000        0.1139        0.1139       0.113927       0.02422
   0    1013.0        0.0002        0.0000        0.0094        0.0094       0.009173       0.00727



 Wavenumbers:  4000. -  4650. cm-1, ATM      
 LEVEL PRESSURE   UPWARD FLUX   DIFDOWN FLUX  DIRDOWN FLUX  DOWNWARD FLUX   NET FLUX    HEATING RATE
          mb          W/m2          W/m2          W/m2        W/m2          W/m2       degree/day
  51    .06700        0.5470        0.0000       10.7795       10.7795      10.232493       0.00000
  50    .07753        0.5470        0.0000       10.7795       10.7795      10.232492       0.00080
  49    .09103        0.5470        0.0000       10.7795       10.7795      10.232491       0.00078
  48    0.1069        0.5470        0.0000       10.7795       10.7795      10.232490       0.00076
  47    0.1255        0.5470        0.0000       10.7795       10.7795      10.232488       0.00075
  46    0.1487        0.5470        0.0000       10.7795       10.7795      10.232486       0.00076
  45    0.1794        0.5470        0.0000       10.7795       10.7795      10.232483       0.00078
  44    0.2165        0.5470        0.0000       10.7795       10.7795      10.232480       0.00076
  43    0.2613        0.5470        0.0000       10.7795       10.7795      10.232476       0.00075
  42    0.3336        0.5470        0.0000       10.7795       10.7795      10.232469       0.00077
  41    0.4307        0.5470        0.0000       10.7795       10.7795      10.232460       0.00077
  40    0.5894        0.5470        0.0000       10.7795       10.7795      10.232445       0.00080
  39     1.339        0.5470        0.0000       10.7794       10.7794      10.232356       0.00101
  38     1.782        0.5470        0.0000       10.7793       10.7793      10.232286       0.00133
  37     2.292        0.5470        0.0000       10.7792       10.7792      10.232192       0.00156
  36     2.964        0.5470        0.0000       10.7791       10.7791      10.232052       0.00176
  35     3.853        0.5470        0.0000       10.7789       10.7789      10.231844       0.00197
  34     5.035        0.5470        0.0000       10.7786       10.7786      10.231537       0.00219
  33     6.613        0.5470        0.0000       10.7781       10.7781      10.231086       0.00241
  32     8.786        0.5470        0.0000       10.7774       10.7774      10.230420       0.00259
  31     11.80        0.5470        0.0000       10.7763       10.7764      10.229374       0.00293
  30     15.07        0.5470        0.0001       10.7751       10.7751      10.228148       0.00317
  29     18.79        0.5470        0.0001       10.7736       10.7737      10.226666       0.00336
  28     23.16        0.5470        0.0001       10.7717       10.7718      10.224826       0.00356
  27     28.12        0.5470        0.0001       10.7695       10.7696      10.222601       0.00378
  26     33.73        0.5469        0.0001       10.7667       10.7668      10.219859       0.00412
  25     40.54        0.5469        0.0001       10.7629       10.7631      10.216142       0.00461
  24     48.69        0.5469        0.0002       10.7579       10.7581      10.211196       0.00512
  23     57.69        0.5469        0.0002       10.7520       10.7522      10.205338       0.00549
  22     68.43        0.5468        0.0002       10.7446       10.7448      10.198007       0.00576
  21     81.20        0.5468        0.0003       10.7355       10.7358      10.188994       0.00596
  20     96.49        0.5468        0.0004       10.7245       10.7248      10.178049       0.00604
  19     114.6        0.5467        0.0004       10.7107       10.7111      10.164394       0.00638
  18     136.5        0.5467        0.0005       10.6942       10.6947      10.147987       0.00631
  17     162.9        0.5467        0.0006       10.6740       10.6746      10.127940       0.00641
  16     196.4        0.5466        0.0007       10.6464       10.6471      10.100425       0.00693
  15     218.7        0.5466        0.0008       10.6255       10.6262      10.079593       0.00791
  14     243.0        0.5467        0.0009       10.5980       10.5989      10.052232       0.00949
  13     269.0        0.5468        0.0010       10.5611       10.5620      10.015268       0.01199
  12     297.5        0.5470        0.0011       10.5119       10.5130       9.966044       0.01460
  11     328.5        0.5472        0.0012       10.4499       10.4510       9.903813       0.01692
  10     361.9        0.5476        0.0013       10.3702       10.3714       9.823852       0.02023
   9     398.1        0.5481        0.0014       10.2678       10.2692       9.721086       0.02394
   8     437.6        0.5487        0.0015       10.1390       10.1405       9.591798       0.02764
   7     480.5        0.5495        0.0016        9.9877        9.9893       9.439838       0.02984
   6     533.0        0.5507        0.0018        9.7937        9.7955       9.244757       0.03138
   5     589.8        0.5524        0.0019        9.5752        9.5771       9.024668       0.03267
   4     651.6        0.5551        0.0021        9.2958        9.2979       8.742774       0.03855
   3     718.7        0.5593        0.0022        8.9267        8.9289       8.369611       0.04690
   2     792.3        0.5664        0.0023        8.4542        8.4565       7.890170       0.05499
   1     891.5        0.5827        0.0024        7.7948        7.7972       7.214541       0.05749
   0    1013.0        0.6208        0.0025        7.0767        7.0791       6.458308       0.05251



 Wavenumbers:  4650. -  5150. cm-1, ATM      1
 LEVEL PRESSURE   UPWARD FLUX   DIFDOWN FLUX  DIRDOWN FLUX  DOWNWARD FLUX   NET FLUX    HEATING RATE
          mb          W/m2          W/m2          W/m2        W/m2          W/m2       degree/day
  51    .06700        0.1066        0.0000       10.2033       10.2033      10.096778       0.00000
  50    .07753        0.1066        0.0000       10.2031       10.2031      10.096542       0.18901
  49    .09103        0.1066        0.0000       10.2028       10.2028      10.096248       0.18428
  48    0.1069        0.1066        0.0000       10.2025       10.2025      10.095911       0.17931
  47    0.1255        0.1066        0.0000       10.2021       10.2021      10.095526       0.17426
  46    0.1487        0.1066        0.0000       10.2016       10.2016      10.095045       0.17536
  45    0.1794        0.1066        0.0000       10.2010       10.2010      10.094395       0.17850
  44    0.2165        0.1066        0.0000       10.2002       10.2002      10.093636       0.17277
  43    0.2613        0.1066        0.0000       10.1993       10.1993      10.092750       0.16690
  42    0.3336        0.1066        0.0000       10.1979       10.1979      10.091318       0.16702
  41    0.4307        0.1066        0.0000       10.1960       10.1960      10.089477       0.16002
  40    0.5894        0.1066        0.0000       10.1932       10.1932      10.086603       0.15283
  39     1.339        0.1066        0.0000       10.1816       10.1816      10.075012       0.13050
  38     1.782        0.1066        0.0000       10.1760       10.1760      10.069484       0.10525
  37     2.292        0.1066        0.0000       10.1706       10.1706      10.064028       0.09036
  36     2.964        0.1065        0.0000       10.1646       10.1647      10.058105       0.07434
  35     3.853        0.1065        0.0000       10.1584       10.1584      10.051892       0.05896
  34     5.035        0.1065        0.0000       10.1521       10.1521      10.045559       0.04524
  33     6.613        0.1065        0.0000       10.1456       10.1456      10.039105       0.03450
  32     8.786        0.1065        0.0000       10.1386       10.1386      10.032100       0.02720
  31     11.80        0.1065        0.0001       10.1295       10.1296      10.023070       0.02528
  30     15.07        0.1065        0.0001       10.1196       10.1197      10.013205       0.02547
  29     18.79        0.1065        0.0001       10.1076       10.1077      10.001216       0.02718
  28     23.16        0.1064        0.0001       10.0923       10.0924       9.985937       0.02954
  27     28.12        0.1064        0.0002       10.0731       10.0733       9.966878       0.03240
  26     33.73        0.1064        0.0002       10.0500       10.0502       9.943828       0.03466
  25     40.54        0.1064        0.0002       10.0201       10.0203       9.913987       0.03702
  24     48.69        0.1063        0.0003        9.9820        9.9822       9.875903       0.03941
  23     57.69        0.1063        0.0003        9.9384        9.9388       9.832474       0.04071
  22     68.43        0.1062        0.0004        9.8858        9.8861       9.779891       0.04134
  21     81.20        0.1062        0.0004        9.8234        9.8239       9.717703       0.04109
  20     96.49        0.1061        0.0005        9.7518        9.7523       9.646163       0.03949
  19     114.6        0.1060        0.0006        9.6719        9.6725       9.566486       0.03720
  18     136.5        0.1060        0.0007        9.5858        9.5865       9.480556       0.03304
  17     162.9        0.1059        0.0008        9.4940        9.4949       9.389022       0.02926
  16     196.4        0.1057        0.0010        9.3883        9.3893       9.283530       0.02655
  15     218.7        0.1057        0.0011        9.3229        9.3240       9.218343       0.02475
  14     243.0        0.1056        0.0012        9.2520        9.2532       9.147577       0.02454
  13     269.0        0.1056        0.0013        9.1717        9.1730       9.067435       0.02600
  12     297.5        0.1055        0.0015        9.0763        9.0777       8.972216       0.02824
  11     328.5        0.1055        0.0016        8.9650        8.9666       8.861053       0.03022
  10     361.9        0.1055        0.0017        8.8349        8.8367       8.731125       0.03287
   9     398.1        0.1056        0.0019        8.6820        8.6839       8.578317       0.03560
   8     437.6        0.1057        0.0020        8.5028        8.5048       8.399143       0.03831
   7     480.5        0.1059        0.0022        8.2948        8.2970       8.191127       0.04085
   6     533.0        0.1062        0.0023        8.0209        8.0232       7.917050       0.04409
   5     589.8        0.1067        0.0025        7.7063        7.7088       7.602145       0.04674
   4     651.6        0.1075        0.0026        7.3412        7.3439       7.236367       0.05002
   3     718.7        0.1088        0.0027        6.9387        6.9414       6.832621       0.05074
   2     792.3        0.1109        0.0028        6.5066        6.5094       6.398576       0.04978
   1     891.5        0.1153        0.0029        5.9361        5.9390       5.823655       0.04892
   0    1013.0        0.1247        0.0030        5.3025        5.3055       5.180789       0.04464



 Wavenumbers:  5150. -  6150. cm-1, ATM      1
 LEVEL PRESSURE   UPWARD FLUX   DIFDOWN FLUX  DIRDOWN FLUX  DOWNWARD FLUX   NET FLUX    HEATING RATE
          mb          W/m2          W/m2          W/m2        W/m2          W/m2       degree/day
  51    .06700        1.2450        0.0000       25.5798       25.5798      24.334785       0.00000
  50    .07753        1.2450        0.0000       25.5798       25.5798      24.334745       0.03156
  49    .09103        1.2450        0.0000       25.5797       25.5797      24.334694       0.03204
  48    0.1069        1.2450        0.0000       25.5797       25.5797      24.334633       0.03255
  47    0.1255        1.2450        0.0000       25.5796       25.5796      24.334560       0.03305
  46    0.1487        1.2450        0.0000       25.5795       25.5795      24.334464       0.03483
  45    0.1794        1.2450        0.0000       25.5794       25.5794      24.334329       0.03707
  44    0.2165        1.2450        0.0000       25.5792       25.5792      24.334164       0.03763
  43    0.2613        1.2450        0.0000       25.5790       25.5790      24.333961       0.03821
  42    0.3336        1.2450        0.0000       25.5786       25.5786      24.333615       0.04037
  41    0.4307        1.2450        0.0000       25.5782       25.5782      24.333144       0.04092
  40    0.5894        1.2450        0.0000       25.5774       25.5774      24.332356       0.04192
  39     1.339        1.2450        0.0000       25.5735       25.5736      24.328559       0.04275
  38     1.782        1.2450        0.0000       25.5713       25.5713      24.326349       0.04207
  37     2.292        1.2450        0.0001       25.5688       25.5688      24.323849       0.04141
  36     2.964        1.2450        0.0001       25.5656       25.5656      24.320673       0.03987
  35     3.853        1.2450        0.0001       25.5615       25.5616      24.316638       0.03829
  34     5.035        1.2449        0.0001       25.5562       25.5564      24.311444       0.03711
  33     6.613        1.2449        0.0002       25.5494       25.5496      24.304708       0.03601
  32     8.786        1.2448        0.0002       25.5406       25.5408      24.295982       0.03389
  31     11.80        1.2448        0.0003       25.5287       25.5290      24.284187       0.03302
  30     15.07        1.2447        0.0004       25.5167       25.5171      24.272366       0.03052
  29     18.79        1.2446        0.0005       25.5042       25.5046      24.260017       0.02800
  28     23.16        1.2445        0.0006       25.4907       25.4913      24.246725       0.02570
  27     28.12        1.2444        0.0007       25.4764       25.4772      24.232722       0.02380
  26     33.73        1.2443        0.0009       25.4620       25.4629      24.218552       0.02131
  25     40.54        1.2442        0.0010       25.4463       25.4473      24.203087       0.01919
  24     48.69        1.2440        0.0012       25.4294       25.4306      24.186568       0.01709
  23     57.69        1.2439        0.0015       25.4126       25.4141      24.170209       0.01533
  22     68.43        1.2437        0.0017       25.3944       25.3962      24.152491       0.01393
  21     81.20        1.2434        0.0021       25.3744       25.3765      24.133038       0.01285
  20     96.49        1.2432        0.0025       25.3519       25.3544      24.111219       0.01204
  19     114.6        1.2429        0.0029       25.3262       25.3291      24.086232       0.01167
  18     136.5        1.2425        0.0035       25.2962       25.2997      24.057180       0.01117
  17     162.9        1.2420        0.0041       25.2521       25.2562      24.014179       0.01374
  16     196.4        1.2415        0.0049       25.1593       25.1642      23.922774       0.02301
  15     218.7        1.2411        0.0055       25.0159       25.0214      23.780298       0.05409
  14     243.0        1.2407        0.0060       24.7089       24.7149      23.474194       0.10617
  13     269.0        1.2404        0.0065       24.1619       24.1684      22.928015       0.17718
  12     297.5        1.2400        0.0070       23.4544       23.4614      22.221383       0.20958
  11     328.5        1.2397        0.0075       22.7355       22.7430      21.503283       0.19525
  10     361.9        1.2394        0.0080       21.9224       21.9304      20.691006       0.20551
   9     398.1        1.2392        0.0085       20.9939       21.0024      19.763153       0.21617
   8     437.6        1.2391        0.0089       19.9833       19.9922      18.753080       0.21596
   7     480.5        1.2392        0.0093       18.9483       18.9576      17.718385       0.20321
   6     533.0        1.2395        0.0097       17.7796       17.7893      16.549771       0.18799
   5     589.8        1.2403        0.0101       16.6726       16.6826      15.442312       0.16438
   4     651.6        1.2422        0.0105       15.6343       15.6448      14.402515       0.14220
   3     718.7        1.2460        0.0109       14.7738       14.7847      13.538714       0.10856
   2     792.3        1.2533        0.0114       14.0291       14.0406      12.787263       0.08618
   1     891.5        1.2726        0.0121       13.0822       13.0943      11.821643       0.08217
   0    1013.0        1.3280        0.0127       12.0384       12.0511      10.723052       0.07628



 Wavenumbers:  6150. -  7700. cm-1, ATM      1
 LEVEL PRESSURE   UPWARD FLUX   DIFDOWN FLUX  DIRDOWN FLUX  DOWNWARD FLUX   NET FLUX    HEATING RATE
          mb          W/m2          W/m2          W/m2        W/m2          W/m2       degree/day
  51    .06700        2.4230        0.0000       47.3109       47.3109      44.887861       0.00000
  50    .07753        2.4230        0.0000       47.3108       47.3108      44.887804       0.04553
  49    .09103        2.4230        0.0000       47.3107       47.3107      44.887731       0.04583
  48    0.1069        2.4230        0.0000       47.3106       47.3106      44.887644       0.04614
  47    0.1255        2.4230        0.0000       47.3105       47.3105      44.887542       0.04645
  46    0.1487        2.4230        0.0000       47.3104       47.3104      44.887409       0.04852
  45    0.1794        2.4230        0.0000       47.3102       47.3102      44.887222       0.05127
  44    0.2165        2.4230        0.0000       47.3100       47.3100      44.886995       0.05167
  43    0.2613        2.4230        0.0000       47.3097       47.3097      44.886718       0.05210
  42    0.3336        2.4230        0.0000       47.3092       47.3092      44.886249       0.05471
  41    0.4307        2.4230        0.0000       47.3085       47.3086      44.885614       0.05521
  40    0.5894        2.4229        0.0001       47.3074       47.3075      44.884555       0.05633
  39     1.339        2.4229        0.0001       47.3022       47.3023      44.879463       0.05733
  38     1.782        2.4228        0.0002       47.2991       47.2993      44.876492       0.05655
  37     2.292        2.4228        0.0002       47.2956       47.2959      44.873117       0.05591
  36     2.964        2.4227        0.0003       47.2912       47.2915      44.868798       0.05421
  35     3.853        2.4226        0.0004       47.2855       47.2859      44.863264       0.05252
  34     5.035        2.4225        0.0005       47.2780       47.2786      44.856084       0.05129
  33     6.613        2.4223        0.0007       47.2683       47.2690      44.846696       0.05019
  32     8.786        2.4221        0.0009       47.2556       47.2565      44.834397       0.04776
  31     11.80        2.4218        0.0013       47.2380       47.2393      44.817494       0.04732
  30     15.07        2.4215        0.0016       47.2201       47.2217      44.800207       0.04463
  29     18.79        2.4211        0.0020       47.2008       47.2028      44.781729       0.04190
  28     23.16        2.4207        0.0025       47.1795       47.1820      44.761340       0.03943
  27     28.12        2.4202        0.0030       47.1565       47.1595      44.739349       0.03738
  26     33.73        2.4196        0.0036       47.1324       47.1361      44.716430       0.03446
  25     40.54        2.4189        0.0044       47.1054       47.1097      44.690798       0.03180
  24     48.69        2.4181        0.0053       47.0754       47.0807      44.662550       0.02923
  23     57.69        2.4172        0.0062       47.0449       47.0512      44.633934       0.02682
  22     68.43        2.4162        0.0074       47.0110       47.0184      44.602206       0.02494
  21     81.20        2.4149        0.0087       46.9729       46.9816      44.566724       0.02345
  20     96.49        2.4134        0.0104       46.9294       46.9398      44.526400       0.02226
  19     114.6        2.4116        0.0123       46.8790       46.8913      44.479793       0.02176
  18     136.5        2.4094        0.0146       46.8200       46.8346      44.425207       0.02099
  17     162.9        2.4068        0.0174       46.7361       46.7535      44.346655       0.02511
  16     196.4        2.4035        0.0209       46.5703       46.5912      44.187633       0.04003
  15     218.7        2.4014        0.0232       46.3473       46.3705      43.969092       0.08297
  14     243.0        2.3991        0.0255       45.9299       45.9554      43.556300       0.14317
  13     269.0        2.3967        0.0279       45.1708       45.1987      42.801917       0.24472
  12     297.5        2.3944        0.0301       44.0115       44.0416      41.647225       0.34247
  11     328.5        2.3920        0.0323       42.7242       42.7566      40.364604       0.34874
  10     361.9        2.3896        0.0346       41.3539       41.3885      38.998882       0.34554
   9     398.1        2.3875        0.0367       39.7953       39.8320      37.444515       0.36213
   8     437.6        2.3856        0.0386       37.9948       38.0334      35.647790       0.38415
   7     480.5        2.3842        0.0403       36.0647       36.1051      33.720847       0.37844
   6     533.0        2.3836        0.0421       33.7773       33.8194      31.435744       0.36760
   5     589.8        2.3850        0.0435       31.4082       31.4517      29.066722       0.35164
   4     651.6        2.3904        0.0444       28.8834       28.9278      26.537384       0.34589
   3     718.7        2.4028        0.0450       26.4104       26.4554      24.052592       0.31227
   2     792.3        2.4285        0.0454       24.0056       24.0510      21.622465       0.27871
   1     891.5        2.4973        0.0456       21.2348       21.2803      18.783053       0.24162
   0    1013.0        2.6853        0.0458       18.6150       18.6608      15.975546       0.19494



 Wavenumbers:  7700. -  8050. cm-1, ATM      1
 LEVEL PRESSURE   UPWARD FLUX   DIFDOWN FLUX  DIRDOWN FLUX  DOWNWARD FLUX   NET FLUX    HEATING RATE
          mb          W/m2          W/m2          W/m2        W/m2          W/m2       degree/day
  51    .06700        4.3254        0.0000       11.1810       11.1810       6.855524       0.00000
  50    .07753        4.3254        0.0000       11.1809       11.1809       6.855504       0.01649
  49    .09103        4.3254        0.0000       11.1809       11.1809       6.855478       0.01617
  48    0.1069        4.3254        0.0000       11.1809       11.1809       6.855448       0.01583
  47    0.1255        4.3255        0.0000       11.1809       11.1809       6.855414       0.01549
  46    0.1487        4.3255        0.0000       11.1808       11.1808       6.855371       0.01571
  45    0.1794        4.3255        0.0000       11.1808       11.1808       6.855312       0.01617
  44    0.2165        4.3255        0.0000       11.1807       11.1807       6.855242       0.01586
  43    0.2613        4.3255        0.0000       11.1806       11.1806       6.855160       0.01557
  42    0.3336        4.3255        0.0000       11.1805       11.1805       6.855023       0.01593
  41    0.4307        4.3255        0.0000       11.1803       11.1804       6.854842       0.01575
  40    0.5894        4.3256        0.0000       11.1801       11.1801       6.854546       0.01574
  39     1.339        4.3257        0.0001       11.1788       11.1789       6.853146       0.01576
  38     1.782        4.3258        0.0001       11.1781       11.1782       6.852324       0.01565
  37     2.292        4.3259        0.0001       11.1772       11.1773       6.851372       0.01576
  36     2.964        4.3261        0.0001       11.1761       11.1762       6.850123       0.01569
  35     3.853        4.3263        0.0002       11.1746       11.1748       6.848472       0.01566
  34     5.035        4.3266        0.0003       11.1726       11.1729       6.846280       0.01566
  33     6.613        4.3269        0.0003       11.1700       11.1703       6.843352       0.01565
  32     8.786        4.3274        0.0004       11.1664       11.1668       6.839408       0.01532
  31     11.80        4.3281        0.0006       11.1613       11.1619       6.833771       0.01578
  30     15.07        4.3289        0.0008       11.1558       11.1566       6.827725       0.01561
  29     18.79        4.3297        0.0010       11.1497       11.1506       6.820903       0.01547
  28     23.16        4.3307        0.0012       11.1425       11.1437       6.812948       0.01538
  27     28.12        4.3319        0.0014       11.1343       11.1358       6.803868       0.01544
  26     33.73        4.3332        0.0017       11.1252       11.1269       6.793730       0.01524
  25     40.54        4.3347        0.0021       11.1142       11.1163       6.781514       0.01515
  24     48.69        4.3366        0.0025       11.1010       11.1035       6.766838       0.01519
  23     57.69        4.3387        0.0029       11.0866       11.0895       6.750781       0.01505
  22     68.43        4.3413        0.0035       11.0695       11.0730       6.731746       0.01496
  21     81.20        4.3443        0.0041       11.0494       11.0535       6.709195       0.01490
  20     96.49        4.3479        0.0049       11.0255       11.0304       6.682504       0.01473
  19     114.6        4.3523        0.0058       10.9975       11.0033       6.651063       0.01468
  18     136.5        4.3575        0.0069       10.9648       10.9716       6.614140       0.01420
  17     162.9        4.3638        0.0082       10.9263       10.9345       6.570634       0.01391
  16     196.4        4.3722        0.0098       10.8773       10.8871       6.514923       0.01402
  15     218.7        4.3777        0.0109       10.8455       10.8564       6.478719       0.01375
  14     243.0        4.3839        0.0121       10.8114       10.8235       6.439652       0.01355
  13     269.0        4.3907        0.0134       10.7749       10.7882       6.397571       0.01365
  12     297.5        4.3982        0.0147       10.7357       10.7504       6.352272       0.01344
  11     328.5        4.4065        0.0162       10.6937       10.7100       6.303471       0.01327
  10     361.9        4.4157        0.0178       10.6489       10.6667       6.250962       0.01329
   9     398.1        4.4260        0.0195       10.6008       10.6203       6.194292       0.01320
   8     437.6        4.4376        0.0214       10.5491       10.5705       6.132894       0.01313
   7     480.5        4.4505        0.0234       10.4934       10.5168       6.066244       0.01309
   6     533.0        4.4675        0.0258       10.4243       10.4501       5.982556       0.01346
   5     589.8        4.4873        0.0284       10.3479       10.3763       5.888951       0.01389
   4     651.6        4.5112        0.0312       10.2613       10.2925       5.781352       0.01471
   3     718.7        4.5404        0.0341       10.1618       10.1959       5.655464       0.01582
   2     792.3        4.5776        0.0372       10.0439       10.0811       5.503558       0.01742
   1     891.5        4.6402        0.0413        9.8626        9.9039       5.263754       0.02041
   0    1013.0        4.7393        0.0460        9.6103        9.6563       4.917007       0.02408



 Wavenumbers:  8050. - 12850. cm-1, ATM      1
 LEVEL PRESSURE   UPWARD FLUX   DIFDOWN FLUX  DIRDOWN FLUX  DOWNWARD FLUX   NET FLUX    HEATING RATE
          mb          W/m2          W/m2          W/m2        W/m2          W/m2       degree/day
  51    .06700       85.7147        0.0000      156.5418      156.5418      70.827043       0.00000
  50    .07753       85.7147        0.0000      156.5417      156.5417      70.827043       0.00000
  49    .09103       85.7147        0.0001      156.5417      156.5417      70.827043      -0.00000
  48    0.1069       85.7147        0.0001      156.5416      156.5417      70.827043       0.00000
  47    0.1255       85.7146        0.0002      156.5415      156.5417      70.827043      -0.00000
  46    0.1487       85.7146        0.0002      156.5414      156.5417      70.827043       0.00000
  45    0.1794       85.7146        0.0003      156.5413      156.5416      70.827043       0.00000
  44    0.2165       85.7145        0.0004      156.5412      156.5416      70.827043      -0.00000
  43    0.2613       85.7145        0.0005      156.5410      156.5415      70.827043       0.00000
  42    0.3336       85.7144        0.0007      156.5407      156.5414      70.827043       0.00000
  41    0.4307       85.7143        0.0010      156.5403      156.5413      70.827043      -0.00000
  40    0.5894       85.7141        0.0014      156.5397      156.5411      70.827043       0.00000
  39     1.339       85.7132        0.0035      156.5367      156.5402      70.827043      -0.00000
  38     1.782       85.7127        0.0047      156.5350      156.5397      70.827043      -0.00000
  37     2.292       85.7121        0.0061      156.5330      156.5391      70.827043       0.00000
  36     2.964       85.7113        0.0080      156.5303      156.5383      70.827043       0.00000
  35     3.853       85.7103        0.0104      156.5268      156.5373      70.827043      -0.00000
  34     5.035       85.7089        0.0137      156.5222      156.5359      70.827043       0.00000
  33     6.613       85.7070        0.0181      156.5160      156.5341      70.827043       0.00000
  32     8.786       85.7045        0.0239      156.5076      156.5316      70.827043      -0.00000
  31     11.80       85.7009        0.0323      156.4957      156.5280      70.827043       0.00000
  30     15.07       85.6971        0.0413      156.4828      156.5241      70.827043       0.00000
  29     18.79       85.6927        0.0515      156.4682      156.5198      70.827043      -0.00000
  28     23.16       85.6876        0.0635      156.4512      156.5147      70.827043      -0.00000
  27     28.12       85.6818        0.0771      156.4317      156.5088      70.827043       0.00000
  26     33.73       85.6753        0.0925      156.4099      156.5023      70.827043       0.00000
  25     40.54       85.6674        0.1110      156.3834      156.4944      70.827043       0.00000
  24     48.69       85.6578        0.1333      156.3515      156.4849      70.827043       0.00000
  23     57.69       85.6473        0.1579      156.3164      156.4744      70.827043      -0.00000
  22     68.43       85.6348        0.1873      156.2746      156.4618      70.827043       0.00000
  21     81.20       85.6199        0.2223      156.2246      156.4469      70.827043      -0.00000
  20     96.49       85.6020        0.2641      156.1649      156.4290      70.827043       0.00000
  19     114.6       85.5809        0.3138      156.0879      156.4018      70.820847       0.00289
  18     136.5       85.5559        0.3729      155.9962      156.3691      70.813160       0.00296
  17     162.9       85.5260        0.4434      155.8831      156.3264      70.800396       0.00408
  16     196.4       85.4873        0.5350      155.7199      156.2549      70.767659       0.00824
  15     218.7       85.4620        0.5953      155.5733      156.1686      70.706619       0.02317
  14     243.0       85.4348        0.6608      155.3367      155.9974      70.562620       0.04994
  13     269.0       85.4064        0.7316      154.9514      155.6830      70.276576       0.09279
  12     297.5       85.3778        0.8078      154.3896      155.1975      69.819643       0.13552
  11     328.5       85.3495        0.8900      153.7151      154.6051      69.255631       0.15335
  10     361.9       85.3229        0.9782      152.9087      153.8870      68.564102       0.17496
   9     398.1       85.3001        1.0725      151.8986      152.9711      67.671008       0.20807
   8     437.6       85.2852        1.1728      150.6031      151.7759      66.490752       0.25235
   7     480.5       85.2827        1.2788      149.0014      150.2802      64.997453       0.29328
   6     533.0       85.3052        1.4069      146.7375      148.1445      62.839318       0.34718
   5     589.8       85.3759        1.5411      143.8730      145.4141      60.038187       0.41578
   4     651.6       85.5491        1.6787      140.0955      141.7742      56.225061       0.52146
   3     718.7       85.8948        1.8184      135.5278      137.3461      51.451296       0.59993
   2     792.3       86.5668        1.9568      130.0690      132.0258      45.458997       0.68725
   1     891.5       88.2766        2.1244      122.1273      124.2517      35.975034       0.80704
   0    1013.0       92.4580        2.3043      112.9512      115.2556      22.797550       0.91498



 Wavenumbers: 12850. - 16000. cm-1, ATM      1
 LEVEL PRESSURE   UPWARD FLUX   DIFDOWN FLUX  DIRDOWN FLUX  DOWNWARD FLUX   NET FLUX    HEATING RATE
          mb          W/m2          W/m2          W/m2        W/m2          W/m2       degree/day
  51    .06700       78.0752        0.0000       98.0872       98.0872      20.012017       0.00000
  50    .07753       78.0752        0.0001       98.0864       98.0864      20.011226       0.63425
  49    .09103       78.0752        0.0002       98.0853       98.0854      20.010232       0.62115
  48    0.1069       78.0752        0.0003       98.0841       98.0843      20.009090       0.60778
  47    0.1255       78.0752        0.0004       98.0826       98.0830      20.007779       0.59471
  46    0.1487       78.0753        0.0005       98.0809       98.0814      20.006123       0.60344
  45    0.1794       78.0753        0.0007       98.0784       98.0792      20.003871       0.61820
  44    0.2165       78.0754        0.0010       98.0756       98.0766      20.001222       0.60255
  43    0.2613       78.0755        0.0012       98.0723       98.0736      19.998108       0.58710
  42    0.3336       78.0757        0.0017       98.0670       98.0687      19.993025       0.59264
  41    0.4307       78.0761        0.0023       98.0602       98.0625      19.986452       0.57146
  40    0.5894       78.0768        0.0033       98.0496       98.0529      19.976098       0.55064
  39     1.339       78.0832        0.0081       98.0043       98.0125      19.929218       0.52778
  38     1.782       78.0891        0.0109       97.9793       97.9902      19.901100       0.53533
  37     2.292       78.0979        0.0142       97.9498       97.9639      19.866096       0.57975
  36     2.964       78.1123        0.0184       97.9088       97.9272      19.814918       0.64244
  35     3.853       78.1357        0.0241       97.8503       97.8744      19.738725       0.72308
  34     5.035       78.1708        0.0315       97.7680       97.7995      19.628688       0.78606
  33     6.613       78.2199        0.0415       97.6562       97.6977      19.477778       0.80677
  32     8.786       78.2838        0.0549       97.5107       97.5656      19.281783       0.76117
  31     11.80       78.3670        0.0741       97.3179       97.3920      19.024957       0.71903
  30     15.07       78.4468        0.0947       97.1283       97.2231      18.776262       0.64208
  29     18.79       78.5283        0.1180       96.9300       97.0480      18.519721       0.58166
  28     23.16       78.6135        0.1451       96.7166       96.8617      18.248170       0.52509
  27     28.12       78.6993        0.1761       96.4935       96.6696      17.970244       0.47246
  26     33.73       78.7788        0.2108       96.2731       96.4839      17.705080       0.39868
  25     40.54       78.8556        0.2527       96.0408       96.2935      17.437916       0.33145
  24     48.69       78.9294        0.3032       95.7946       96.0978      17.168402       0.27890
  23     57.69       78.9924        0.3587       95.5573       95.9160      16.923643       0.22942
  22     68.43       79.0477        0.4249       95.3106       95.7355      16.687777       0.18542
  21     81.20       79.0867        0.5038       95.0643       95.5682      16.481408       0.13637
  20     96.49       79.1083        0.5980       94.8153       95.4132      16.304912       0.09741
  19     114.6       79.1354        0.7110       94.5411       95.2520      16.116606       0.08793
  18     136.5       79.1561        0.8449       94.2320       95.0770      15.920865       0.07527
  17     162.9       79.1702        1.0044       93.8753       94.8798      15.709575       0.06754
  16     196.4       79.1661        1.2113       93.4347       94.6460      15.479835       0.05783
  15     218.7       79.1554        1.3472       93.1513       94.4984      15.343018       0.05194
  14     243.0       79.1403        1.4948       92.8439       94.3388      15.198484       0.05013
  13     269.0       79.1206        1.6548       92.5111       94.1660      15.045390       0.04966
  12     297.5       79.0967        1.8278       92.1495       93.9773      14.880524       0.04890
  11     328.5       79.0707        2.0146       91.7554       93.7700      14.699383       0.04925
  10     361.9       79.0431        2.2158       91.3262       93.5420      14.498980       0.05070
   9     398.1       79.0152        2.4323       90.8575       93.2899      14.274719       0.05225
   8     437.6       78.9895        2.6648       90.3418       93.0066      14.017094       0.05508
   7     480.5       78.9684        2.9138       89.7728       92.6866      13.718159       0.05871
   6     533.0       78.9555        3.2200       89.0428       92.2629      13.307366       0.06608
   5     589.8       78.9663        3.5493       88.2038       91.7531      12.786843       0.07726
   4     651.6       79.0290        3.9013       87.1979       91.0993      12.070221       0.09800
   3     718.7       79.1623        4.2744       86.0161       90.2906      11.128289       0.11837
   2     792.3       79.4259        4.6649       84.5970       89.2619       9.836009       0.14821
   1     891.5       80.0684        5.1733       82.4374       87.6107       7.542269       0.19519
   0    1013.0       81.4140        5.7572       79.6182       85.3754       3.961419       0.24864



 Wavenumbers: 16000. - 22650. cm-1, ATM      1
 LEVEL PRESSURE   UPWARD FLUX   DIFDOWN FLUX  DIRDOWN FLUX  DOWNWARD FLUX   NET FLUX    HEATING RATE
          mb          W/m2          W/m2          W/m2        W/m2          W/m2       degree/day
  51    .06700      139.7019        0.0000      156.3892      156.3892      16.687319       0.00000
  50    .07753      139.7019        0.0004      156.3887      156.3891      16.687172       0.11770
  49    .09103      139.7019        0.0009      156.3879      156.3888      16.686959       0.13350
  48    0.1069      139.7019        0.0015      156.3871      156.3885      16.686673       0.15223
  47    0.1255      139.7019        0.0021      156.3861      156.3882      16.686290       0.17352
  46    0.1487      139.7019        0.0029      156.3847      156.3877      16.685726       0.20562
  45    0.1794      139.7021        0.0041      156.3828      156.3869      16.684844       0.24210
  44    0.2165      139.7023        0.0054      156.3805      156.3859      16.683648       0.27209
  43    0.2613      139.7026        0.0070      156.3776      156.3846      16.682025       0.30590
  42    0.3336      139.7033        0.0096      156.3726      156.3823      16.678940       0.35973
  41    0.4307      139.7045        0.0131      156.3657      156.3788      16.674289       0.40438
  40    0.5894      139.7071        0.0188      156.3537      156.3725      16.665419       0.47169
  39     1.339      139.7292        0.0457      156.2834      156.3291      16.599887       0.73777
  38     1.782      139.7498        0.0615      156.2324      156.2938      16.544063       1.06281
  37     2.292      139.7806        0.0798      156.1641      156.2439      16.463256       1.33837
  36     2.964      139.8319        0.1038      156.0605      156.1643      16.332349       1.64328
  35     3.853      139.9149        0.1354      155.9041      156.0395      16.124632       1.97127
  34     5.035      140.0401        0.1775      155.6774      155.8548      15.814739       2.21375
  33     6.613      140.2151        0.2336      155.3656      155.5992      15.384084       2.30228
  32     8.786      140.4430        0.3091      154.9577      155.2667      14.823716       2.17627
  31     11.80      140.7396        0.4169      154.4153      154.8322      14.092599       2.04690
  30     15.07      141.0236        0.5325      153.8804      154.4129      13.389310       1.81576
  29     18.79      141.3135        0.6629      153.3191      153.9820      12.668525       1.63424
  28     23.16      141.6163        0.8150      152.7126      153.5275      11.911190       1.46444
  27     28.12      141.9210        0.9886      152.0755      153.0641      11.143152       1.30561
  26     33.73      142.2019        1.1828      151.4409      152.6237      10.421758       1.08463
  25     40.54      142.4720        1.4171      150.7637      152.1808       9.708786       0.88452
  24     48.69      142.7302        1.6993      150.0338      151.7331       9.002957       0.73042
  23     57.69      142.9486        2.0089      149.3151      151.3241       8.375426       0.58822
  22     68.43      143.1385        2.3773      148.5476      150.9249       7.786360       0.46308
  21     81.20      143.2684        2.8158      147.7517      150.5675       7.299082       0.32199
  20     96.49      143.3338        3.3379      146.9127      150.2505       6.916704       0.21105
  19     114.6      143.3657        3.9559      145.9763      149.9322       6.566528       0.16351
  18     136.5      143.3724        4.6857      144.9088      149.5944       6.222057       0.13246
  17     162.9      143.3521        5.5506      143.6785      149.2291       5.877009       0.11029
  16     196.4      143.2649        6.6665      142.1651      148.8316       5.566687       0.07811
  15     218.7      143.1853        7.3957      141.2033      148.5991       5.413815       0.05804
  14     243.0      143.0885        8.1850      140.1753      148.3603       5.271839       0.04924
  13     269.0      142.9729        9.0364      139.0797      148.1161       5.143174       0.04174
  12     297.5      142.8379        9.9521      137.9141      147.8662       5.028206       0.03410
  11     328.5      142.6875       10.9362      136.6676      147.6038       4.916355       0.03041
  10     361.9      142.5212       11.9898      135.3392      147.3290       4.807770       0.02747
   9     398.1      142.3387       13.1168      133.9235      147.0403       4.701579       0.02474
   8     437.6      142.1408       14.3192      132.4163      146.7354       4.594677       0.02286
   7     480.5      141.9270       15.5991      130.8147      146.4138       4.486797       0.02119
   6     533.0      141.6639       17.1624      128.8599      146.0223       4.358374       0.02066
   5     589.8      141.3841       18.8325      126.7679      145.6005       4.216426       0.02107
   4     651.6      141.0935       20.6112      124.5274      145.1387       4.045188       0.02342
   3     718.7      140.7981       22.5001      122.1285      144.6286       3.830521       0.02698
   2     792.3      140.5141       24.4971      119.5548      144.0520       3.537835       0.03357
   1     891.5      140.2091       27.1478      116.0566      143.2044       2.995249       0.04617
   0    1013.0      139.9710       30.2621      111.8404      142.1025       2.131538       0.05997



 Wavenumbers: 22650. - 29000. cm-1, ATM      1
 LEVEL PRESSURE   UPWARD FLUX   DIFDOWN FLUX  DIRDOWN FLUX  DOWNWARD FLUX   NET FLUX    HEATING RATE
          mb          W/m2          W/m2          W/m2        W/m2          W/m2       degree/day
  51    .06700       58.5385        0.0000       59.0156       59.0156       0.477098       0.00000
  50    .07753       58.5384        0.0005       59.0151       59.0155       0.477098      -0.00000
  49    .09103       58.5383        0.0010       59.0144       59.0154       0.477098       0.00000
  48    0.1069       58.5382        0.0017       59.0136       59.0153       0.477098       0.00000
  47    0.1255       58.5380        0.0025       59.0127       59.0151       0.477098       0.00000
  46    0.1487       58.5378        0.0034       59.0115       59.0149       0.477098      -0.00000
  45    0.1794       58.5376        0.0048       59.0099       59.0147       0.477098      -0.00000
  44    0.2165       58.5373        0.0063       59.0080       59.0144       0.477098       0.00000
  43    0.2613       58.5369        0.0082       59.0058       59.0140       0.477098      -0.00000
  42    0.3336       58.5363        0.0113       59.0022       59.0134       0.477098       0.00000
  41    0.4307       58.5355        0.0153       58.9973       59.0126       0.477098      -0.00000
  40    0.5894       58.5343        0.0220       58.9894       59.0113       0.477098       0.00000
  39     1.339       58.5282        0.0535       58.9518       59.0053       0.477098       0.00000
  38     1.782       58.5246        0.0720       58.9297       59.0017       0.477098       0.00000
  37     2.292       58.5204        0.0934       58.9042       58.9975       0.477098       0.00000
  36     2.964       58.5150        0.1214       58.8706       58.9921       0.477098      -0.00000
  35     3.853       58.5078        0.1585       58.8264       58.9849       0.477098       0.00000
  34     5.035       58.4983        0.2078       58.7676       58.9754       0.477098       0.00000
  33     6.613       58.4855        0.2735       58.6891       58.9626       0.477098       0.00000
  32     8.786       58.4684        0.3621       58.5834       58.9455       0.477098      -0.00000
  31     11.80       58.4439        0.4885       58.4324       58.9210       0.477098       0.00000
  30     15.07       58.4176        0.6241       58.2706       58.8947       0.477098      -0.00000
  29     18.79       58.3880        0.7769       58.0882       58.8651       0.477098       0.00000
  28     23.16       58.3535        0.9549       57.8757       58.8306       0.477098      -0.00000
  27     28.12       58.3142        1.1580       57.6333       58.7913       0.477098       0.00000
  26     33.73       58.2703        1.3844       57.3631       58.7474       0.477098      -0.00000
  25     40.54       58.2175        1.6567       57.0379       58.6946       0.477098       0.00000
  24     48.69       58.1542        1.9834       56.6479       58.6313       0.477098       0.00000
  23     57.69       58.0851        2.3401       56.2221       58.5622       0.477098      -0.00000
  22     68.43       58.0033        2.7618       55.7186       58.4804       0.477098       0.00000
  21     81.20       57.9067        3.2599       55.1239       58.3838       0.477098      -0.00000
  20     96.49       57.7928        3.8471       54.4228       58.2699       0.477098       0.00000
  19     114.6       57.6592        4.5353       53.6010       58.1363       0.477098       0.00000
  18     136.5       57.5033        5.3386       52.6418       57.9804       0.477098      -0.00000
  17     162.9       57.3209        6.2776       51.5203       57.7980       0.477098       0.00000
  16     196.4       57.0897        7.4673       50.0994       57.5668       0.477098      -0.00000
  15     218.7       56.9410        8.2318       49.1863       57.4181       0.477098       0.00000
  14     243.0       56.7822        9.0480       48.2113       57.2593       0.477098       0.00000
  13     269.0       56.6133        9.9155       47.1749       57.0904       0.477098      -0.00000
  12     297.5       56.4345       10.8333       46.0783       56.9116       0.477098      -0.00000
  11     328.5       56.2455       11.8030       44.9195       56.7226       0.477098       0.00000
  10     361.9       56.0467       12.8219       43.7018       56.5238       0.477098       0.00000
   9     398.1       55.8381       13.8902       42.4250       56.3152       0.477098       0.00000
   8     437.6       55.6201       15.0055       41.0916       56.0972       0.477098       0.00000
   7     480.5       55.3931       16.1657       39.7045       55.8702       0.477098      -0.00000
   6     533.0       55.1228       17.5456       38.0543       55.5999       0.477098       0.00000
   5     589.8       54.8421       18.9761       36.3431       55.3192       0.477098      -0.00000
   4     651.6       54.5524       20.4499       34.5795       55.0295       0.477098       0.00000
   3     718.7       54.2547       21.9615       32.7702       54.7318       0.477098      -0.00000
   2     792.3       53.9506       23.5021       30.9256       54.4277       0.477098       0.00000
   1     891.5       53.5625       25.4619       28.5778       54.0396       0.477098      -0.00000
   0    1013.0       53.1295       27.6401       25.9665       53.6066       0.477098       0.00000



 Wavenumbers: 29000. - 38000. cm-1, ATM      1
 LEVEL PRESSURE   UPWARD FLUX   DIFDOWN FLUX  DIRDOWN FLUX  DOWNWARD FLUX   NET FLUX    HEATING RATE
          mb          W/m2          W/m2          W/m2        W/m2          W/m2       degree/day
  51    .06700        8.7467        0.0000       20.8114       20.8114      12.064621       0.00000
  50    .07753        8.7466        0.0003       20.8070       20.8074      12.060814       3.05153
  49    .09103        8.7463        0.0007       20.8009       20.8016      12.055277       3.46082
  48    0.1069        8.7461        0.0012       20.7928       20.7939      12.047867       3.94426
  47    0.1255        8.7458        0.0017       20.7820       20.7837      12.037963       4.49030
  46    0.1487        8.7454        0.0024       20.7665       20.7688      12.023400       5.30840
  45    0.1794        8.7450        0.0033       20.7424       20.7457      12.000735       6.22199
  44    0.2165        8.7445        0.0044       20.7103       20.7147      11.970212       6.94335
  43    0.2613        8.7439        0.0056       20.6675       20.6731      11.929218       7.72726
  42    0.3336        8.7430        0.0077       20.5880       20.5956      11.852658       8.92617
  41    0.4307        8.7419        0.0104       20.4722       20.4826      11.740706       9.73394
  40    0.5894        8.7403        0.0147       20.2637       20.2784      11.538025      10.77836
  39     1.339        8.7369        0.0331       19.0984       19.1315      10.394562      12.87331
  38     1.782        8.7374        0.0427       18.4394       18.4821       9.744650      12.37327
  37     2.292        8.7401        0.0530       17.7714       17.8244       9.084323      10.93674
  36     2.964        8.7466        0.0657       17.0421       17.1078       8.361227       9.07704
  35     3.853        8.7593        0.0816       16.2678       16.3494       7.590092       7.31821
  34     5.035        8.7804        0.1017       15.4803       15.5821       6.801664       5.63221
  33     6.613        8.8110        0.1275       14.7157       14.8432       6.032172       4.11371
  32     8.786        8.8515        0.1613       13.9936       14.1548       5.303342       2.83051
  31     11.80        8.9043        0.2083       13.2835       13.4918       4.587537       2.00403
  30     15.07        8.9552        0.2571       12.7394       12.9964       4.041217       1.41049
  29     18.79        9.0078        0.3111       12.2666       12.5777       3.569930       1.06855
  28     23.16        9.0637        0.3726       11.8300       12.2026       3.138963       0.83335
  27     28.12        9.1209        0.4415       11.4279       11.8694       2.748448       0.66385
  26     33.73        9.1737        0.5174       11.0695       11.5868       2.413114       0.50418
  25     40.54        9.2238        0.6080       10.7209       11.3289       2.105121       0.38210
  24     48.69        9.2710        0.7156       10.3742       11.0898       1.818742       0.29636
  23     57.69        9.3098        0.8320       10.0549       10.8869       1.577144       0.22646
  22     68.43        9.3411        0.9686        9.7327       10.7014       1.360263       0.17050
  21     81.20        9.3560        1.1299        9.4134       10.5433       1.187330       0.11427
  20     96.49        9.3525        1.3195        9.0887       10.4082       1.055693       0.07265
  19     114.6        9.3388        1.5385        8.7388       10.2773       0.938526       0.05471
  18     136.5        9.3177        1.7889        8.3549       10.1438       0.826105       0.04323
  17     162.9        9.2895        2.0744        7.9311       10.0055       0.716039       0.03518
  16     196.4        9.2421        2.4279        7.4333        9.8613       0.619166       0.02438
  15     218.7        9.2080        2.6503        7.1295        9.7799       0.571921       0.01794
  14     243.0        9.1706        2.8828        6.8161        9.6989       0.528298       0.01513
  13     269.0        9.1297        3.1245        6.4943        9.6188       0.489129       0.01271
  12     297.5        9.0855        3.3743        6.1657        9.5401       0.454602       0.01024
  11     328.5        9.0393        3.6314        5.8295        9.4608       0.421547       0.00899
  10     361.9        8.9916        3.8931        5.4886        9.3817       0.390112       0.00795
   9     398.1        8.9425        4.1588        5.1440        9.3028       0.360324       0.00694
   8     437.6        8.8926        4.4273        4.7969        9.2242       0.331610       0.00614
   7     480.5        8.8422        4.6961        4.4504        9.1465       0.304356       0.00535
   6     533.0        8.7843        5.0027        4.0563        9.0589       0.274648       0.00478
   5     589.8        8.7272        5.3049        3.6682        8.9731       0.245886       0.00427
   4     651.6        8.6718        5.5991        3.2905        8.8896       0.217750       0.00385
   3     718.7        8.6187        5.8837        2.9252        8.8089       0.190195       0.00346
   2     792.3        8.5685        6.1553        2.5764        8.7317       0.163227       0.00309
   1     891.5        8.5107        6.4747        2.1659        8.6406       0.129934       0.00283
   0    1013.0        8.4551        6.7957        1.7526        8.5483       0.093177       0.00255



 Wavenumbers: 38000. - 50000. cm-1, ATM      1
 LEVEL PRESSURE   UPWARD FLUX   DIFDOWN FLUX  DIRDOWN FLUX  DOWNWARD FLUX   NET FLUX    HEATING RATE
          mb          W/m2          W/m2          W/m2        W/m2          W/m2       degree/day
  51    .06700        0.0061        0.0000        1.2836        1.2836       1.277518       0.00000
  50    .07753        0.0061        0.0001        1.2812        1.2812       1.275183       1.87150
  49    .09103        0.0060        0.0002        1.2777        1.2778       1.271851       2.08247
  48    0.1069        0.0059        0.0002        1.2731        1.2734       1.267473       2.33059
  47    0.1255        0.0058        0.0004        1.2672        1.2675       1.261717       2.60908
  46    0.1487        0.0057        0.0005        1.2586        1.2591       1.253391       3.03499
  45    0.1794        0.0055        0.0007        1.2455        1.2462       1.240623       3.50520
  44    0.2165        0.0054        0.0009        1.2282        1.2291       1.223697       3.85037
  43    0.2613        0.0052        0.0011        1.2054        1.2065       1.201348       4.21261
  42    0.3336        0.0049        0.0015        1.1639        1.1654       1.160524       4.75970
  41    0.4307        0.0045        0.0020        1.1051        1.1070       1.102565       5.03943
  40    0.5894        0.0039        0.0026        1.0039        1.0064       1.002524       5.32007
  39     1.339        0.0022        0.0035        0.5438        0.5473       0.545104       5.14971
  38     1.782        0.0016        0.0032        0.3635        0.3666       0.365006       3.42879
  37     2.292        0.0012        0.0027        0.2356        0.2383       0.237058       2.11916
  36     2.964        0.0009        0.0022        0.1455        0.1477       0.146786       1.13318
  35     3.853        0.0006        0.0017        0.0858        0.0875       0.086906       0.56828
  34     5.035        0.0004        0.0013        0.0488        0.0501       0.049701       0.26578
  33     6.613        0.0003        0.0010        0.0273        0.0282       0.027974       0.11615
  32     8.786        0.0002        0.0007        0.0144        0.0151       0.014928       0.05067
  31     11.80        0.0001        0.0004        0.0065        0.0070       0.006903       0.02247
  30     15.07        0.0000        0.0003        0.0031        0.0034       0.003329       0.00923
  29     18.79        0.0000        0.0002        0.0014        0.0016       0.001583       0.00396
  28     23.16        0.0000        0.0001        0.0006        0.0007       0.000720       0.00167
  27     28.12        0.0000        0.0001        0.0003        0.0003       0.000317       0.00069
  26     33.73        0.0000        0.0000        0.0001        0.0001       0.000140       0.00027
  25     40.54        0.0000        0.0000        0.0000        0.0001       0.000057       0.00010
  24     48.69        0.0000        0.0000        0.0000        0.0000       0.000021       0.00004
  23     57.69        0.0000        0.0000        0.0000        0.0000       0.000008       0.00001
  22     68.43        0.0000        0.0000        0.0000        0.0000       0.000003       0.00000
  21     81.20        0.0000        0.0000        0.0000        0.0000       0.000001       0.00000
  20     96.49        0.0000        0.0000        0.0000        0.0000       0.000000       0.00000
  19     114.6        0.0000        0.0000        0.0000        0.0000       0.000000       0.00000
  18     136.5        0.0000        0.0000        0.0000        0.0000       0.000000       0.00000
  17     162.9        0.0000        0.0000        0.0000        0.0000       0.000000       0.00000
  16     196.4        0.0000        0.0000        0.0000        0.0000       0.000000       0.00000
  15     218.7        0.0000        0.0000        0.0000        0.0000       0.000000       0.00000
  14     243.0        0.0000        0.0000        0.0000        0.0000       0.000000       0.00000
  13     269.0        0.0000        0.0000        0.0000        0.0000       0.000000       0.00000
  12     297.5        0.0000        0.0000        0.0000        0.0000       0.000000       0.00000
  11     328.5        0.0000        0.0000        0.0000        0.0000       0.000000       0.00000
  10     361.9        0.0000        0.0000        0.0000        0.0000       0.000000       0.00000
   9     398.1        0.0000        0.0000        0.0000        0.0000       0.000000       0.00000
   8     437.6        0.0000        0.0000        0.0000        0.0000       0.000000       0.00000
   7     480.5        0.0000        0.0000        0.0000        0.0000       0.000000       0.00000
   6     533.0        0.0000        0.0000        0.0000        0.0000       0.000000       0.00000
   5     589.8        0.0000        0.0000        0.0000        0.0000       0.000000       0.00000
   4     651.6        0.0000        0.0000        0.0000        0.0000       0.000000       0.00000
   3     718.7        0.0000        0.0000        0.0000        0.0000       0.000000       0.00000
   2     792.3        0.0000        0.0000        0.0000        0.0000       0.000000       0.00000
   1     891.5        0.0000        0.0000        0.0000        0.0000       0.000000       0.00000
   0    1013.0        0.0000        0.0000        0.0000        0.0000       0.000000       0.00000



 Wavenumbers:   820. -  2600. cm-1, ATM      1
 LEVEL PRESSURE   UPWARD FLUX   DIFDOWN FLUX  DIRDOWN FLUX  DOWNWARD FLUX   NET FLUX    HEATING RATE
          mb          W/m2          W/m2          W/m2        W/m2          W/m2       degree/day
  51    .06700        0.0118        0.0000        6.0047        6.0047       5.992825       0.00000
  50    .07753        0.0118        0.0000        6.0008        6.0008       5.988972       3.08819
  49    .09103        0.0118        0.0000        5.9999        5.9999       5.988086       0.55356
  48    0.1069        0.0118        0.0000        5.9989        5.9989       5.987097       0.52650
  47    0.1255        0.0118        0.0000        5.9978        5.9978       5.985980       0.50647
  46    0.1487        0.0118        0.0000        5.9964        5.9964       5.984623       0.49454
  45    0.1794        0.0118        0.0000        5.9947        5.9947       5.982904       0.47197
  44    0.2165        0.0118        0.0000        5.9929        5.9929       5.981062       0.41908
  43    0.2613        0.0118        0.0000        5.9909        5.9909       5.979103       0.36930
  42    0.3336        0.0118        0.0000        5.9880        5.9880       5.976225       0.33553
  41    0.4307        0.0118        0.0000        5.9846        5.9846       5.972756       0.30162
  40    0.5894        0.0118        0.0000        5.9791        5.9791       5.967251       0.29273
  39     1.339        0.0118        0.0000        5.9536        5.9536       5.941766       0.28691
  38     1.782        0.0118        0.0000        5.9395        5.9395       5.927630       0.26914
  37     2.292        0.0118        0.0000        5.9237        5.9237       5.911880       0.26085
  36     2.964        0.0118        0.0000        5.9039        5.9039       5.892108       0.24820
  35     3.853        0.0118        0.0000        5.8793        5.8793       5.867455       0.23396
  34     5.035        0.0118        0.0000        5.8487        5.8487       5.836896       0.21830
  33     6.613        0.0118        0.0000        5.8108        5.8108       5.798936       0.20293
  32     8.786        0.0118        0.0000        5.7631        5.7631       5.751318       0.18493
  31     11.80        0.0118        0.0000        5.7039        5.7039       5.692070       0.16588
  30     15.07        0.0118        0.0000        5.6539        5.6539       5.642039       0.12917
  29     18.79        0.0118        0.0000        5.6127        5.6127       5.600913       0.09325
  28     23.16        0.0118        0.0000        5.5794        5.5794       5.567545       0.06452
  27     28.12        0.0118        0.0000        5.5518        5.5518       5.539988       0.04685
  26     33.73        0.0118        0.0000        5.5268        5.5268       5.514945       0.03765
  25     40.54        0.0118        0.0000        5.4993        5.4993       5.487510       0.03404
  24     48.69        0.0118        0.0000        5.4678        5.4678       5.455978       0.03263
  23     57.69        0.0118        0.0000        5.4340        5.4340       5.422198       0.03166
  22     68.43        0.0118        0.0000        5.3947        5.3948       5.382933       0.03087
  21     81.20        0.0118        0.0000        5.3497        5.3497       5.337908       0.02975
  20     96.49        0.0118        0.0000        5.2982        5.2982       5.286405       0.02843
  19     114.6        0.0118        0.0000        5.2389        5.2389       5.227094       0.02769
  18     136.5        0.0118        0.0000        5.1716        5.1717       5.159850       0.02586
  17     162.9        0.0118        0.0000        5.0890        5.0890       5.077234       0.02641
  16     196.4        0.0118        0.0000        4.9668        4.9668       4.955023       0.03076
  15     218.7        0.0118        0.0000        4.8585        4.8585       4.846662       0.04114
  14     243.0        0.0118        0.0000        4.7078        4.7079       4.696047       0.05224
  13     269.0        0.0118        0.0000        4.5343        4.5343       4.522464       0.05631
  12     297.5        0.0118        0.0000        4.3419        4.3420       4.330141       0.05704
  11     328.5        0.0118        0.0000        4.1281        4.1281       4.116308       0.05814
  10     361.9        0.0118        0.0000        3.8786        3.8787       3.866828       0.06312
   9     398.1        0.0119        0.0000        3.6159        3.6159       3.604082       0.06121
   8     437.6        0.0119        0.0000        3.3759        3.3759       3.363997       0.05133
   7     480.5        0.0119        0.0000        3.1957        3.1958       3.183861       0.03538
   6     533.0        0.0120        0.0000        3.0467        3.0467       3.034732       0.02399
   5     589.8        0.0120        0.0000        2.9023        2.9023       2.890269       0.02144
   4     651.6        0.0122        0.0000        2.7183        2.7184       2.706170       0.02518
   3     718.7        0.0124        0.0000        2.5058        2.5059       2.493422       0.02674
   2     792.3        0.0129        0.0000        2.2756        2.2757       2.262777       0.02645
   1     891.5        0.0141        0.0000        1.9621        1.9621       1.948087       0.02678
   0    1013.0        0.0170        0.0000        1.5468        1.5469       1.529856       0.02904

  Modules and versions used in this calculation:

       rrtmg_sw.1col.f90:  $Revision$                    rrtmg_sw_init.f90:  $Revision$        
     rrtmgsw_cldprop.f90:  $Revision$                  rrtmgsw_cldprmc.f90:  NOT USED          
     rrtmg_sw_reftra.f90:  $Revision$                  rrtmg_sw_spcvrt.f90:  NOT USED          
     rrtmg_sw_spcvmc.f90:  NOT USED                    rrtmgsw_setcoef.f90:  NOT USED          
     rrtmg_sw_taumol.f90:  $Revision$                  rrtmg_sw_vrtqdr.f90:  NOT USED          
                rrtatm.f:  NOT USED                             util_xxx.f:  NOT USED          
                 extra.f:  NOT USED                       rrtmg_sw_k_g.f90:  $Revision$        

