

 Wavenumbers:   820. - 50000. cm-1, ATM      1
 LEVEL PRESSURE   UPWARD FLUX   DIFDOWN FLUX  DIRDOWN FLUX  DOWNWARD FLUX   NET FLUX    HEATING RATE
          mb          W/m2          W/m2          W/m2        W/m2          W/m2       degree/day
  51    .06700      171.9304        0.0000      397.8738      397.8738     225.943374       0.00000
  50    .07753      171.9298        0.0011      397.8577      397.8588     225.929052      11.47945
  49    .09103      171.9290        0.0026      397.8417      397.8443     225.915331       8.57605
  48    0.1069      171.9281        0.0042      397.8228      397.8271     225.898951       8.71940
  47    0.1255      171.9271        0.0061      397.7995      397.8056     225.878478       9.28140
  46    0.1487      171.9259        0.0085      397.7674      397.7759     225.849988      10.38499
  45    0.1794      171.9243        0.0118      397.7202      397.7319     225.807662      11.61944
  44    0.2165      171.9224        0.0156      397.6598      397.6754     225.752985      12.43803
  43    0.2613      171.9203        0.0202      397.5823      397.6025     225.682161      13.35004
  42    0.3336      171.9170        0.0276      397.4441      397.4717     225.554696      14.86114
  41    0.4307      171.9129        0.0374      397.2513      397.2887     225.375845      15.55071
  40    0.5894      171.9067        0.0531      396.9238      396.9769     225.070241      16.25162
  39     1.339      171.8877        0.1233      395.4223      395.5456     223.657912      15.90026
  38     1.782      171.8833        0.1626      394.7250      394.8876     223.004310      12.44351
  37     2.292      171.8841        0.2073      394.0527      394.2601     222.375960      10.40712
  36     2.964      171.8939        0.2654      393.2958      393.5612     221.667244       8.89653
  35     3.853      171.9191        0.3412      392.4268      392.7680     220.848986       7.76542
  34     5.035      171.9644        0.4410      391.4394      391.8803     219.915911       6.66550
  33     6.613      172.0318        0.5731      390.3226      390.8957     218.863958       5.62374
  32     8.786      172.1179        0.7498      389.0591      389.8089     217.691038       4.55520
  31     11.80      172.2212        1.0005      387.5485      388.5490     216.327813       3.81660
  30     15.07      172.3088        1.2674      386.1563      387.4237     215.114985       3.13129
  29     18.79      172.3869        1.5665      384.7539      386.3205     213.933618       2.67852
  28     23.16      172.4542        1.9130      383.2764      385.1894     212.735222       2.31731
  27     28.12      172.5031        2.3058      381.7455      384.0514     211.548250       2.01777
  26     33.73      172.5168        2.7422      380.2168      382.9589     210.442178       1.66301
  25     40.54      172.4855        3.2653      378.5644      381.8297     209.344124       1.36226
  24     48.69      172.4024        3.8902      376.7572      380.6474     208.245021       1.13740
  23     57.69      172.2675        4.5699      374.9411      379.5111     207.243583       0.93870
  22     68.43      172.0602        5.3711      372.9538      378.3248     206.264609       0.76960
  21     81.20      171.7488        6.3149      370.8117      377.1266     205.377800       0.58599
  20     96.49      171.3200        7.4248      368.4756      375.9005     204.580483       0.44006
  19     114.6      170.7931        8.7205      365.8339      374.5545     203.761317       0.38249
  18     136.5      170.1579       10.2243      362.8400      373.0644     202.906488       0.32870
  17     162.9      169.3973       11.9712      359.3892      371.3605     201.963183       0.30152
  16     196.4      168.3911       14.1717      355.0144      369.1861     200.795053       0.29403
  15     218.7      167.7290       15.5779      351.9594      367.5373     199.808352       0.37461
  14     243.0      167.0149       17.0725      348.2675      365.3400     198.325097       0.51444
  13     269.0      166.2484       18.6536      343.7550      362.4085     196.160152       0.70230
  12     297.5      165.4301       20.3187      338.5068      358.8255     193.395318       0.82002
  11     328.5      164.5621       22.0694      332.8831      354.9525     190.390400       0.81703
  10     361.9      163.6463       23.9002      326.8113      350.7115     187.065218       0.84130
   9     398.1      162.6830       25.8105      320.2372      346.0477     183.364697       0.86214
   8     437.6      161.6760       27.7944      313.1616      340.9560     179.280033       0.87333
   7     480.5      160.6276       29.8484      305.6964      335.5448     174.917240       0.85684
   6     533.0      159.3838       32.2775      296.6807      328.9582     169.574471       0.85948
   5     589.8      158.1067       34.7801      287.0555      321.8356     163.728960       0.86767
   4     651.6      156.8259       37.3441      276.4494      313.7935     156.967613       0.92463
   3     718.7      155.5736       39.9535      265.1657      305.1192     149.545649       0.93274
   2     792.3      154.4222       42.5895      252.9748      295.5643     141.142110       0.96379
   1     891.5      153.2915       45.8973      236.8133      282.7106     129.419034       0.99758
   0    1013.0      152.8096       49.5300      218.9853      268.5153     115.705632       0.95219



 Wavenumbers:  2600. -  3250. cm-1, ATM      1
 LEVEL PRESSURE   UPWARD FLUX   DIFDOWN FLUX  DIRDOWN FLUX  DOWNWARD FLUX   NET FLUX    HEATING RATE
          mb          W/m2          W/m2          W/m2        W/m2          W/m2       degree/day
  51    .06700        0.2612        0.0000        3.5066        3.5066       3.245425       0.00000
  50    .07753        0.2612        0.0000        3.5066        3.5066       3.245417       0.00640
  49    .09103        0.2612        0.0000        3.5066        3.5066       3.245407       0.00627
  48    0.1069        0.2612        0.0000        3.5066        3.5066       3.245395       0.00613
  47    0.1255        0.2612        0.0000        3.5066        3.5066       3.245382       0.00599
  46    0.1487        0.2612        0.0000        3.5066        3.5066       3.245365       0.00607
  45    0.1794        0.2612        0.0000        3.5065        3.5065       3.245343       0.00624
  44    0.2165        0.2612        0.0000        3.5065        3.5065       3.245316       0.00611
  43    0.2613        0.2612        0.0000        3.5065        3.5065       3.245284       0.00598
  42    0.3336        0.2612        0.0000        3.5064        3.5064       3.245231       0.00615
  41    0.4307        0.2612        0.0000        3.5064        3.5064       3.245160       0.00618
  40    0.5894        0.2612        0.0000        3.5062        3.5062       3.245041       0.00633
  39     1.339        0.2612        0.0000        3.5055        3.5055       3.244342       0.00787
  38     1.782        0.2612        0.0000        3.5050        3.5050       3.243812       0.01011
  37     2.292        0.2612        0.0000        3.5043        3.5043       3.243119       0.01147
  36     2.964        0.2612        0.0000        3.5033        3.5033       3.242128       0.01245
  35     3.853        0.2612        0.0000        3.5019        3.5019       3.240751       0.01307
  34     5.035        0.2612        0.0000        3.5001        3.5001       3.238890       0.01329
  33     6.613        0.2612        0.0000        3.4977        3.4977       3.236480       0.01288
  32     8.786        0.2612        0.0000        3.4947        3.4947       3.233509       0.01154
  31     11.80        0.2612        0.0000        3.4911        3.4911       3.229874       0.01018
  30     15.07        0.2612        0.0000        3.4878        3.4878       3.226653       0.00832
  29     18.79        0.2612        0.0000        3.4848        3.4848       3.223590       0.00695
  28     23.16        0.2612        0.0000        3.4816        3.4816       3.220370       0.00623
  27     28.12        0.2612        0.0000        3.4779        3.4779       3.216752       0.00615
  26     33.73        0.2612        0.0000        3.4735        3.4735       3.212286       0.00672
  25     40.54        0.2612        0.0000        3.4671        3.4671       3.205960       0.00785
  24     48.69        0.2612        0.0000        3.4582        3.4583       3.197066       0.00920
  23     57.69        0.2612        0.0000        3.4472        3.4472       3.186018       0.01036
  22     68.43        0.2612        0.0000        3.4329        3.4329       3.171759       0.01121
  21     81.20        0.2612        0.0000        3.4152        3.4152       3.154031       0.01171
  20     96.49        0.2612        0.0000        3.3940        3.3941       3.132888       0.01167
  19     114.6        0.2612        0.0000        3.3693        3.3694       3.108170       0.01154
  18     136.5        0.2612        0.0001        3.3424        3.3425       3.081278       0.01034
  17     162.9        0.2612        0.0001        3.3141        3.3142       3.052947       0.00906
  16     196.4        0.2613        0.0001        3.2825        3.2826       3.021323       0.00796
  15     218.7        0.2613        0.0001        3.2621        3.2622       3.000917       0.00775
  14     243.0        0.2614        0.0001        3.2371        3.2372       2.975840       0.00870
  13     269.0        0.2615        0.0001        3.2052        3.2053       2.943852       0.01038
  12     297.5        0.2617        0.0001        3.1631        3.1632       2.901500       0.01256
  11     328.5        0.2619        0.0001        3.1094        3.1095       2.847629       0.01465
  10     361.9        0.2622        0.0001        3.0408        3.0409       2.778701       0.01744
   9     398.1        0.2627        0.0001        2.9535        2.9536       2.690929       0.02045
   8     437.6        0.2633        0.0001        2.8452        2.8453       2.581985       0.02329
   7     480.5        0.2642        0.0002        2.7179        2.7180       2.453897       0.02516
   6     533.0        0.2655        0.0002        2.5566        2.5568       2.291294       0.02616
   5     589.8        0.2674        0.0002        2.3805        2.3807       2.113312       0.02642
   4     651.6        0.2704        0.0002        2.1827        2.1829       1.912416       0.02747
   3     718.7        0.2751        0.0002        1.9647        1.9649       1.689819       0.02797
   2     792.3        0.2826        0.0002        1.7211        1.7212       1.438594       0.02881
   1     891.5        0.2993        0.0002        1.4114        1.4116       1.112306       0.02777
   0    1013.0        0.3358        0.0002        1.1008        1.1009       0.765139       0.02411



 Wavenumbers:  3250. -  4000. cm-1, ATM      1
 LEVEL PRESSURE   UPWARD FLUX   DIFDOWN FLUX  DIRDOWN FLUX  DOWNWARD FLUX   NET FLUX    HEATING RATE
          mb          W/m2          W/m2          W/m2        W/m2          W/m2       degree/day
  51    .06700        0.0004        0.0000        5.9117        5.9117       5.911212       0.00000
  50    .07753        0.0004        0.0000        5.9074        5.9074       5.907001       3.37561
  49    .09103        0.0004        0.0000        5.9050        5.9050       5.904536       1.54074
  48    0.1069        0.0004        0.0000        5.9031        5.9031       5.902647       1.00535
  47    0.1255        0.0004        0.0000        5.9013        5.9013       5.900868       0.80634
  46    0.1487        0.0004        0.0000        5.8994        5.8994       5.898956       0.69708
  45    0.1794        0.0004        0.0000        5.8972        5.8972       5.896780       0.59741
  44    0.2165        0.0004        0.0000        5.8951        5.8951       5.894633       0.48841
  43    0.2613        0.0004        0.0000        5.8929        5.8929       5.892437       0.41398
  42    0.3336        0.0004        0.0000        5.8897        5.8897       5.889217       0.37536
  41    0.4307        0.0004        0.0000        5.8857        5.8857       5.885305       0.34011
  40    0.5894        0.0004        0.0000        5.8798        5.8798       5.879399       0.31410
  39     1.339        0.0004        0.0000        5.8590        5.8590       5.858597       0.23419
  38     1.782        0.0004        0.0000        5.8506        5.8506       5.850129       0.16123
  37     2.292        0.0004        0.0000        5.8424        5.8424       5.841924       0.13590
  36     2.964        0.0004        0.0000        5.8327        5.8327       5.832275       0.12112
  35     3.853        0.0004        0.0000        5.8206        5.8206       5.820127       0.11528
  34     5.035        0.0004        0.0000        5.8045        5.8045       5.804096       0.11452
  33     6.613        0.0004        0.0000        5.7828        5.7828       5.782360       0.11620
  32     8.786        0.0004        0.0000        5.7527        5.7527       5.752257       0.11691
  31     11.80        0.0004        0.0000        5.7088        5.7089       5.708435       0.12269
  30     15.07        0.0004        0.0000        5.6617        5.6618       5.661343       0.12158
  29     18.79        0.0004        0.0000        5.6101        5.6102       5.609758       0.11696
  28     23.16        0.0004        0.0000        5.5539        5.5539       5.553496       0.10879
  27     28.12        0.0004        0.0000        5.4957        5.4958       5.495348       0.09885
  26     33.73        0.0004        0.0000        5.4379        5.4379       5.437538       0.08692
  25     40.54        0.0004        0.0001        5.3749        5.3750       5.374578       0.07811
  24     48.69        0.0004        0.0001        5.3044        5.3045       5.304116       0.07292
  23     57.69        0.0004        0.0001        5.2294        5.2295       5.229113       0.07030
  22     68.43        0.0004        0.0001        5.1416        5.1417       5.141351       0.06899
  21     81.20        0.0003        0.0001        5.0402        5.0403       5.039937       0.06701
  20     96.49        0.0003        0.0001        4.9260        4.9261       4.925756       0.06302
  19     114.6        0.0003        0.0001        4.7954        4.7956       4.795281       0.06092
  18     136.5        0.0003        0.0002        4.6558        4.6560       4.655688       0.05368
  17     162.9        0.0002        0.0002        4.4963        4.4964       4.496196       0.05098
  16     196.4        0.0002        0.0002        4.2728        4.2731       4.272842       0.05622
  15     218.7        0.0002        0.0002        4.0724        4.0727       4.072473       0.07607
  14     243.0        0.0002        0.0002        3.8102        3.8105       3.810327       0.09092
  13     269.0        0.0001        0.0002        3.4720        3.4722       3.472077       0.10973
  12     297.5        0.0001        0.0002        3.0589        3.0591       3.058990       0.12252
  11     328.5        0.0001        0.0002        2.6499        2.6502       2.650069       0.11118
  10     361.9        0.0001        0.0002        2.2815        2.2817       2.281612       0.09322
   9     398.1        0.0001        0.0002        1.9524        1.9526       1.952509       0.07667
   8     437.6        0.0001        0.0002        1.6512        1.6515       1.651403       0.06438
   7     480.5        0.0000        0.0002        1.3776        1.3778       1.377758       0.05374
   6     533.0        0.0000        0.0002        1.0886        1.0888       1.088782       0.04649
   5     589.8        0.0000        0.0002        0.8105        0.8106       0.810588       0.04129
   4     651.6        0.0000        0.0001        0.5333        0.5334       0.533394       0.03791
   3     718.7        0.0000        0.0001        0.3032        0.3033       0.303279       0.02892
   2     792.3        0.0000        0.0001        0.1278        0.1279       0.127848       0.02012
   1     891.5        0.0000        0.0000        0.0187        0.0187       0.018726       0.00929
   0    1013.0        0.0001        0.0000        0.0004        0.0004       0.000271       0.00128



 Wavenumbers:  4000. -  4650. cm-1, ATM      1
 LEVEL PRESSURE   UPWARD FLUX   DIFDOWN FLUX  DIRDOWN FLUX  DOWNWARD FLUX   NET FLUX    HEATING RATE
          mb          W/m2          W/m2          W/m2        W/m2          W/m2       degree/day
  51    .06700        1.1496        0.0000        6.9421        6.9421       5.792431       0.00000
  50    .07753        1.1496        0.0000        6.9421        6.9421       5.792430       0.00080
  49    .09103        1.1496        0.0000        6.9421        6.9421       5.792428       0.00078
  48    0.1069        1.1496        0.0000        6.9421        6.9421       5.792427       0.00076
  47    0.1255        1.1496        0.0000        6.9421        6.9421       5.792425       0.00075
  46    0.1487        1.1496        0.0000        6.9421        6.9421       5.792423       0.00076
  45    0.1794        1.1496        0.0000        6.9421        6.9421       5.792420       0.00078
  44    0.2165        1.1496        0.0000        6.9421        6.9421       5.792417       0.00076
  43    0.2613        1.1496        0.0000        6.9420        6.9421       5.792413       0.00075
  42    0.3336        1.1496        0.0000        6.9420        6.9420       5.792407       0.00077
  41    0.4307        1.1496        0.0000        6.9420        6.9420       5.792398       0.00077
  40    0.5894        1.1496        0.0000        6.9420        6.9420       5.792383       0.00080
  39     1.339        1.1496        0.0000        6.9419        6.9419       5.792293       0.00101
  38     1.782        1.1496        0.0000        6.9418        6.9419       5.792224       0.00133
  37     2.292        1.1496        0.0000        6.9418        6.9418       5.792130       0.00156
  36     2.964        1.1496        0.0000        6.9416        6.9416       5.791990       0.00176
  35     3.853        1.1496        0.0000        6.9414        6.9414       5.791782       0.00197
  34     5.035        1.1496        0.0000        6.9411        6.9411       5.791476       0.00219
  33     6.613        1.1496        0.0000        6.9406        6.9406       5.791026       0.00241
  32     8.786        1.1496        0.0000        6.9399        6.9400       5.790363       0.00258
  31     11.80        1.1496        0.0000        6.9389        6.9389       5.789323       0.00291
  30     15.07        1.1496        0.0001        6.9376        6.9377       5.788107       0.00314
  29     18.79        1.1496        0.0001        6.9361        6.9362       5.786642       0.00332
  28     23.16        1.1496        0.0001        6.9343        6.9344       5.784829       0.00350
  27     28.12        1.1496        0.0001        6.9321        6.9322       5.782645       0.00371
  26     33.73        1.1495        0.0001        6.9294        6.9295       5.779965       0.00403
  25     40.54        1.1495        0.0002        6.9257        6.9259       5.776352       0.00448
  24     48.69        1.1495        0.0002        6.9209        6.9211       5.771569       0.00495
  23     57.69        1.1495        0.0002        6.9152        6.9154       5.765943       0.00527
  22     68.43        1.1495        0.0003        6.9081        6.9084       5.758949       0.00550
  21     81.20        1.1494        0.0003        6.8995        6.8998       5.750399       0.00565
  20     96.49        1.1494        0.0004        6.8891        6.8895       5.740073       0.00570
  19     114.6        1.1494        0.0004        6.8762        6.8767       5.727279       0.00597
  18     136.5        1.1494        0.0005        6.8608        6.8614       5.711972       0.00589
  17     162.9        1.1494        0.0006        6.8421        6.8427       5.693350       0.00595
  16     196.4        1.1494        0.0007        6.8166        6.8173       5.667896       0.00641
  15     218.7        1.1495        0.0008        6.7976        6.7984       5.648852       0.00723
  14     243.0        1.1497        0.0009        6.7731        6.7740       5.624376       0.00849
  13     269.0        1.1499        0.0010        6.7409        6.7419       5.592037       0.01049
  12     297.5        1.1503        0.0011        6.6982        6.6993       5.548965       0.01277
  11     328.5        1.1509        0.0012        6.6434        6.6446       5.493725       0.01502
  10     361.9        1.1517        0.0013        6.5741        6.5754       5.423730       0.01771
   9     398.1        1.1527        0.0014        6.4889        6.4904       5.337653       0.02005
   8     437.6        1.1540        0.0016        6.3876        6.3892       5.235231       0.02190
   7     480.5        1.1555        0.0017        6.2749        6.2765       5.121016       0.02243
   6     533.0        1.1578        0.0018        6.1332        6.1350       4.977152       0.02314
   5     589.8        1.1611        0.0020        5.9653        5.9673       4.806207       0.02537
   4     651.6        1.1660        0.0021        5.7389        5.7410       4.575054       0.03161
   3     718.7        1.1735        0.0023        5.4502        5.4524       4.278954       0.03721
   2     792.3        1.1858        0.0024        5.1134        5.1157       3.929947       0.04003
   1     891.5        1.2136        0.0025        4.6750        4.6775       3.463909       0.03966
   0    1013.0        1.2757        0.0026        4.1801        4.1827       2.906944       0.03867



 Wavenumbers:  4650. -  5150. cm-1, ATM      1
 LEVEL PRESSURE   UPWARD FLUX   DIFDOWN FLUX  DIRDOWN FLUX  DOWNWARD FLUX   NET FLUX    HEATING RATE
          mb          W/m2          W/m2          W/m2        W/m2          W/m2       degree/day
  51    .06700        0.7927        0.0000        6.5710        6.5710       5.778332       0.00000
  50    .07753        0.7927        0.0000        6.5708        6.5708       5.778096       0.18877
  49    .09103        0.7927        0.0000        6.5705        6.5705       5.777802       0.18352
  48    0.1069        0.7927        0.0000        6.5701        6.5701       5.777468       0.17796
  47    0.1255        0.7927        0.0000        6.5697        6.5697       5.777088       0.17229
  46    0.1487        0.7927        0.0000        6.5693        6.5693       5.776615       0.17259
  45    0.1794        0.7927        0.0000        6.5686        6.5686       5.775978       0.17464
  44    0.2165        0.7927        0.0000        6.5679        6.5679       5.775241       0.16778
  43    0.2613        0.7927        0.0000        6.5670        6.5670       5.774388       0.16069
  42    0.3336        0.7927        0.0000        6.5657        6.5657       5.773026       0.15885
  41    0.4307        0.7927        0.0000        6.5640        6.5640       5.771305       0.14962
  40    0.5894        0.7927        0.0000        6.5613        6.5613       5.768690       0.13905
  39     1.339        0.7927        0.0000        6.5516        6.5516       5.758919       0.11001
  38     1.782        0.7927        0.0000        6.5473        6.5474       5.754705       0.08021
  37     2.292        0.7927        0.0000        6.5435        6.5435       5.750821       0.06434
  36     2.964        0.7926        0.0000        6.5395        6.5395       5.746870       0.04960
  35     3.853        0.7926        0.0000        6.5356        6.5356       5.742930       0.03739
  34     5.035        0.7926        0.0000        6.5315        6.5316       5.738931       0.02856
  33     6.613        0.7926        0.0000        6.5271        6.5272       5.734541       0.02347
  32     8.786        0.7926        0.0001        6.5216        6.5217       5.729052       0.02132
  31     11.80        0.7926        0.0001        6.5135        6.5136       5.720982       0.02259
  30     15.07        0.7926        0.0001        6.5041        6.5042       5.711623       0.02416
  29     18.79        0.7926        0.0001        6.4926        6.4927       5.700120       0.02608
  28     23.16        0.7926        0.0001        6.4780        6.4781       5.685544       0.02819
  27     28.12        0.7925        0.0002        6.4600        6.4601       5.667589       0.03052
  26     33.73        0.7925        0.0002        6.4385        6.4387       5.646182       0.03219
  25     40.54        0.7925        0.0002        6.4114        6.4116       5.619088       0.03361
  24     48.69        0.7925        0.0003        6.3777        6.3780       5.585490       0.03477
  23     57.69        0.7925        0.0003        6.3406        6.3409       5.548443       0.03473
  22     68.43        0.7925        0.0004        6.2974        6.2978       5.505308       0.03391
  21     81.20        0.7924        0.0005        6.2485        6.2490       5.456557       0.03221
  20     96.49        0.7924        0.0005        6.1952        6.1957       5.403262       0.02942
  19     114.6        0.7924        0.0006        6.1386        6.1392       5.346736       0.02639
  18     136.5        0.7925        0.0007        6.0795        6.0803       5.287802       0.02266
  17     162.9        0.7925        0.0009        6.0168        6.0177       5.225145       0.02003
  16     196.4        0.7927        0.0010        5.9412        5.9423       5.149613       0.01901
  15     218.7        0.7928        0.0012        5.8915        5.8926       5.099820       0.01890
  14     243.0        0.7930        0.0013        5.8346        5.8359       5.042925       0.01973
  13     269.0        0.7933        0.0014        5.7676        5.7690       4.975714       0.02180
  12     297.5        0.7937        0.0015        5.6858        5.6873       4.893572       0.02436
  11     328.5        0.7944        0.0017        5.5899        5.5916       4.797221       0.02620
  10     361.9        0.7952        0.0018        5.4787        5.4806       4.685349       0.02830
   9     398.1        0.7963        0.0020        5.3502        5.3522       4.555871       0.03017
   8     437.6        0.7978        0.0021        5.2035        5.2056       4.407746       0.03167
   7     480.5        0.7998        0.0023        5.0390        5.0412       4.241471       0.03266
   6     533.0        0.8027        0.0024        4.8308        4.8332       4.030471       0.03394
   5     589.8        0.8069        0.0026        4.6030        4.6056       3.798702       0.03440
   4     651.6        0.8130        0.0027        4.3500        4.3527       3.539781       0.03541
   3     718.7        0.8219        0.0028        4.0793        4.0821       3.260246       0.03513
   2     792.3        0.8352        0.0030        3.7904        3.7933       2.958085       0.03465
   1     891.5        0.8625        0.0031        3.4079        3.4110       2.548471       0.03486
   0    1013.0        0.9150        0.0031        2.9969        3.0000       2.085018       0.03218



 Wavenumbers:  5150. -  6150. cm-1, ATM      1
 LEVEL PRESSURE   UPWARD FLUX   DIFDOWN FLUX  DIRDOWN FLUX  DOWNWARD FLUX   NET FLUX    HEATING RATE
          mb          W/m2          W/m2          W/m2        W/m2          W/m2       degree/day
  51    .06700        2.1386        0.0000       16.4735       16.4735      14.334905       0.00000
  50    .07753        2.1386        0.0000       16.4735       16.4735      14.334866       0.03156
  49    .09103        2.1386        0.0000       16.4734       16.4734      14.334814       0.03204
  48    0.1069        2.1386        0.0000       16.4734       16.4734      14.334753       0.03255
  47    0.1255        2.1386        0.0000       16.4733       16.4733      14.334680       0.03305
  46    0.1487        2.1386        0.0000       16.4732       16.4732      14.334585       0.03481
  45    0.1794        2.1386        0.0000       16.4730       16.4730      14.334450       0.03704
  44    0.2165        2.1386        0.0000       16.4729       16.4729      14.334285       0.03759
  43    0.2613        2.1386        0.0000       16.4727       16.4727      14.334082       0.03816
  42    0.3336        2.1386        0.0000       16.4723       16.4723      14.333737       0.04029
  41    0.4307        2.1386        0.0000       16.4719       16.4719      14.333267       0.04080
  40    0.5894        2.1386        0.0000       16.4711       16.4711      14.332482       0.04175
  39     1.339        2.1386        0.0000       16.4673       16.4673      14.328719       0.04237
  38     1.782        2.1386        0.0000       16.4651       16.4651      14.326542       0.04145
  37     2.292        2.1386        0.0001       16.4626       16.4626      14.324090       0.04060
  36     2.964        2.1385        0.0001       16.4595       16.4595      14.320995       0.03886
  35     3.853        2.1385        0.0001       16.4555       16.4556      14.317091       0.03705
  34     5.035        2.1385        0.0001       16.4505       16.4506      14.312114       0.03556
  33     6.613        2.1385        0.0002       16.4440       16.4442      14.305739       0.03408
  32     8.786        2.1384        0.0002       16.4358       16.4360      14.297616       0.03155
  31     11.80        2.1384        0.0003       16.4249       16.4252      14.286864       0.03010
  30     15.07        2.1383        0.0004       16.4143       16.4147      14.276349       0.02715
  29     18.79        2.1382        0.0005       16.4034       16.4039      14.265651       0.02426
  28     23.16        2.1382        0.0006       16.3920       16.3926      14.254417       0.02172
  27     28.12        2.1381        0.0007       16.3803       16.3810      14.242961       0.01947
  26     33.73        2.1380        0.0009       16.3687       16.3696      14.231635       0.01703
  25     40.54        2.1379        0.0011       16.3564       16.3575      14.219596       0.01493
  24     48.69        2.1377        0.0013       16.3435       16.3448      14.207030       0.01300
  23     57.69        2.1376        0.0015       16.3309       16.3324      14.194810       0.01145
  22     68.43        2.1374        0.0018       16.3174       16.3192      14.181755       0.01026
  21     81.20        2.1373        0.0021       16.3027       16.3048      14.167529       0.00940
  20     96.49        2.1371        0.0025       16.2861       16.2886      14.151587       0.00880
  19     114.6        2.1368        0.0030       16.2671       16.2701      14.133232       0.00857
  18     136.5        2.1365        0.0035       16.2445       16.2481      14.111532       0.00834
  17     162.9        2.1362        0.0042       16.2108       16.2150      14.078783       0.01047
  16     196.4        2.1358        0.0050       16.1360       16.1410      14.005220       0.01852
  15     218.7        2.1356        0.0056       16.0099       16.0155      13.879941       0.04756
  14     243.0        2.1353        0.0061       15.7396       15.7458      13.610481       0.09346
  13     269.0        2.1351        0.0067       15.3077       15.3144      13.179278       0.13988
  12     297.5        2.1349        0.0072       14.7951       14.8023      12.667342       0.15183
  11     328.5        2.1348        0.0077       14.2426       14.2503      12.115493       0.15005
  10     361.9        2.1348        0.0082       13.6155       13.6237      11.488874       0.15854
   9     398.1        2.1349        0.0086       12.9439       12.9525      10.817633       0.15638
   8     437.6        2.1351        0.0091       12.2429       12.2520      10.116813       0.14984
   7     480.5        2.1356        0.0095       11.5524       11.5619       9.426266       0.13562
   6     533.0        2.1365        0.0099       10.8188       10.8287       8.692190       0.11809
   5     589.8        2.1382        0.0103       10.1668       10.1771       8.038940       0.09696
   4     651.6        2.1413        0.0107        9.5867        9.5974       7.456089       0.07971
   3     718.7        2.1469        0.0112        9.1006        9.1118       6.964951       0.06172
   2     792.3        2.1570        0.0118        8.6172        8.6290       6.472069       0.05653
   1     891.5        2.1815        0.0125        7.9587        7.9711       5.789608       0.05807
   0    1013.0        2.2418        0.0132        7.3371        7.3502       5.108423       0.04730



 Wavenumbers:  6150. -  7700. cm-1, ATM      1
 LEVEL PRESSURE   UPWARD FLUX   DIFDOWN FLUX  DIRDOWN FLUX  DOWNWARD FLUX   NET FLUX    HEATING RATE
          mb          W/m2          W/m2          W/m2        W/m2          W/m2       degree/day
  51    .06700        3.1094        0.0000       30.4684       30.4684      27.358972       0.00000
  50    .07753        3.1094        0.0000       30.4683       30.4683      27.358915       0.04553
  49    .09103        3.1094        0.0000       30.4682       30.4683      27.358842       0.04582
  48    0.1069        3.1094        0.0000       30.4682       30.4682      27.358755       0.04613
  47    0.1255        3.1094        0.0000       30.4681       30.4681      27.358653       0.04643
  46    0.1487        3.1094        0.0000       30.4679       30.4679      27.358520       0.04850
  45    0.1794        3.1094        0.0000       30.4677       30.4677      27.358333       0.05124
  44    0.2165        3.1094        0.0000       30.4675       30.4675      27.358106       0.05163
  43    0.2613        3.1094        0.0000       30.4672       30.4672      27.357830       0.05205
  42    0.3336        3.1094        0.0000       30.4667       30.4667      27.357361       0.05464
  41    0.4307        3.1094        0.0000       30.4661       30.4661      27.356727       0.05511
  40    0.5894        3.1094        0.0001       30.4650       30.4650      27.355671       0.05619
  39     1.339        3.1093        0.0001       30.4598       30.4599      27.350607       0.05701
  38     1.782        3.1092        0.0002       30.4567       30.4569      27.347664       0.05603
  37     2.292        3.1092        0.0002       30.4533       30.4535      27.344329       0.05523
  36     2.964        3.1091        0.0003       30.4489       30.4492      27.340079       0.05335
  35     3.853        3.1090        0.0004       30.4433       30.4437      27.334656       0.05146
  34     5.035        3.1089        0.0005       30.4360       30.4366      27.327664       0.04995
  33     6.613        3.1088        0.0007       30.4266       30.4274      27.318594       0.04849
  32     8.786        3.1085        0.0010       30.4144       30.4154      27.306833       0.04567
  31     11.80        3.1082        0.0013       30.3978       30.3991      27.290894       0.04463
  30     15.07        3.1079        0.0016       30.3811       30.3828      27.274852       0.04142
  29     18.79        3.1075        0.0021       30.3635       30.3655      27.257989       0.03823
  28     23.16        3.1071        0.0025       30.3443       30.3468      27.239734       0.03530
  27     28.12        3.1066        0.0031       30.3239       30.3270      27.220380       0.03290
  26     33.73        3.1061        0.0037       30.3029       30.3066      27.200558       0.02980
  25     40.54        3.1054        0.0044       30.2799       30.2843      27.178874       0.02690
  24     48.69        3.1046        0.0053       30.2548       30.2601      27.155486       0.02420
  23     57.69        3.1037        0.0063       30.2296       30.2359      27.132150       0.02187
  22     68.43        3.1026        0.0074       30.2020       30.2094      27.106779       0.01994
  21     81.20        3.1014        0.0088       30.1714       30.1802      27.078847       0.01846
  20     96.49        3.0999        0.0105       30.1369       30.1473      27.047440       0.01733
  19     114.6        3.0981        0.0124       30.0970       30.1094      27.011344       0.01685
  18     136.5        3.0960        0.0148       30.0504       30.0652      26.969188       0.01621
  17     162.9        3.0934        0.0175       29.9842       30.0017      26.908248       0.01948
  16     196.4        3.0902        0.0211       29.8533       29.8744      26.784171       0.03123
  15     218.7        3.0881        0.0234       29.6742       29.6976      26.609537       0.06630
  14     243.0        3.0858        0.0257       29.3154       29.3412      26.255324       0.12285
  13     269.0        3.0835        0.0281       28.6682       28.6963      25.612782       0.20844
  12     297.5        3.0812        0.0303       27.7720       27.8024      24.721170       0.26444
  11     328.5        3.0789        0.0326       26.8285       26.8610      23.782158       0.25531
  10     361.9        3.0766        0.0348       25.7886       25.8234      22.746767       0.26196
   9     398.1        3.0746        0.0369       24.6047       24.6416      21.566980       0.27486
   8     437.6        3.0729        0.0388       23.3058       23.3446      20.271703       0.27694
   7     480.5        3.0717        0.0404       21.9700       22.0104      18.938739       0.26179
   6     533.0        3.0714        0.0422       20.4313       20.4735      17.402122       0.24719
   5     589.8        3.0730        0.0436       18.8913       18.9349      15.861836       0.22863
   4     651.6        3.0789        0.0445       17.2864       17.3309      14.252073       0.22014
   3     718.7        3.0917        0.0452       15.7330       15.7781      12.686428       0.19676
   2     792.3        3.1176        0.0455       14.2351       14.2806      11.162999       0.17472
   1     891.5        3.1842        0.0458       12.5248       12.5706       9.386380       0.15118
   0    1013.0        3.3492        0.0461       10.9349       10.9810       7.631789       0.12183



 Wavenumbers:  7700. -  8050. cm-1, ATM      1
 LEVEL PRESSURE   UPWARD FLUX   DIFDOWN FLUX  DIRDOWN FLUX  DOWNWARD FLUX   NET FLUX    HEATING RATE
          mb          W/m2          W/m2          W/m2        W/m2          W/m2       degree/day
  51    .06700        1.6562        0.0000        7.2006        7.2006       5.544348       0.00000
  50    .07753        1.6562        0.0000        7.2006        7.2006       5.544329       0.01505
  49    .09103        1.6562        0.0000        7.2005        7.2005       5.544305       0.01475
  48    0.1069        1.6562        0.0000        7.2005        7.2005       5.544278       0.01444
  47    0.1255        1.6562        0.0000        7.2005        7.2005       5.544247       0.01413
  46    0.1487        1.6562        0.0000        7.2004        7.2005       5.544208       0.01434
  45    0.1794        1.6562        0.0000        7.2004        7.2004       5.544154       0.01476
  44    0.2165        1.6562        0.0000        7.2003        7.2003       5.544090       0.01447
  43    0.2613        1.6562        0.0000        7.2003        7.2003       5.544015       0.01420
  42    0.3336        1.6563        0.0000        7.2001        7.2001       5.543890       0.01453
  41    0.4307        1.6563        0.0000        7.2000        7.2000       5.543725       0.01437
  40    0.5894        1.6563        0.0000        7.1997        7.1997       5.543455       0.01435
  39     1.339        1.6563        0.0001        7.1984        7.1985       5.542179       0.01437
  38     1.782        1.6563        0.0001        7.1977        7.1978       5.541429       0.01427
  37     2.292        1.6564        0.0001        7.1968        7.1969       5.540561       0.01437
  36     2.964        1.6564        0.0001        7.1957        7.1958       5.539423       0.01429
  35     3.853        1.6565        0.0002        7.1942        7.1944       5.537920       0.01427
  34     5.035        1.6565        0.0002        7.1922        7.1925       5.535924       0.01425
  33     6.613        1.6566        0.0003        7.1896        7.1899       5.533261       0.01424
  32     8.786        1.6568        0.0004        7.1860        7.1864       5.529679       0.01391
  31     11.80        1.6569        0.0005        7.1810        7.1815       5.524565       0.01432
  30     15.07        1.6571        0.0007        7.1755        7.1762       5.519090       0.01413
  29     18.79        1.6574        0.0008        7.1694        7.1703       5.512926       0.01398
  28     23.16        1.6576        0.0010        7.1623        7.1634       5.505753       0.01387
  27     28.12        1.6579        0.0012        7.1543        7.1555       5.497588       0.01388
  26     33.73        1.6582        0.0015        7.1453        7.1467       5.488498       0.01367
  25     40.54        1.6587        0.0018        7.1344        7.1362       5.477582       0.01354
  24     48.69        1.6592        0.0022        7.1215        7.1237       5.464521       0.01352
  23     57.69        1.6597        0.0025        7.1075        7.1100       5.450297       0.01333
  22     68.43        1.6604        0.0030        7.0909        7.0939       5.433523       0.01319
  21     81.20        1.6612        0.0036        7.0714        7.0749       5.413772       0.01305
  20     96.49        1.6621        0.0042        7.0484        7.0527       5.390560       0.01281
  19     114.6        1.6633        0.0050        7.0217        7.0267       5.363441       0.01266
  18     136.5        1.6647        0.0060        6.9906        6.9966       5.331893       0.01213
  17     162.9        1.6664        0.0071        6.9544        6.9615       5.295121       0.01175
  16     196.4        1.6686        0.0085        6.9088        6.9172       5.248654       0.01170
  15     218.7        1.6701        0.0094        6.8795        6.8889       5.218779       0.01134
  14     243.0        1.6718        0.0104        6.8482        6.8586       5.186825       0.01108
  13     269.0        1.6736        0.0115        6.8148        6.8263       5.152721       0.01106
  12     297.5        1.6757        0.0127        6.7794        6.7920       5.116360       0.01078
  11     328.5        1.6780        0.0139        6.7415        6.7555       5.077507       0.01056
  10     361.9        1.6805        0.0153        6.7014        6.7167       5.036153       0.01046
   9     398.1        1.6834        0.0167        6.6586        6.6753       4.991925       0.01030
   8     437.6        1.6867        0.0183        6.6128        6.6311       4.944418       0.01016
   7     480.5        1.6904        0.0199        6.5638        6.5837       4.893279       0.01004
   6     533.0        1.6954        0.0220        6.5031        6.5250       4.829643       0.01024
   5     589.8        1.7012        0.0241        6.4362        6.4604       4.759123       0.01047
   4     651.6        1.7084        0.0264        6.3609        6.3873       4.678874       0.01097
   3     718.7        1.7175        0.0289        6.2745        6.3034       4.585892       0.01169
   2     792.3        1.7291        0.0314        6.1727        6.2041       4.474960       0.01272
   1     891.5        1.7491        0.0348        6.0169        6.0516       4.302513       0.01467
   0    1013.0        1.7810        0.0385        5.8007        5.8392       4.058260       0.01696



 Wavenumbers:  8050. - 12850. cm-1, ATM      1
 LEVEL PRESSURE   UPWARD FLUX   DIFDOWN FLUX  DIRDOWN FLUX  DOWNWARD FLUX   NET FLUX    HEATING RATE
          mb          W/m2          W/m2          W/m2        W/m2          W/m2       degree/day
  51    .06700       21.3249        0.0000      100.8135      100.8135      79.488604       0.00000
  50    .07753       21.3249        0.0000      100.8135      100.8135      79.488604       0.00000
  49    .09103       21.3249        0.0001      100.8134      100.8135      79.488604       0.00000
  48    0.1069       21.3248        0.0001      100.8134      100.8134      79.488604       0.00000
  47    0.1255       21.3248        0.0001      100.8133      100.8134      79.488604       0.00000
  46    0.1487       21.3248        0.0002      100.8132      100.8134      79.488604       0.00000
  45    0.1794       21.3247        0.0002      100.8131      100.8133      79.488604       0.00000
  44    0.2165       21.3246        0.0003      100.8129      100.8132      79.488604      -0.00000
  43    0.2613       21.3246        0.0004      100.8127      100.8132      79.488604       0.00000
  42    0.3336       21.3244        0.0006      100.8125      100.8130      79.488604       0.00000
  41    0.4307       21.3243        0.0008      100.8121      100.8129      79.488604      -0.00000
  40    0.5894       21.3240        0.0011      100.8115      100.8126      79.488604       0.00000
  39     1.339       21.3227        0.0028      100.8085      100.8113      79.488604       0.00000
  38     1.782       21.3219        0.0037      100.8068      100.8105      79.488604       0.00000
  37     2.292       21.3210        0.0048      100.8047      100.8096      79.488604       0.00000
  36     2.964       21.3198        0.0063      100.8021      100.8084      79.488604      -0.00000
  35     3.853       21.3182        0.0082      100.7986      100.8068      79.488604      -0.00000
  34     5.035       21.3161        0.0108      100.7940      100.8047      79.488604       0.00000
  33     6.613       21.3133        0.0142      100.7878      100.8019      79.488604       0.00000
  32     8.786       21.3096        0.0188      100.7794      100.7982      79.488604       0.00000
  31     11.80       21.3042        0.0254      100.7674      100.7928      79.488604      -0.00000
  30     15.07       21.2984        0.0324      100.7546      100.7870      79.488604       0.00000
  29     18.79       21.2918        0.0404      100.7400      100.7804      79.488604       0.00000
  28     23.16       21.2842        0.0498      100.7230      100.7728      79.488604      -0.00000
  27     28.12       21.2754        0.0605      100.7035      100.7640      79.488604       0.00000
  26     33.73       21.2656        0.0725      100.6817      100.7542      79.488604      -0.00000
  25     40.54       21.2537        0.0870      100.6552      100.7423      79.488604       0.00000
  24     48.69       21.2393        0.1046      100.6234      100.7279      79.488604       0.00000
  23     57.69       21.2235        0.1239      100.5883      100.7121      79.488604      -0.00000
  22     68.43       21.2047        0.1469      100.5464      100.6933      79.488604       0.00000
  21     81.20       21.1822        0.1743      100.4965      100.6708      79.488604      -0.00000
  20     96.49       21.1554        0.2070      100.4370      100.6440      79.488604      -0.00000
  19     114.6       21.1235        0.2460      100.3601      100.6060      79.482547       0.00283
  18     136.5       21.0856        0.2922      100.2685      100.5607      79.475041       0.00289
  17     162.9       21.0404        0.3473      100.1557      100.5030      79.462585       0.00398
  16     196.4       20.9817        0.4189       99.9935      100.4124      79.430728       0.00802
  15     218.7       20.9430        0.4660       99.8490      100.3150      79.371926       0.02233
  14     243.0       20.9011        0.5170       99.6218      100.1389      79.237744       0.04654
  13     269.0       20.8559        0.5721       99.2701       99.8422      78.986329       0.08156
  12     297.5       20.8075        0.6313       98.7863       99.4176      78.610019       0.11161
  11     328.5       20.7559        0.6949       98.2127       98.9076      78.151697       0.12462
  10     361.9       20.7011        0.7629       97.5096       98.2725      77.571335       0.14684
   9     398.1       20.6436        0.8353       96.6249       97.4602      76.816612       0.17583
   8     437.6       20.5839        0.9117       95.5141       96.4258      75.841931       0.20839
   7     480.5       20.5229        0.9920       94.1664       95.1584      74.635555       0.23693
   6     533.0       20.4533        1.0881       92.2972       93.3854      72.932043       0.27404
   5     589.8       20.3882        1.1874       90.0044       91.1918      70.803587       0.31593
   4     651.6       20.3382        1.2872       87.0975       88.3847      68.046552       0.37703
   3     718.7       20.3164        1.3862       83.6639       85.0501      64.733652       0.41634
   2     792.3       20.3517        1.4814       79.5919       81.0733      60.721575       0.46014
   1     891.5       20.5472        1.5915       73.8807       75.4722      54.925009       0.49326
   0    1013.0       21.1328        1.7036       67.5841       69.2877      48.154956       0.47008



 Wavenumbers: 12850. - 16000. cm-1, ATM      1
 LEVEL PRESSURE   UPWARD FLUX   DIFDOWN FLUX  DIRDOWN FLUX  DOWNWARD FLUX   NET FLUX    HEATING RATE
          mb          W/m2          W/m2          W/m2        W/m2          W/m2       degree/day
  51    .06700       30.3266        0.0000       63.1686       63.1686      32.841989       0.00000
  50    .07753       30.3266        0.0001       63.1677       63.1678      32.841211       0.62388
  49    .09103       30.3265        0.0001       63.1666       63.1668      32.840241       0.60616
  48    0.1069       30.3265        0.0002       63.1654       63.1656      32.839137       0.58761
  47    0.1255       30.3264        0.0003       63.1640       63.1643      32.837882       0.56897
  46    0.1487       30.3264        0.0004       63.1623       63.1627      32.836317       0.57028
  45    0.1794       30.3263        0.0006       63.1600       63.1605      32.834220       0.57566
  44    0.2165       30.3263        0.0008       63.1573       63.1581      32.831797       0.55128
  43    0.2613       30.3262        0.0010       63.1542       63.1552      32.829004       0.52651
  42    0.3336       30.3261        0.0013       63.1493       63.1506      32.824558       0.51837
  41    0.4307       30.3260        0.0018       63.1431       63.1450      32.819004       0.48288
  40    0.5894       30.3259        0.0026       63.1338       63.1365      32.810607       0.44652
  39     1.339       30.3264        0.0064       63.0956       63.1020      32.775593       0.39420
  38     1.782       30.3275        0.0086       63.0740       63.0826      32.755143       0.38933
  37     2.292       30.3295        0.0112       63.0477       63.0588      32.729302       0.42800
  36     2.964       30.3334        0.0145       63.0095       63.0241      32.690699       0.48458
  35     3.853       30.3400        0.0190       62.9533       62.9722      32.632197       0.55520
  34     5.035       30.3505        0.0249       62.8725       62.8974      32.546882       0.60945
  33     6.613       30.3652        0.0327       62.7621       62.7948      32.429526       0.62739
  32     8.786       30.3843        0.0433       62.6182       62.6615      32.277219       0.59150
  31     11.80       30.4084        0.0583       62.4284       62.4867      32.078286       0.55695
  30     15.07       30.4306        0.0745       62.2426       62.3171      31.886439       0.49531
  29     18.79       30.4525        0.0927       62.0493       62.1419      31.689483       0.44656
  28     23.16       30.4742        0.1138       61.8425       61.9563      31.482111       0.40099
  27     28.12       30.4946        0.1380       61.6278       61.7658      31.271243       0.35846
  26     33.73       30.5111        0.1650       61.4177       61.5827      31.071577       0.30020
  25     40.54       30.5237        0.1975       61.1983       61.3959      30.872122       0.24745
  24     48.69       30.5319        0.2367       60.9680       61.2047      30.672853       0.20621
  23     57.69       30.5339        0.2797       60.7478       61.0275      30.493589       0.16803
  22     68.43       30.5289        0.3308       60.5202       60.8510      30.322104       0.13481
  21     81.20       30.5127        0.3916       60.2938       60.6855      30.172760       0.09868
  20     96.49       30.4840        0.4641       60.0643       60.5284      30.044353       0.07087
  19     114.6       30.4509        0.5506       59.8078       60.3584      29.907465       0.06392
  18     136.5       30.4074        0.6529       59.5158       60.1687      29.761341       0.05619
  17     162.9       30.3514        0.7744       59.1773       59.9517      29.600274       0.05148
  16     196.4       30.2704        0.9315       58.7611       59.6926      29.422218       0.04482
  15     218.7       30.2141        1.0344       58.4958       59.5302      29.316055       0.04031
  14     243.0       30.1516        1.1459       58.2104       59.3563      29.204693       0.03862
  13     269.0       30.0826        1.2665       57.9039       59.1704      29.087780       0.03793
  12     297.5       30.0070        1.3965       57.5736       58.9701      28.963094       0.03698
  11     328.5       29.9251        1.5366       57.2160       58.7526      28.827474       0.03687
  10     361.9       29.8370        1.6869       56.8288       58.5157      28.678621       0.03766
   9     398.1       29.7427        1.8481       56.4074       58.2555      28.512754       0.03864
   8     437.6       29.6427        2.0205       55.9445       57.9650      28.322320       0.04072
   7     480.5       29.5375        2.2044       55.4356       57.6400      28.102474       0.04318
   6     533.0       29.4121        2.4293       54.7850       57.2143      27.802209       0.04830
   5     589.8       29.2847        2.6696       54.0438       56.7135      27.428716       0.05544
   4     651.6       29.1639        2.9245       53.1687       56.0932      26.929252       0.06830
   3     718.7       29.0552        3.1922       52.1625       55.3547      26.299567       0.07913
   2     792.3       28.9770        3.4694       50.9845       54.4539      25.476900       0.09435
   1     891.5       28.9601        3.8251       49.2385       53.0637      24.103530       0.11687
   0    1013.0       29.1056        4.2247       47.0085       51.2331      22.127597       0.13720



 Wavenumbers: 16000. - 22650. cm-1, ATM      1
 LEVEL PRESSURE   UPWARD FLUX   DIFDOWN FLUX  DIRDOWN FLUX  DOWNWARD FLUX   NET FLUX    HEATING RATE
          mb          W/m2          W/m2          W/m2        W/m2          W/m2       degree/day
  51    .06700       73.8256        0.0000      100.7153      100.7153      26.889753       0.00000
  50    .07753       73.8254        0.0003      100.7147      100.7151      26.889637       0.09312
  49    .09103       73.8253        0.0007      100.7140      100.7147      26.889468       0.10562
  48    0.1069       73.8251        0.0012      100.7131      100.7143      26.889241       0.12044
  47    0.1255       73.8249        0.0017      100.7121      100.7138      26.888939       0.13729
  46    0.1487       73.8247        0.0024      100.7108      100.7132      26.888492       0.16269
  45    0.1794       73.8244        0.0033      100.7089      100.7122      26.887795       0.19155
  44    0.2165       73.8241        0.0044      100.7066      100.7110      26.886848       0.21528
  43    0.2613       73.8239        0.0057      100.7037      100.7094      26.885564       0.24202
  42    0.3336       73.8235        0.0079      100.6987      100.7066      26.883123       0.28461
  41    0.4307       73.8231        0.0108      100.6918      100.7025      26.879444       0.31992
  40    0.5894       73.8227        0.0154      100.6797      100.6952      26.872427       0.37316
  39     1.339       73.8264        0.0375      100.6095      100.6470      26.820594       0.58354
  38     1.782       73.8325        0.0505      100.5585      100.6089      26.776453       0.84037
  37     2.292       73.8431        0.0654      100.4903      100.5557      26.712580       1.05792
  36     2.964       73.8627        0.0851      100.3868      100.4719      26.609153       1.29831
  35     3.853       73.8965        0.1111      100.2306      100.3417      26.445164       1.55629
  34     5.035       73.9492        0.1455      100.0045      100.1500      26.200777       1.74580
  33     6.613       74.0236        0.1914       99.6939       99.8852      25.861688       1.81277
  32     8.786       74.1197        0.2531       99.2881       99.5411      25.421391       1.70996
  31     11.80       74.2421        0.3410       98.7496       99.0906      24.848513       1.60388
  30     15.07       74.3558        0.4351       98.2198       98.6549      24.299141       1.41837
  29     18.79       74.4683        0.5410       97.6651       98.2062      23.737852       1.27261
  28     23.16       74.5814        0.6643       97.0671       97.7314      23.150032       1.13665
  27     28.12       74.6893        0.8047       96.4406       97.2452      22.555956       1.00989
  26     33.73       74.7793        0.9613       95.8179       96.7792      21.999884       0.83607
  25     40.54       74.8524        1.1498       95.1548       96.3046      21.452209       0.67945
  24     48.69       74.9062        1.3762       94.4420       95.8181      20.911976       0.55906
  23     57.69       74.9320        1.6238       93.7416       95.3654      20.433397       0.44860
  22     68.43       74.9271        1.9175       92.9954       94.9129      19.985747       0.35191
  21     81.20       74.8724        2.2660       92.2231       94.4892      19.616763       0.24382
  20     96.49       74.7621        2.6793       91.4110       94.0903      19.328220       0.15926
  19     114.6       74.6091        3.1667       90.5070       93.6737      19.064571       0.12311
  18     136.5       74.4135        3.7394       89.4803       93.2197      18.806220       0.09934
  17     162.9       74.1682        4.4145       88.3023       92.7168      18.548569       0.08236
  16     196.4       73.8224        5.2797       86.8607       92.1405      18.318034       0.05803
  15     218.7       73.5861        5.8417       85.9494       91.7911      18.204979       0.04292
  14     243.0       73.3257        6.4469       84.9792       91.4261      18.100352       0.03629
  13     269.0       73.0402        7.0963       83.9498       91.0461      18.005874       0.03065
  12     297.5       72.7289        7.7906       82.8601       90.6507      17.921754       0.02495
  11     328.5       72.3928        8.5322       81.7009       90.2331      17.840226       0.02217
  10     361.9       72.0318        9.3207       80.4725       89.7932      17.761387       0.01995
   9     398.1       71.6449       10.1581       79.1714       89.3295      17.684592       0.01789
   8     437.6       71.2322       11.0445       77.7953       88.8398      17.607599       0.01646
   7     480.5       70.7932       11.9801       76.3434       88.3235      17.530236       0.01519
   6     533.0       70.2588       13.1115       74.5859       87.6974      17.438615       0.01474
   5     589.8       69.6914       14.3066       72.7227       87.0294      17.338003       0.01493
   4     651.6       69.0938       15.5636       70.7478       86.3114      17.217651       0.01646
   3     718.7       68.4686       16.8804       68.6568       85.5372      17.068607       0.01873
   2     792.3       67.8241       18.2518       66.4416       84.6933      16.869207       0.02287
   1     891.5       67.0062       20.0371       63.4790       83.5160      16.509807       0.03058
   0    1013.0       66.1048       22.0845       59.9822       82.0668      15.961986       0.03804



 Wavenumbers: 22650. - 29000. cm-1, ATM      1
 LEVEL PRESSURE   UPWARD FLUX   DIFDOWN FLUX  DIRDOWN FLUX  DOWNWARD FLUX   NET FLUX    HEATING RATE
          mb          W/m2          W/m2          W/m2        W/m2          W/m2       degree/day
  51    .06700       32.4068        0.0000       38.0063       38.0063       5.599469       0.00000
  50    .07753       32.4066        0.0004       38.0057       38.0061       5.599469       0.00000
  49    .09103       32.4064        0.0009       38.0050       38.0059       5.599469       0.00000
  48    0.1069       32.4062        0.0014       38.0042       38.0057       5.599469       0.00000
  47    0.1255       32.4059        0.0020       38.0033       38.0054       5.599469      -0.00000
  46    0.1487       32.4055        0.0028       38.0022       38.0050       5.599469       0.00000
  45    0.1794       32.4050        0.0039       38.0006       38.0045       5.599469      -0.00000
  44    0.2165       32.4045        0.0052       37.9987       38.0039       5.599469       0.00000
  43    0.2613       32.4038        0.0067       37.9965       38.0032       5.599469      -0.00000
  42    0.3336       32.4026        0.0092       37.9928       38.0021       5.599469       0.00000
  41    0.4307       32.4011        0.0126       37.9880       38.0006       5.599469       0.00000
  40    0.5894       32.3986        0.0180       37.9800       37.9981       5.599469       0.00000
  39     1.339       32.3869        0.0439       37.9425       37.9863       5.599469      -0.00000
  38     1.782       32.3800        0.0590       37.9204       37.9794       5.599469       0.00000
  37     2.292       32.3720        0.0766       37.8949       37.9715       5.599469       0.00000
  36     2.964       32.3615        0.0996       37.8614       37.9610       5.599469      -0.00000
  35     3.853       32.3477        0.1299       37.8172       37.9472       5.599469       0.00000
  34     5.035       32.3294        0.1703       37.7586       37.9288       5.599469       0.00000
  33     6.613       32.3049        0.2240       37.6803       37.9044       5.599469       0.00000
  32     8.786       32.2719        0.2964       37.5750       37.8714       5.599469      -0.00000
  31     11.80       32.2249        0.3995       37.4249       37.8244       5.599469       0.00000
  30     15.07       32.1746        0.5099       37.2642       37.7741       5.599469       0.00000
  29     18.79       32.1179        0.6341       37.0833       37.7174       5.599469      -0.00000
  28     23.16       32.0520        0.7785       36.8730       37.6515       5.599469       0.00000
  27     28.12       31.9769        0.9426       36.6338       37.5764       5.599469      -0.00000
  26     33.73       31.8934        1.1252       36.3677       37.4929       5.599469       0.00000
  25     40.54       31.7931        1.3440       36.0486       37.3926       5.599469      -0.00000
  24     48.69       31.6731        1.6054       35.6672       37.2726       5.599469       0.00000
  23     57.69       31.5425        1.8893       35.2527       37.1420       5.599469       0.00000
  22     68.43       31.3886        2.2232       34.7649       36.9881       5.599469      -0.00000
  21     81.20       31.2076        2.6148       34.1922       36.8070       5.599469       0.00000
  20     96.49       30.9951        3.0729       33.5217       36.5946       5.599469      -0.00000
  19     114.6       30.7475        3.6046       32.7424       36.3470       5.599469       0.00000
  18     136.5       30.4604        4.2183       31.8416       36.0599       5.599469       0.00000
  17     162.9       30.1273        4.9260       30.8008       35.7268       5.599469       0.00000
  16     196.4       29.7091        5.8079       29.5007       35.3086       5.599469       0.00000
  15     218.7       29.4427        6.3655       28.6767       35.0422       5.599469      -0.00000
  14     243.0       29.1603        6.9529       27.8068       34.7597       5.599469       0.00000
  13     269.0       28.8622        7.5683       26.8934       34.4617       5.599469       0.00000
  12     297.5       28.5493        8.2093       25.9394       34.1488       5.599469      -0.00000
  11     328.5       28.2213        8.8754       24.9454       33.8208       5.599469       0.00000
  10     361.9       27.8796        9.5624       23.9166       33.4790       5.599469      -0.00000
   9     398.1       27.5243       10.2687       22.8551       33.1238       5.599469       0.00000
   8     437.6       27.1569       10.9897       21.7666       32.7564       5.599469      -0.00000
   7     480.5       26.7782       11.7225       20.6551       32.3776       5.599469       0.00000
   6     533.0       26.3326       12.5696       19.3625       31.9320       5.599469       0.00000
   5     589.8       25.8758       13.4196       18.0557       31.4753       5.599469       0.00000
   4     651.6       25.4091       14.2673       16.7414       31.0086       5.599469      -0.00000
   3     718.7       24.9359       15.1023       15.4330       30.5353       5.599469       0.00000
   2     792.3       24.4575       15.9188       14.1382       30.0570       5.599469      -0.00000
   1     891.5       23.8552       16.9018       12.5529       29.4547       5.599469      -0.00000
   0    1013.0       23.1896       17.9217       10.8674       28.7890       5.599469       0.00000



 Wavenumbers: 29000. - 38000. cm-1, ATM      1
 LEVEL PRESSURE   UPWARD FLUX   DIFDOWN FLUX  DIRDOWN FLUX  DOWNWARD FLUX   NET FLUX    HEATING RATE
          mb          W/m2          W/m2          W/m2        W/m2          W/m2       degree/day
  51    .06700        4.7607        0.0000       13.4026       13.4026       8.641930       0.00000
  50    .07753        4.7604        0.0003       13.3983       13.3986       8.638132       3.04427
  49    .09103        4.7602        0.0007       13.3921       13.3928       8.632613       3.44953
  48    0.1069        4.7599        0.0011       13.3840       13.3851       8.625236       3.92660
  47    0.1255        4.7595        0.0016       13.3733       13.3749       8.615392       4.46299
  46    0.1487        4.7591        0.0022       13.3579       13.3600       8.600950       5.26416
  45    0.1794        4.7585        0.0030       13.3340       13.3371       8.578551       6.14900
  44    0.2165        4.7578        0.0040       13.3024       13.3064       8.548534       6.82846
  43    0.2613        4.7571        0.0051       13.2604       13.2655       8.508481       7.54975
  42    0.3336        4.7558        0.0070       13.1833       13.1903       8.434478       8.62800
  41    0.4307        4.7543        0.0095       13.0729       13.0824       8.328112       9.24831
  40    0.5894        4.7519        0.0133       12.8796       12.8929       8.141080       9.94613
  39     1.339        4.7433        0.0295       11.9165       11.9461       7.202827      10.56303
  38     1.782        4.7398        0.0378       11.4399       11.4778       6.737918       8.85112
  37     2.292        4.7372        0.0467       10.9796       11.0263       6.289087       7.43381
  36     2.964        4.7355        0.0575       10.4786       10.5362       5.800615       6.13179
  35     3.853        4.7358        0.0709        9.9429       10.0138       5.278003       4.95969
  34     5.035        4.7387        0.0877        9.4007        9.4884       4.749628       3.77450
  33     6.613        4.7444        0.1089        8.8752        8.9841       4.239723       2.72595
  32     8.786        4.7522        0.1362        8.3786        8.5148       3.762617       1.85291
  31     11.80        4.7617        0.1738        7.8897        8.0634       3.301778       1.29020
  30     15.07        4.7696        0.2125        7.5108        7.7233       2.953651       0.89879
  29     18.79        4.7769        0.2547        7.1776        7.4323       2.655387       0.67626
  28     23.16        4.7833        0.3021        6.8664        7.1686       2.385288       0.52228
  27     28.12        4.7881        0.3546        6.5780        6.9326       2.144557       0.40923
  26     33.73        4.7889        0.4118        6.3195        6.7312       1.942311       0.30408
  25     40.54        4.7845        0.4792        6.0663        6.5454       1.760889       0.22508
  24     48.69        4.7743        0.5581        5.8128        6.3709       1.596600       0.17001
  23     57.69        4.7584        0.6423        5.5777        6.2200       1.461577       0.12656
  22     68.43        4.7344        0.7398        5.3379        6.0776       1.343196       0.09306
  21     81.20        4.6982        0.8528        5.0965        5.9492       1.251095       0.06086
  20     96.49        4.6483        0.9832        4.8476        5.8309       1.182540       0.03784
  19     114.6        4.5879        1.1310        4.5799        5.7108       1.122896       0.02785
  18     136.5        4.5179        1.2959        4.2891        5.5849       1.067022       0.02148
  17     162.9        4.4379        1.4785        3.9732        5.4517       1.013792       0.01701
  16     196.4        4.3367        1.6970        3.6080        5.3050       0.968327       0.01144
  15     218.7        4.2729        1.8298        3.3898        5.2196       0.946700       0.00821
  14     243.0        4.2064        1.9649        3.1686        5.1335       0.927093       0.00680
  13     269.0        4.1376        2.1013        2.9461        5.0474       0.909812       0.00561
  12     297.5        4.0669        2.2378        2.7239        4.9618       0.894873       0.00443
  11     328.5        3.9950        2.3730        2.5029        4.8758       0.880851       0.00381
  10     361.9        3.9224        2.5056        2.2846        4.7902       0.867770       0.00331
   9     398.1        3.8494        2.6343        2.0708        4.7051       0.855620       0.00283
   8     437.6        3.7767        2.7578        1.8631        4.6209       0.844145       0.00245
   7     480.5        3.7044        2.8752        1.6626        4.5379       0.833464       0.00210
   6     533.0        3.6228        3.0003        1.4445        4.4448       0.822065       0.00183
   5     589.8        3.5429        3.1140        1.2402        4.3541       0.811272       0.00160
   4     651.6        3.4652        3.2147        1.0514        4.2661       0.800936       0.00141
   3     718.7        3.3899        3.3016        0.8794        4.1809       0.791025       0.00125
   2     792.3        3.3173        3.3738        0.7250        4.0988       0.781516       0.00109
   1     891.5        3.2299        3.4430        0.5569        3.9999       0.770036       0.00098
   0    1013.0        3.1378        3.4919        0.4037        3.8955       0.757679       0.00086



 Wavenumbers: 38000. - 50000. cm-1, ATM      1
 LEVEL PRESSURE   UPWARD FLUX   DIFDOWN FLUX  DIRDOWN FLUX  DOWNWARD FLUX   NET FLUX    HEATING RATE
          mb          W/m2          W/m2          W/m2        W/m2          W/m2       degree/day
  51    .06700        0.0051        0.0000        0.8267        0.8267       0.821528       0.00000
  50    .07753        0.0051        0.0001        0.8242        0.8243       0.819196       1.86936
  49    .09103        0.0050        0.0002        0.8207        0.8209       0.815872       2.07705
  48    0.1069        0.0049        0.0002        0.8162        0.8164       0.811514       2.31984
  47    0.1255        0.0048        0.0004        0.8103        0.8106       0.805801       2.59006
  46    0.1487        0.0047        0.0005        0.8018        0.8023       0.797567       3.00143
  45    0.1794        0.0045        0.0007        0.7889        0.7896       0.785013       3.44648
  44    0.2165        0.0044        0.0009        0.7720        0.7729       0.768507       3.75474
  43    0.2613        0.0042        0.0011        0.7500        0.7511       0.746955       4.06246
  42    0.3336        0.0039        0.0015        0.7106        0.7121       0.708267       4.51071
  41    0.4307        0.0035        0.0019        0.6566        0.6584       0.654972       4.63387
  40    0.5894        0.0029        0.0024        0.5680        0.5704       0.567464       4.65357
  39     1.339        0.0015        0.0030        0.2422        0.2452       0.243720       3.64476
  38     1.782        0.0010        0.0026        0.1493        0.1519       0.150889       1.76735
  37     2.292        0.0007        0.0022        0.0924        0.0946       0.093932       0.94336
  36     2.964        0.0005        0.0018        0.0539        0.0557       0.055224       0.48589
  35     3.853        0.0003        0.0013        0.0295        0.0308       0.030502       0.23462
  34     5.035        0.0002        0.0010        0.0154        0.0164       0.016181       0.10230
  33     6.613        0.0001        0.0007        0.0073        0.0080       0.007912       0.04420
  32     8.786        0.0000        0.0004        0.0030        0.0034       0.003390       0.01756
  31     11.80        0.0000        0.0003        0.0010        0.0012       0.001199       0.00613
  30     15.07        0.0000        0.0001        0.0003        0.0005       0.000463       0.00190
  29     18.79        0.0000        0.0001        0.0001        0.0002       0.000182       0.00064
  28     23.16        0.0000        0.0000        0.0000        0.0001       0.000071       0.00022
  27     28.12        0.0000        0.0000        0.0000        0.0000       0.000028       0.00007
  26     33.73        0.0000        0.0000        0.0000        0.0000       0.000011       0.00002
  25     40.54        0.0000        0.0000        0.0000        0.0000       0.000005       0.00001
  24     48.69        0.0000        0.0000        0.0000        0.0000       0.000002       0.00000
  23     57.69        0.0000        0.0000        0.0000        0.0000       0.000001       0.00000
  22     68.43        0.0000        0.0000        0.0000        0.0000       0.000000       0.00000
  21     81.20        0.0000        0.0000        0.0000        0.0000       0.000000       0.00000
  20     96.49        0.0000        0.0000        0.0000        0.0000       0.000000       0.00000
  19     114.6        0.0000        0.0000        0.0000        0.0000       0.000000       0.00000
  18     136.5        0.0000        0.0000        0.0000        0.0000       0.000000       0.00000
  17     162.9        0.0000        0.0000        0.0000        0.0000       0.000000       0.00000
  16     196.4        0.0000        0.0000        0.0000        0.0000       0.000000       0.00000
  15     218.7        0.0000        0.0000        0.0000        0.0000       0.000000       0.00000
  14     243.0        0.0000        0.0000        0.0000        0.0000       0.000000       0.00000
  13     269.0        0.0000        0.0000        0.0000        0.0000       0.000000       0.00000
  12     297.5        0.0000        0.0000        0.0000        0.0000       0.000000       0.00000
  11     328.5        0.0000        0.0000        0.0000        0.0000       0.000000       0.00000
  10     361.9        0.0000        0.0000        0.0000        0.0000       0.000000       0.00000
   9     398.1        0.0000        0.0000        0.0000        0.0000       0.000000       0.00000
   8     437.6        0.0000        0.0000        0.0000        0.0000       0.000000       0.00000
   7     480.5        0.0000        0.0000        0.0000        0.0000       0.000000       0.00000
   6     533.0        0.0000        0.0000        0.0000        0.0000       0.000000       0.00000
   5     589.8        0.0000        0.0000        0.0000        0.0000       0.000000       0.00000
   4     651.6        0.0000        0.0000        0.0000        0.0000       0.000000       0.00000
   3     718.7        0.0000        0.0000        0.0000        0.0000       0.000000       0.00000
   2     792.3        0.0000        0.0000        0.0000        0.0000       0.000000       0.00000
   1     891.5        0.0000        0.0000        0.0000        0.0000       0.000000       0.00000
   0    1013.0        0.0000        0.0000        0.0000        0.0000       0.000000       0.00000



 Wavenumbers:   820. -  2600. cm-1, ATM      1
 LEVEL PRESSURE   UPWARD FLUX   DIFDOWN FLUX  DIRDOWN FLUX  DOWNWARD FLUX   NET FLUX    HEATING RATE
          mb          W/m2          W/m2          W/m2        W/m2          W/m2       degree/day
  51    .06700        0.1725        0.0000        3.8670        3.8670       3.694478       0.00000
  50    .07753        0.1725        0.0000        3.8643        3.8643       3.691752       2.18510
  49    .09103        0.1725        0.0000        3.8635        3.8635       3.690930       0.51376
  48    0.1069        0.1725        0.0000        3.8626        3.8626       3.690025       0.48157
  47    0.1255        0.1725        0.0000        3.8616        3.8616       3.689048       0.44311
  46    0.1487        0.1725        0.0000        3.8605        3.8605       3.687917       0.41229
  45    0.1794        0.1725        0.0000        3.8591        3.8591       3.686552       0.37466
  44    0.2165        0.1725        0.0000        3.8577        3.8577       3.685139       0.32151
  43    0.2613        0.1725        0.0000        3.8562        3.8562       3.683635       0.28348
  42    0.3336        0.1725        0.0000        3.8539        3.8539       3.681329       0.26886
  41    0.4307        0.1725        0.0000        3.8509        3.8509       3.678352       0.25878
  40    0.5894        0.1725        0.0000        3.8460        3.8460       3.673469       0.25968
  39     1.339        0.1725        0.0000        3.8240        3.8240       3.651449       0.24791
  38     1.782        0.1725        0.0000        3.8119        3.8119       3.639331       0.23072
  37     2.292        0.1725        0.0000        3.7986        3.7986       3.626014       0.22057
  36     2.964        0.1725        0.0000        3.7823        3.7823       3.609721       0.20452
  35     3.853        0.1725        0.0000        3.7623        3.7623       3.589791       0.18914
  34     5.035        0.1725        0.0000        3.7378        3.7378       3.565276       0.17513
  33     6.613        0.1725        0.0000        3.7076        3.7076       3.535035       0.16167
  32     8.786        0.1725        0.0000        3.6716        3.6716       3.499041       0.13979
  31     11.80        0.1725        0.0000        3.6316        3.6316       3.459029       0.11202
  30     15.07        0.1725        0.0000        3.6017        3.6017       3.429200       0.07701
  29     18.79        0.1725        0.0000        3.5785        3.5785       3.405966       0.05268
  28     23.16        0.1725        0.0000        3.5580        3.5581       3.385505       0.03957
  27     28.12        0.1725        0.0000        3.5377        3.5377       3.365132       0.03463
  26     33.73        0.1726        0.0000        3.5162        3.5162       3.343660       0.03228
  25     40.54        0.1726        0.0000        3.4913        3.4914       3.318797       0.03085
  24     48.69        0.1726        0.0000        3.4628        3.4628       3.290239       0.02955
  23     57.69        0.1726        0.0000        3.4327        3.4327       3.260172       0.02818
  22     68.43        0.1726        0.0000        3.3986        3.3986       3.226065       0.02681
  21     81.20        0.1726        0.0000        3.3606        3.3606       3.188037       0.02513
  20     96.49        0.1726        0.0000        3.3183        3.3183       3.145732       0.02335
  19     114.6        0.1726        0.0000        3.2715        3.2715       3.098889       0.02187
  18     136.5        0.1726        0.0000        3.2206        3.2206       3.048041       0.01955
  17     162.9        0.1726        0.0000        3.1613        3.1613       2.988704       0.01897
  16     196.4        0.1726        0.0000        3.0792        3.0792       2.906557       0.02068
  15     218.7        0.1726        0.0000        3.0115        3.0115       2.838905       0.02569
  14     243.0        0.1727        0.0000        2.9223        2.9223       2.749649       0.03096
  13     269.0        0.1727        0.0000        2.8151        2.8152       2.642429       0.03478
  12     297.5        0.1728        0.0000        2.6710        2.6710       2.498211       0.04277
  11     328.5        0.1730        0.0000        2.4998        2.4998       2.326880       0.04658
  10     361.9        0.1732        0.0000        2.3186        2.3186       2.145451       0.04590
   9     398.1        0.1734        0.0000        2.1555        2.1556       1.982150       0.03805
   8     437.6        0.1737        0.0000        2.0290        2.0290       1.855272       0.02713
   7     480.5        0.1742        0.0000        1.9377        1.9378       1.763617       0.01800
   6     533.0        0.1748        0.0000        1.8432        1.8432       1.668417       0.01531
   5     589.8        0.1758        0.0000        1.7350        1.7350       1.559203       0.01621
   4     651.6        0.1777        0.0000        1.6037        1.6038       1.426073       0.01821
   3     718.7        0.1810        0.0000        1.4647        1.4648       1.283760       0.01788
   2     792.3        0.1871        0.0000        1.3161        1.3161       1.128942       0.01776
   1     891.5        0.2027        0.0000        1.0919        1.0920       0.889271       0.02039
   0    1013.0        0.2405        0.0000        0.7886        0.7886       0.548102       0.02369

  Modules and versions used in this calculation:

       rrtmg_sw.1col.f90:  $Revision$                    rrtmg_sw_init.f90:  $Revision$        
     rrtmgsw_cldprop.f90:  $Revision$                  rrtmgsw_cldprmc.f90:  NOT USED          
     rrtmg_sw_reftra.f90:  $Revision$                  rrtmg_sw_spcvrt.f90:  NOT USED          
     rrtmg_sw_spcvmc.f90:  NOT USED                    rrtmgsw_setcoef.f90:  NOT USED          
     rrtmg_sw_taumol.f90:  $Revision$                  rrtmg_sw_vrtqdr.f90:  NOT USED          
                rrtatm.f:  NOT USED                             util_xxx.f:  NOT USED          
                 extra.f:  NOT USED                       rrtmg_sw_k_g.f90:  $Revision$        

