

 Wavenumbers:   820. - 50000. cm-1, ATM      1
 LEVEL PRESSURE   UPWARD FLUX   DIFDOWN FLUX  DIRDOWN FLUX  DOWNWARD FLUX   NET FLUX    HEATING RATE
          mb          W/m2          W/m2          W/m2        W/m2          W/m2       degree/day
  51    .06700      376.6350        0.0000      617.8126      617.8126     241.177598       0.00000
  50    .07753      376.6346        0.0013      617.7947      617.7961     241.161462      12.93328
  49    .09103      376.6341        0.0030      617.7778      617.7808     241.146658       9.25289
  48    0.1069      376.6336        0.0050      617.7581      617.7630     241.129404       9.18434
  47    0.1255      376.6331        0.0072      617.7340      617.7412     241.108069       9.67216
  46    0.1487      376.6325        0.0100      617.7009      617.7109     241.078398      10.81549
  45    0.1794      376.6317        0.0138      617.6521      617.6659     241.034190      12.13633
  44    0.2165      376.6309        0.0183      617.5895      617.6078     240.976898      13.03279
  43    0.2613      376.6301        0.0237      617.5089      617.5325     240.902426      14.03776
  42    0.3336      376.6291        0.0324      617.3641      617.3965     240.767416      15.74075
  41    0.4307      376.6282        0.0440      617.1591      617.2031     240.574906      16.73830
  40    0.5894      376.6277        0.0626      616.8005      616.8631     240.235430      18.05291
  39     1.339      376.6428        0.1469      614.9443      615.0912     238.448387      20.11886
  38     1.782      376.6639        0.1943      613.9670      614.1613     237.497456      18.10419
  37     2.292      376.6994        0.2483      613.0059      613.2541     236.554761      15.61349
  36     2.964      376.7627        0.3184      611.9577      612.2760     235.513383      13.07245
  35     3.853      376.8694        0.4103      610.8024      611.2127     234.343278      11.10451
  34     5.035      377.0341        0.5316      609.5327      610.0643     233.030216       9.37997
  33     6.613      377.2663        0.6926      608.1464      608.8391     231.572786       7.79143
  32     8.786      377.5686        0.9086      606.6250      607.5336     229.965065       6.24381
  31     11.80      377.9595        1.2161      604.8486      606.0648     228.105243       5.20692
  30     15.07      378.3309        1.5442      603.2440      604.7882     226.457281       4.25472
  29     18.79      378.7072        1.9134      601.6511      603.5645     224.857304       3.62764
  28     23.16      379.0970        2.3423      599.9927      602.3350     223.238016       3.13118
  27     28.12      379.4845        2.8306      598.2881      601.1186     221.634113       2.72653
  26     33.73      379.8328        3.3748      596.5951      599.9699     220.137089       2.25082
  25     40.54      380.1542        4.0300      594.7727      598.8027     218.648527       1.84673
  24     48.69      380.4453        4.8162      592.7865      597.6027     217.157357       1.54313
  23     57.69      380.6716        5.6755      590.7959      596.4714     215.799763       1.27254
  22     68.43      380.8397        6.6935      588.6191      595.3126     214.472826       1.04315
  21     81.20      380.8990        7.9003      586.2690      594.1693     213.270261       0.79464
  20     96.49      380.8389        9.3291      583.6961      593.0252     212.186314       0.59826
  19     114.6      380.7153       11.0098      580.7708      591.7806     211.065289       0.52344
  18     136.5      380.5258       12.9776      577.4359      590.4135     209.887720       0.45280
  17     162.9      380.2631       15.2865      573.5624      588.8490     208.585859       0.41613
  16     196.4      379.8375       18.2305      568.5907      586.8212     206.983761       0.40327
  15     218.7      379.5296       20.1337      565.0572      585.1909     205.661243       0.50211
  14     243.0      379.1855       22.1746      560.7495      582.9242     203.738608       0.66683
  13     269.0      378.8044       24.3548      555.3947      579.7494     200.945073       0.90621
  12     297.5      378.3879       26.6746      548.9964      575.6710     197.283120       1.08610
  11     328.5      377.9434       29.1405      542.0895      571.2301     193.286693       1.08662
  10     361.9      377.4741       31.7487      534.6242      566.3729     188.898747       1.11019
   9     398.1      376.9835       34.5034      526.4204      560.9238     183.940294       1.15521
   8     437.6      376.4807       37.4034      517.3907      554.7940     178.313270       1.20309
   7     480.5      375.9738       40.4464      507.7216      548.1680     172.194175       1.20177
   6     533.0      375.4085       44.1040      495.9006      540.0047     164.596189       1.22227
   5     589.8      374.9019       47.9409      483.0788      531.0198     156.117897       1.25846
   4     651.6      374.5567       51.9446      468.6907      520.6352     146.078583       1.37290
   3     718.7      374.4861       56.1068      453.2257      509.3325     134.846459       1.41157
   2     792.3      374.9577       60.4061      436.4928      496.8990     121.941268       1.48008
   1     891.5      376.9938       65.9594      413.9344      479.8938     102.899968       1.62032
   0    1013.0      382.9726       72.2737      388.4125      460.6861      77.713542       1.74882



 Wavenumbers:  2600. -  3250. cm-1, ATM      1
 LEVEL PRESSURE   UPWARD FLUX   DIFDOWN FLUX  DIRDOWN FLUX  DOWNWARD FLUX   NET FLUX    HEATING RATE
          mb          W/m2          W/m2          W/m2        W/m2          W/m2       degree/day
  51    .06700        1.0031        0.0000        5.4450        5.4450       4.441928       0.00000
  50    .07753        1.0031        0.0000        5.4450        5.4450       4.441920       0.00640
  49    .09103        1.0031        0.0000        5.4450        5.4450       4.441910       0.00627
  48    0.1069        1.0031        0.0000        5.4450        5.4450       4.441898       0.00613
  47    0.1255        1.0031        0.0000        5.4450        5.4450       4.441885       0.00599
  46    0.1487        1.0031        0.0000        5.4450        5.4450       4.441868       0.00608
  45    0.1794        1.0031        0.0000        5.4450        5.4450       4.441845       0.00625
  44    0.2165        1.0031        0.0000        5.4449        5.4449       4.441818       0.00612
  43    0.2613        1.0031        0.0000        5.4449        5.4449       4.441787       0.00600
  42    0.3336        1.0031        0.0000        5.4448        5.4448       4.441734       0.00617
  41    0.4307        1.0031        0.0000        5.4448        5.4448       4.441662       0.00620
  40    0.5894        1.0031        0.0000        5.4446        5.4446       4.441543       0.00637
  39     1.339        1.0031        0.0000        5.4439        5.4439       4.440835       0.00797
  38     1.782        1.0031        0.0000        5.4434        5.4434       4.440292       0.01034
  37     2.292        1.0031        0.0000        5.4427        5.4427       4.439576       0.01186
  36     2.964        1.0031        0.0000        5.4416        5.4416       4.438538       0.01304
  35     3.853        1.0031        0.0000        5.4402        5.4402       4.437060       0.01402
  34     5.035        1.0031        0.0000        5.4381        5.4381       4.435005       0.01468
  33     6.613        1.0031        0.0000        5.4353        5.4353       4.432224       0.01487
  32     8.786        1.0031        0.0000        5.4317        5.4317       4.428591       0.01411
  31     11.80        1.0031        0.0000        5.4269        5.4269       4.423811       0.01338
  30     15.07        1.0031        0.0000        5.4224        5.4224       4.419284       0.01169
  29     18.79        1.0031        0.0000        5.4180        5.4180       4.414871       0.01000
  28     23.16        1.0031        0.0000        5.4135        5.4135       4.410384       0.00868
  27     28.12        1.0031        0.0000        5.4088        5.4088       4.405735       0.00790
  26     33.73        1.0031        0.0000        5.4036        5.4036       4.400492       0.00788
  25     40.54        1.0031        0.0000        5.3966        5.3967       4.393547       0.00862
  24     48.69        1.0031        0.0000        5.3872        5.3872       4.384065       0.00981
  23     57.69        1.0031        0.0000        5.3754        5.3754       4.372272       0.01105
  22     68.43        1.0031        0.0000        5.3599        5.3599       4.356773       0.01218
  21     81.20        1.0032        0.0000        5.3401        5.3401       4.336923       0.01312
  20     96.49        1.0032        0.0000        5.3155        5.3155       4.312331       0.01357
  19     114.6        1.0033        0.0000        5.2853        5.2854       4.282100       0.01412
  18     136.5        1.0033        0.0001        5.2504        5.2505       4.247144       0.01344
  17     162.9        1.0034        0.0001        5.2111        5.2112       4.207728       0.01260
  16     196.4        1.0036        0.0001        5.1640        5.1641       4.160507       0.01189
  15     218.7        1.0038        0.0001        5.1331        5.1332       4.129395       0.01181
  14     243.0        1.0041        0.0001        5.0962        5.0963       4.092176       0.01291
  13     269.0        1.0047        0.0001        5.0511        5.0512       4.046542       0.01480
  12     297.5        1.0054        0.0001        4.9956        4.9957       3.990283       0.01669
  11     328.5        1.0065        0.0001        4.9304        4.9305       3.923978       0.01803
  10     361.9        1.0080        0.0001        4.8511        4.8512       3.843246       0.02043
   9     398.1        1.0100        0.0001        4.7507        4.7508       3.740847       0.02386
   8     437.6        1.0127        0.0002        4.6220        4.6222       3.609504       0.02808
   7     480.5        1.0163        0.0002        4.4625        4.4626       3.446301       0.03205
   6     533.0        1.0221        0.0002        4.2460        4.2462       3.224071       0.03575
   5     589.8        1.0307        0.0002        3.9954        3.9956       2.964854       0.03848
   4     651.6        1.0443        0.0002        3.7089        3.7090       2.664745       0.04104
   3     718.7        1.0653        0.0002        3.4018        3.4020       2.336701       0.04123
   2     792.3        1.0997        0.0002        3.0564        3.0566       1.956938       0.04355
   1     891.5        1.1775        0.0002        2.5828        2.5830       1.405531       0.04692
   0    1013.0        1.3603        0.0002        2.0845        2.0847       0.724434       0.04729



 Wavenumbers:  3250. -  4000. cm-1, ATM      1
 LEVEL PRESSURE   UPWARD FLUX   DIFDOWN FLUX  DIRDOWN FLUX  DOWNWARD FLUX   NET FLUX    HEATING RATE
          mb          W/m2          W/m2          W/m2        W/m2          W/m2       degree/day
  51    .06700        0.0005        0.0000        9.1795        9.1795       9.178999       0.00000
  50    .07753        0.0005        0.0000        9.1747        9.1747       9.174157       3.88148
  49    .09103        0.0005        0.0000        9.1713        9.1713       9.170769       2.11747
  48    0.1069        0.0005        0.0000        9.1688        9.1688       9.168244       1.34402
  47    0.1255        0.0005        0.0000        9.1665        9.1665       9.165985       1.02422
  46    0.1487        0.0005        0.0000        9.1641        9.1641       9.163543       0.88991
  45    0.1794        0.0005        0.0000        9.1612        9.1612       9.160665       0.79008
  44    0.2165        0.0005        0.0000        9.1583        9.1583       9.157745       0.66430
  43    0.2613        0.0005        0.0000        9.1553        9.1553       9.154772       0.56041
  42    0.3336        0.0005        0.0000        9.1511        9.1511       9.150593       0.48723
  41    0.4307        0.0005        0.0000        9.1464        9.1464       9.145825       0.41459
  40    0.5894        0.0005        0.0000        9.1393        9.1394       9.138819       0.37255
  39     1.339        0.0005        0.0000        9.1127        9.1127       9.112206       0.29962
  38     1.782        0.0005        0.0000        9.1011        9.1011       9.100617       0.22062
  37     2.292        0.0005        0.0000        9.0901        9.0901       9.089551       0.18329
  36     2.964        0.0005        0.0000        9.0776        9.0776       9.077121       0.15603
  35     3.853        0.0005        0.0000        9.0629        9.0629       9.062331       0.14036
  34     5.035        0.0005        0.0000        9.0441        9.0441       9.043592       0.13386
  33     6.613        0.0005        0.0000        9.0191        9.0191       9.018590       0.13366
  32     8.786        0.0005        0.0000        8.9843        8.9843       8.983807       0.13509
  31     11.80        0.0005        0.0000        8.9327        8.9327       8.932190       0.14451
  30     15.07        0.0005        0.0000        8.8758        8.8759       8.875345       0.14676
  29     18.79        0.0005        0.0000        8.8110        8.8110       8.810518       0.14698
  28     23.16        0.0005        0.0000        8.7365        8.7366       8.736073       0.14395
  27     28.12        0.0005        0.0000        8.6554        8.6555       8.654960       0.13789
  26     33.73        0.0005        0.0000        8.5719        8.5719       8.571461       0.12554
  25     40.54        0.0005        0.0001        8.4812        8.4812       8.480737       0.11255
  24     48.69        0.0005        0.0001        8.3838        8.3839       8.383436       0.10069
  23     57.69        0.0005        0.0001        8.2861        8.2862       8.285700       0.09161
  22     68.43        0.0004        0.0001        8.1751        8.1751       8.174704       0.08726
  21     81.20        0.0004        0.0001        8.0457        8.0458       8.045346       0.08548
  20     96.49        0.0004        0.0001        7.8949        7.8950       7.894642       0.08318
  19     114.6        0.0004        0.0001        7.7162        7.7163       7.715933       0.08344
  18     136.5        0.0004        0.0002        7.5193        7.5194       7.519089       0.07569
  17     162.9        0.0003        0.0002        7.2913        7.2915       7.291198       0.07284
  16     196.4        0.0003        0.0002        6.9660        6.9662       6.965925       0.08187
  15     218.7        0.0003        0.0002        6.6648        6.6650       6.664737       0.11435
  14     243.0        0.0002        0.0002        6.2619        6.2622       6.261942       0.13970
  13     269.0        0.0002        0.0003        5.7576        5.7579       5.757643       0.16359
  12     297.5        0.0002        0.0003        5.1719        5.1722       5.171952       0.17371
  11     328.5        0.0002        0.0002        4.5757        4.5760       4.575793       0.16209
  10     361.9        0.0002        0.0002        3.9995        3.9998       3.999618       0.14578
   9     398.1        0.0002        0.0002        3.4655        3.4657       3.465562       0.12442
   8     437.6        0.0001        0.0002        2.9740        2.9742       2.974114       0.10507
   7     480.5        0.0001        0.0002        2.5307        2.5309       2.530741       0.08708
   6     533.0        0.0001        0.0002        2.0614        2.0616       2.061446       0.07549
   5     589.8        0.0001        0.0002        1.6150        1.6151       1.615016       0.06626
   4     651.6        0.0001        0.0001        1.1565        1.1566       1.156470       0.06271
   3     718.7        0.0001        0.0001        0.7390        0.7391       0.738968       0.05247
   2     792.3        0.0002        0.0001        0.3985        0.3985       0.398309       0.03907
   1     891.5        0.0006        0.0000        0.1139        0.1139       0.113314       0.02425
   0    1013.0        0.0061        0.0000        0.0094        0.0094       0.003261       0.00764



 Wavenumbers:  4000. -  4650. cm-1, ATM      1
 LEVEL PRESSURE   UPWARD FLUX   DIFDOWN FLUX  DIRDOWN FLUX  DOWNWARD FLUX   NET FLUX    HEATING RATE
          mb          W/m2          W/m2          W/m2        W/m2          W/m2       degree/day
  51    .06700        4.0512        0.0000       10.7795       10.7795       6.728346       0.00000
  50    .07753        4.0512        0.0000       10.7795       10.7795       6.728345       0.00080
  49    .09103        4.0512        0.0000       10.7795       10.7795       6.728343       0.00078
  48    0.1069        4.0512        0.0000       10.7795       10.7795       6.728342       0.00076
  47    0.1255        4.0512        0.0000       10.7795       10.7795       6.728340       0.00075
  46    0.1487        4.0512        0.0000       10.7795       10.7795       6.728338       0.00076
  45    0.1794        4.0512        0.0000       10.7795       10.7795       6.728335       0.00078
  44    0.2165        4.0512        0.0000       10.7795       10.7795       6.728332       0.00076
  43    0.2613        4.0512        0.0000       10.7795       10.7795       6.728328       0.00075
  42    0.3336        4.0512        0.0000       10.7795       10.7795       6.728321       0.00077
  41    0.4307        4.0512        0.0000       10.7795       10.7795       6.728313       0.00077
  40    0.5894        4.0512        0.0000       10.7795       10.7795       6.728298       0.00080
  39     1.339        4.0512        0.0000       10.7794       10.7794       6.728208       0.00101
  38     1.782        4.0512        0.0000       10.7793       10.7793       6.728138       0.00133
  37     2.292        4.0512        0.0000       10.7792       10.7792       6.728044       0.00156
  36     2.964        4.0512        0.0000       10.7791       10.7791       6.727904       0.00176
  35     3.853        4.0512        0.0000       10.7789       10.7789       6.727696       0.00197
  34     5.035        4.0512        0.0000       10.7786       10.7786       6.727389       0.00219
  33     6.613        4.0512        0.0000       10.7781       10.7781       6.726938       0.00241
  32     8.786        4.0512        0.0000       10.7774       10.7774       6.726271       0.00259
  31     11.80        4.0512        0.0001       10.7763       10.7764       6.725224       0.00293
  30     15.07        4.0512        0.0001       10.7751       10.7752       6.723996       0.00317
  29     18.79        4.0512        0.0001       10.7736       10.7737       6.722511       0.00337
  28     23.16        4.0511        0.0001       10.7717       10.7718       6.720667       0.00356
  27     28.12        4.0511        0.0001       10.7695       10.7696       6.718436       0.00379
  26     33.73        4.0511        0.0001       10.7667       10.7668       6.715685       0.00414
  25     40.54        4.0511        0.0002       10.7629       10.7631       6.711954       0.00463
  24     48.69        4.0511        0.0002       10.7579       10.7581       6.706985       0.00514
  23     57.69        4.0512        0.0003       10.7520       10.7523       6.701096       0.00552
  22     68.43        4.0512        0.0003       10.7446       10.7449       6.693717       0.00580
  21     81.20        4.0512        0.0004       10.7355       10.7359       6.684636       0.00600
  20     96.49        4.0513        0.0004       10.7245       10.7249       6.673592       0.00610
  19     114.6        4.0514        0.0005       10.7107       10.7112       6.659788       0.00645
  18     136.5        4.0516        0.0006       10.6942       10.6948       6.643168       0.00639
  17     162.9        4.0519        0.0007       10.6740       10.6747       6.622806       0.00651
  16     196.4        4.0525        0.0009       10.6464       10.6472       6.594740       0.00706
  15     218.7        4.0530        0.0010       10.6255       10.6264       6.573397       0.00810
  14     243.0        4.0538        0.0011       10.5980       10.5991       6.545270       0.00976
  13     269.0        4.0551        0.0012       10.5611       10.5623       6.507150       0.01237
  12     297.5        4.0570        0.0013       10.5119       10.5132       6.456213       0.01511
  11     328.5        4.0597        0.0014       10.4499       10.4513       6.391621       0.01756
  10     361.9        4.0632        0.0016       10.3702       10.3717       6.308573       0.02101
   9     398.1        4.0675        0.0017       10.2678       10.2695       6.201984       0.02483
   8     437.6        4.0729        0.0018       10.1390       10.1408       6.067926       0.02866
   7     480.5        4.0796        0.0020        9.9877        9.9897       5.910064       0.03100
   6     533.0        4.0896        0.0022        9.7937        9.7959       5.706229       0.03279
   5     589.8        4.1035        0.0024        9.5752        9.5775       5.474027       0.03447
   4     651.6        4.1245        0.0026        9.2958        9.2984       5.173818       0.04105
   3     718.7        4.1571        0.0027        8.9267        8.9295       4.772330       0.05046
   2     792.3        4.2108        0.0029        8.4542        8.4571       4.246328       0.06033
   1     891.5        4.3339        0.0031        7.7948        7.7979       3.464020       0.06657
   0    1013.0        4.6196        0.0032        7.0767        7.0799       2.460264       0.06970



 Wavenumbers:  4650. -  5150. cm-1, ATM      1
 LEVEL PRESSURE   UPWARD FLUX   DIFDOWN FLUX  DIRDOWN FLUX  DOWNWARD FLUX   NET FLUX    HEATING RATE
          mb          W/m2          W/m2          W/m2        W/m2          W/m2       degree/day
  51    .06700        2.8528        0.0000       10.2033       10.2033       7.350518       0.00000
  50    .07753        2.8528        0.0000       10.2031       10.2031       7.350282       0.18901
  49    .09103        2.8528        0.0000       10.2028       10.2028       7.349988       0.18428
  48    0.1069        2.8528        0.0000       10.2025       10.2025       7.349651       0.17931
  47    0.1255        2.8528        0.0000       10.2021       10.2021       7.349266       0.17426
  46    0.1487        2.8528        0.0000       10.2016       10.2016       7.348785       0.17536
  45    0.1794        2.8528        0.0000       10.2010       10.2010       7.348135       0.17850
  44    0.2165        2.8528        0.0000       10.2002       10.2002       7.347376       0.17277
  43    0.2613        2.8528        0.0000       10.1993       10.1993       7.346490       0.16690
  42    0.3336        2.8528        0.0000       10.1979       10.1979       7.345058       0.16702
  41    0.4307        2.8528        0.0000       10.1960       10.1960       7.343217       0.16002
  40    0.5894        2.8528        0.0000       10.1932       10.1932       7.340343       0.15283
  39     1.339        2.8528        0.0000       10.1816       10.1816       7.328752       0.13050
  38     1.782        2.8528        0.0000       10.1760       10.1760       7.323223       0.10526
  37     2.292        2.8528        0.0000       10.1706       10.1706       7.317767       0.09037
  36     2.964        2.8528        0.0000       10.1646       10.1647       7.311844       0.07435
  35     3.853        2.8528        0.0000       10.1584       10.1584       7.305630       0.05897
  34     5.035        2.8528        0.0000       10.1521       10.1521       7.299294       0.04526
  33     6.613        2.8528        0.0000       10.1456       10.1456       7.292838       0.03452
  32     8.786        2.8528        0.0001       10.1386       10.1386       7.285828       0.02722
  31     11.80        2.8528        0.0001       10.1295       10.1296       7.276788       0.02531
  30     15.07        2.8528        0.0001       10.1196       10.1197       7.266910       0.02550
  29     18.79        2.8528        0.0001       10.1076       10.1077       7.254904       0.02722
  28     23.16        2.8528        0.0002       10.0923       10.0924       7.239599       0.02959
  27     28.12        2.8528        0.0002       10.0731       10.0733       7.220505       0.03246
  26     33.73        2.8528        0.0002       10.0500       10.0503       7.197410       0.03472
  25     40.54        2.8529        0.0003       10.0201       10.0204       7.167504       0.03710
  24     48.69        2.8529        0.0003        9.9820        9.9823       7.129327       0.03951
  23     57.69        2.8530        0.0004        9.9384        9.9388       7.085780       0.04082
  22     68.43        2.8532        0.0004        9.8858        9.8862       7.033033       0.04147
  21     81.20        2.8533        0.0005        9.8234        9.8240       6.970619       0.04124
  20     96.49        2.8536        0.0006        9.7518        9.7524       6.898766       0.03966
  19     114.6        2.8540        0.0007        9.6719        9.6726       6.818661       0.03740
  18     136.5        2.8545        0.0008        9.5858        9.5866       6.732140       0.03327
  17     162.9        2.8553        0.0010        9.4940        9.4950       6.639788       0.02952
  16     196.4        2.8564        0.0012        9.3883        9.3895       6.533042       0.02687
  15     218.7        2.8574        0.0013        9.3229        9.3242       6.466859       0.02513
  14     243.0        2.8587        0.0015        9.2520        9.2534       6.394789       0.02500
  13     269.0        2.8604        0.0016        9.1717        9.1733       6.312868       0.02657
  12     297.5        2.8629        0.0018        9.0763        9.0780       6.215122       0.02899
  11     328.5        2.8662        0.0019        8.9650        8.9669       6.100657       0.03112
  10     361.9        2.8705        0.0021        8.8349        8.8370       5.966475       0.03395
   9     398.1        2.8761        0.0023        8.6820        8.6843       5.808155       0.03688
   8     437.6        2.8834        0.0025        8.5028        8.5053       5.621854       0.03983
   7     480.5        2.8928        0.0027        8.2948        8.2975       5.404642       0.04266
   6     533.0        2.9071        0.0029        8.0209        8.0238       5.116672       0.04633
   5     589.8        2.9267        0.0031        7.7063        7.7094       4.782688       0.04957
   4     651.6        2.9553        0.0033        7.3412        7.3445       4.389175       0.05381
   3     718.7        2.9974        0.0034        6.9387        6.9421       3.944723       0.05586
   2     792.3        3.0612        0.0036        6.5066        6.5102       3.449051       0.05685
   1     891.5        3.1939        0.0038        5.9361        5.9399       2.745934       0.05983
   0    1013.0        3.4624        0.0039        5.3025        5.3064       1.843982       0.06263



 Wavenumbers:  5150. -  6150. cm-1, ATM      1
 LEVEL PRESSURE   UPWARD FLUX   DIFDOWN FLUX  DIRDOWN FLUX  DOWNWARD FLUX   NET FLUX    HEATING RATE
          mb          W/m2          W/m2          W/m2        W/m2          W/m2       degree/day
  51    .06700        7.2872        0.0000       25.5798       25.5798      18.292623       0.00000
  50    .07753        7.2872        0.0000       25.5798       25.5798      18.292584       0.03159
  49    .09103        7.2872        0.0000       25.5797       25.5797      18.292532       0.03207
  48    0.1069        7.2872        0.0000       25.5797       25.5797      18.292471       0.03258
  47    0.1255        7.2872        0.0000       25.5796       25.5796      18.292398       0.03308
  46    0.1487        7.2872        0.0000       25.5795       25.5795      18.292303       0.03485
  45    0.1794        7.2872        0.0000       25.5794       25.5794      18.292167       0.03710
  44    0.2165        7.2872        0.0000       25.5792       25.5792      18.292002       0.03766
  43    0.2613        7.2872        0.0000       25.5790       25.5790      18.291799       0.03824
  42    0.3336        7.2872        0.0000       25.5786       25.5786      18.291453       0.04040
  41    0.4307        7.2872        0.0000       25.5782       25.5782      18.290982       0.04094
  40    0.5894        7.2872        0.0000       25.5774       25.5774      18.290193       0.04195
  39     1.339        7.2872        0.0000       25.5735       25.5736      18.286393       0.04278
  38     1.782        7.2872        0.0001       25.5713       25.5714      18.284180       0.04212
  37     2.292        7.2872        0.0001       25.5688       25.5688      18.281677       0.04147
  36     2.964        7.2872        0.0001       25.5656       25.5657      18.278496       0.03993
  35     3.853        7.2871        0.0001       25.5615       25.5616      18.274454       0.03836
  34     5.035        7.2871        0.0001       25.5562       25.5564      18.269249       0.03718
  33     6.613        7.2871        0.0002       25.5494       25.5496      18.262497       0.03610
  32     8.786        7.2871        0.0003       25.5406       25.5409      18.253747       0.03398
  31     11.80        7.2871        0.0003       25.5287       25.5290      18.241915       0.03313
  30     15.07        7.2871        0.0004       25.5167       25.5171      18.230052       0.03063
  29     18.79        7.2871        0.0006       25.5042       25.5047      18.217650       0.02812
  28     23.16        7.2871        0.0007       25.4907       25.4914      18.204292       0.02583
  27     28.12        7.2871        0.0008       25.4764       25.4773      18.190208       0.02394
  26     33.73        7.2871        0.0010       25.4620       25.4630      18.175938       0.02146
  25     40.54        7.2871        0.0012       25.4463       25.4474      18.160337       0.01935
  24     48.69        7.2872        0.0014       25.4294       25.4308      18.143635       0.01728
  23     57.69        7.2873        0.0017       25.4126       25.4143      18.127056       0.01554
  22     68.43        7.2874        0.0020       25.3944       25.3964      18.109058       0.01415
  21     81.20        7.2876        0.0024       25.3744       25.3768      18.089257       0.01308
  20     96.49        7.2878        0.0028       25.3519       25.3548      18.067007       0.01228
  19     114.6        7.2880        0.0034       25.3262       25.3295      18.041493       0.01191
  18     136.5        7.2884        0.0040       25.2962       25.3002      18.011796       0.01142
  17     162.9        7.2889        0.0048       25.2521       25.2569      17.968003       0.01400
  16     196.4        7.2895        0.0057       25.1593       25.1650      17.875531       0.02328
  15     218.7        7.2899        0.0063       25.0159       25.0223      17.732316       0.05437
  14     243.0        7.2905        0.0070       24.7089       24.7159      17.425351       0.10647
  13     269.0        7.2913        0.0076       24.1619       24.1694      16.878148       0.17751
  12     297.5        7.2923        0.0082       23.4544       23.4626      16.170254       0.20995
  11     328.5        7.2937        0.0088       22.7355       22.7443      15.450627       0.19566
  10     361.9        7.2954        0.0095       21.9224       21.9319      14.636496       0.20598
   9     398.1        7.2976        0.0101       20.9939       21.0040      13.706367       0.21670
   8     437.6        7.3005        0.0106       19.9833       19.9940      12.693419       0.21657
   7     480.5        7.3044        0.0112       18.9483       18.9595      11.655087       0.20392
   6     533.0        7.3105        0.0118       17.7796       17.7914      10.480867       0.18889
   5     589.8        7.3198        0.0124       16.6726       16.6850       9.365182       0.16560
   4     651.6        7.3356        0.0130       15.6343       15.6473       8.311789       0.14405
   3     718.7        7.3623        0.0138       14.7738       14.7875       7.425276       0.11141
   2     792.3        7.4102        0.0146       14.0291       14.0437       6.633485       0.09081
   1     891.5        7.5308        0.0156       13.0822       13.0978       5.566951       0.09076
   0    1013.0        7.8659        0.0166       12.0384       12.0550       4.189112       0.09567



 Wavenumbers:  6150. -  7700. cm-1, ATM      1
 LEVEL PRESSURE   UPWARD FLUX   DIFDOWN FLUX  DIRDOWN FLUX  DOWNWARD FLUX   NET FLUX    HEATING RATE
          mb          W/m2          W/m2          W/m2        W/m2          W/m2       degree/day
  51    .06700       10.7363        0.0000       47.3109       47.3109      36.574540       0.00000
  50    .07753       10.7363        0.0000       47.3108       47.3108      36.574483       0.04553
  49    .09103       10.7363        0.0000       47.3107       47.3107      36.574410       0.04583
  48    0.1069       10.7363        0.0000       47.3106       47.3106      36.574323       0.04614
  47    0.1255       10.7363        0.0000       47.3105       47.3105      36.574221       0.04645
  46    0.1487       10.7363        0.0000       47.3104       47.3104      36.574087       0.04852
  45    0.1794       10.7363        0.0000       47.3102       47.3102      36.573901       0.05127
  44    0.2165       10.7363        0.0000       47.3100       47.3100      36.573674       0.05167
  43    0.2613       10.7363        0.0000       47.3097       47.3097      36.573397       0.05210
  42    0.3336       10.7363        0.0000       47.3092       47.3092      36.572928       0.05471
  41    0.4307       10.7363        0.0000       47.3085       47.3086      36.572293       0.05521
  40    0.5894       10.7363        0.0001       47.3074       47.3075      36.571234       0.05633
  39     1.339       10.7362        0.0002       47.3022       47.3023      36.566141       0.05733
  38     1.782       10.7362        0.0002       47.2991       47.2993      36.563171       0.05655
  37     2.292       10.7361        0.0003       47.2956       47.2959      36.559796       0.05591
  36     2.964       10.7361        0.0004       47.2912       47.2915      36.555477       0.05421
  35     3.853       10.7360        0.0005       47.2855       47.2859      36.549943       0.05252
  34     5.035       10.7359        0.0006       47.2780       47.2786      36.542762       0.05129
  33     6.613       10.7357        0.0008       47.2683       47.2691      36.533375       0.05019
  32     8.786       10.7356        0.0011       47.2556       47.2566      36.521076       0.04777
  31     11.80       10.7353        0.0014       47.2380       47.2395      36.504172       0.04732
  30     15.07       10.7350        0.0018       47.2201       47.2219      36.486885       0.04463
  29     18.79       10.7347        0.0023       47.2008       47.2031      36.468406       0.04190
  28     23.16       10.7343        0.0028       47.1795       47.1823      36.448017       0.03943
  27     28.12       10.7339        0.0034       47.1565       47.1599      36.426025       0.03739
  26     33.73       10.7334        0.0041       47.1324       47.1365      36.403105       0.03446
  25     40.54       10.7328        0.0049       47.1054       47.1103      36.377470       0.03180
  24     48.69       10.7321        0.0059       47.0754       47.0813      36.349220       0.02923
  23     57.69       10.7313        0.0069       47.0449       47.0519      36.320602       0.02683
  22     68.43       10.7304        0.0082       47.0110       47.0192      36.288870       0.02495
  21     81.20       10.7292        0.0098       46.9729       46.9826      36.253383       0.02345
  20     96.49       10.7279        0.0116       46.9294       46.9410      36.213052       0.02226
  19     114.6       10.7263        0.0138       46.8790       46.8928      36.166434       0.02177
  18     136.5       10.7245        0.0163       46.8200       46.8363      36.111833       0.02100
  17     162.9       10.7223        0.0194       46.7361       46.7555      36.033253       0.02512
  16     196.4       10.7195        0.0234       46.5703       46.5936      35.874159       0.04005
  15     218.7       10.7177        0.0259       46.3473       46.3732      35.655533       0.08300
  14     243.0       10.7159        0.0286       45.9299       45.9584      35.242577       0.14323
  13     269.0       10.7142        0.0313       45.1708       45.2020      34.487869       0.24482
  12     297.5       10.7128        0.0338       44.0115       44.0453      33.332551       0.34265
  11     328.5       10.7118        0.0365       42.7242       42.7607      32.048915       0.34902
  10     361.9       10.7114        0.0391       41.3539       41.3931      30.681610       0.34594
   9     398.1       10.7122        0.0417       39.7953       39.8370      29.124804       0.36270
   8     437.6       10.7146        0.0441       37.9948       38.0389      27.324297       0.38496
   7     480.5       10.7194        0.0463       36.0647       36.1110      25.391672       0.37956
   6     533.0       10.7297        0.0487       33.7773       33.8260      23.096347       0.36924
   5     589.8       10.7489        0.0508       31.4082       31.4590      20.710166       0.35419
   4     651.6       10.7866        0.0525       28.8834       28.9359      18.149272       0.35021
   3     718.7       10.8559        0.0539       26.4104       26.4643      15.608401       0.31932
   2     792.3       10.9853        0.0551       24.0056       24.0607      13.075414       0.29051
   1     891.5       11.3133        0.0564       21.2348       21.2911       9.977843       0.26359
   0    1013.0       12.1840        0.0578       18.6150       18.6728       6.488813       0.24226



 Wavenumbers:  7700. -  8050. cm-1, ATM      1
 LEVEL PRESSURE   UPWARD FLUX   DIFDOWN FLUX  DIRDOWN FLUX  DOWNWARD FLUX   NET FLUX    HEATING RATE
          mb          W/m2          W/m2          W/m2        W/m2          W/m2       degree/day
  51    .06700        5.7405        0.0000       11.1810       11.1810       5.440422       0.00000
  50    .07753        5.7405        0.0000       11.1809       11.1809       5.440400       0.01724
  49    .09103        5.7405        0.0000       11.1809       11.1809       5.440373       0.01690
  48    0.1069        5.7406        0.0000       11.1809       11.1809       5.440342       0.01654
  47    0.1255        5.7406        0.0000       11.1809       11.1809       5.440306       0.01619
  46    0.1487        5.7406        0.0000       11.1808       11.1808       5.440261       0.01643
  45    0.1794        5.7406        0.0000       11.1808       11.1808       5.440200       0.01690
  44    0.2165        5.7406        0.0000       11.1807       11.1807       5.440127       0.01658
  43    0.2613        5.7406        0.0000       11.1806       11.1806       5.440040       0.01627
  42    0.3336        5.7406        0.0000       11.1805       11.1805       5.439898       0.01665
  41    0.4307        5.7407        0.0000       11.1803       11.1804       5.439708       0.01647
  40    0.5894        5.7407        0.0000       11.1801       11.1801       5.439399       0.01645
  39     1.339        5.7409        0.0001       11.1788       11.1789       5.437936       0.01647
  38     1.782        5.7411        0.0001       11.1781       11.1782       5.437076       0.01636
  37     2.292        5.7412        0.0001       11.1772       11.1773       5.436081       0.01648
  36     2.964        5.7415        0.0002       11.1761       11.1762       5.434775       0.01640
  35     3.853        5.7417        0.0002       11.1746       11.1748       5.433049       0.01638
  34     5.035        5.7421        0.0003       11.1726       11.1729       5.430757       0.01637
  33     6.613        5.7426        0.0004       11.1700       11.1703       5.427696       0.01637
  32     8.786        5.7433        0.0005       11.1664       11.1669       5.423572       0.01602
  31     11.80        5.7443        0.0006       11.1613       11.1619       5.417676       0.01651
  30     15.07        5.7453        0.0008       11.1558       11.1567       5.411352       0.01633
  29     18.79        5.7465        0.0010       11.1497       11.1507       5.404216       0.01618
  28     23.16        5.7479        0.0013       11.1425       11.1438       5.395892       0.01610
  27     28.12        5.7495        0.0015       11.1343       11.1359       5.386388       0.01616
  26     33.73        5.7513        0.0018       11.1252       11.1270       5.375774       0.01596
  25     40.54        5.7534        0.0022       11.1142       11.1164       5.362982       0.01587
  24     48.69        5.7561        0.0026       11.1010       11.1037       5.347607       0.01591
  23     57.69        5.7590        0.0031       11.0866       11.0897       5.330779       0.01577
  22     68.43        5.7624        0.0037       11.0695       11.0732       5.310819       0.01569
  21     81.20        5.7666        0.0044       11.0494       11.0538       5.287159       0.01563
  20     96.49        5.7716        0.0052       11.0255       11.0308       5.259136       0.01547
  19     114.6        5.7776        0.0062       10.9975       11.0037       5.226098       0.01543
  18     136.5        5.7849        0.0074       10.9648       10.9721       5.187261       0.01493
  17     162.9        5.7936        0.0087       10.9263       10.9350       5.141445       0.01464
  16     196.4        5.8051        0.0105       10.8773       10.8878       5.082691       0.01479
  15     218.7        5.8128        0.0117       10.8455       10.8572       5.044457       0.01452
  14     243.0        5.8212        0.0129       10.8114       10.8244       5.003151       0.01433
  13     269.0        5.8306        0.0143       10.7749       10.7892       4.958604       0.01445
  12     297.5        5.8409        0.0158       10.7357       10.7515       4.910582       0.01424
  11     328.5        5.8523        0.0174       10.6937       10.7111       4.858769       0.01409
  10     361.9        5.8650        0.0191       10.6489       10.6679       4.802929       0.01413
   9     398.1        5.8791        0.0209       10.6008       10.6217       4.742554       0.01407
   8     437.6        5.8950        0.0229       10.5491       10.5720       4.677012       0.01401
   7     480.5        5.9127        0.0250       10.4934       10.5185       4.605718       0.01400
   6     533.0        5.9359        0.0276       10.4243       10.4519       4.515992       0.01443
   5     589.8        5.9629        0.0304       10.3479       10.3783       4.415371       0.01494
   4     651.6        5.9954        0.0334       10.2613       10.2948       4.299391       0.01586
   3     718.7        6.0351        0.0366       10.1618       10.1984       4.163295       0.01710
   2     792.3        6.0853        0.0400       10.0439       10.0839       3.998528       0.01890
   1     891.5        6.1698        0.0444        9.8626        9.9070       3.737244       0.02223
   0    1013.0        6.3030        0.0495        9.6103        9.6598       3.356783       0.02642



 Wavenumbers:  8050. - 12850. cm-1, ATM      1
 LEVEL PRESSURE   UPWARD FLUX   DIFDOWN FLUX  DIRDOWN FLUX  DOWNWARD FLUX   NET FLUX    HEATING RATE
          mb          W/m2          W/m2          W/m2        W/m2          W/m2       degree/day
  51    .06700       69.9668        0.0000      156.5418      156.5418      86.574988       0.00000
  50    .07753       69.9667        0.0000      156.5417      156.5417      86.574988      -0.00000
  49    .09103       69.9667        0.0001      156.5417      156.5417      86.574988      -0.00000
  48    0.1069       69.9667        0.0001      156.5416      156.5417      86.574988       0.00000
  47    0.1255       69.9667        0.0002      156.5415      156.5417      86.574988       0.00000
  46    0.1487       69.9667        0.0002      156.5414      156.5416      86.574988      -0.00000
  45    0.1794       69.9666        0.0003      156.5413      156.5416      86.574988       0.00000
  44    0.2165       69.9666        0.0004      156.5412      156.5416      86.574988      -0.00000
  43    0.2613       69.9665        0.0005      156.5410      156.5415      86.574988      -0.00000
  42    0.3336       69.9664        0.0007      156.5407      156.5414      86.574988       0.00000
  41    0.4307       69.9663        0.0010      156.5403      156.5413      86.574988      -0.00000
  40    0.5894       69.9661        0.0014      156.5397      156.5411      86.574988       0.00000
  39     1.339       69.9651        0.0033      156.5367      156.5401      86.574988      -0.00000
  38     1.782       69.9645        0.0045      156.5350      156.5395      86.574988       0.00000
  37     2.292       69.9638        0.0058      156.5330      156.5388      86.574988      -0.00000
  36     2.964       69.9629        0.0076      156.5303      156.5379      86.574988       0.00000
  35     3.853       69.9618        0.0099      156.5268      156.5367      86.574988      -0.00000
  34     5.035       69.9602        0.0130      156.5222      156.5352      86.574988       0.00000
  33     6.613       69.9581        0.0171      156.5160      156.5331      86.574988      -0.00000
  32     8.786       69.9553        0.0227      156.5076      156.5303      86.574988      -0.00000
  31     11.80       69.9513        0.0306      156.4957      156.5263      86.574988       0.00000
  30     15.07       69.9470        0.0392      156.4828      156.5219      86.574988       0.00000
  29     18.79       69.9421        0.0488      156.4682      156.5170      86.574988       0.00000
  28     23.16       69.9363        0.0601      156.4512      156.5113      86.574988      -0.00000
  27     28.12       69.9298        0.0731      156.4317      156.5048      86.574988      -0.00000
  26     33.73       69.9224        0.0876      156.4099      156.4974      86.574988       0.00000
  25     40.54       69.9136        0.1051      156.3834      156.4886      86.574988       0.00000
  24     48.69       69.9028        0.1263      156.3515      156.4778      86.574988       0.00000
  23     57.69       69.8910        0.1496      156.3164      156.4660      86.574988      -0.00000
  22     68.43       69.8770        0.1774      156.2746      156.4520      86.574988      -0.00000
  21     81.20       69.8602        0.2106      156.2246      156.4352      86.574988      -0.00000
  20     96.49       69.8401        0.2502      156.1649      156.4151      86.574988       0.00000
  19     114.6       69.8164        0.2973      156.0879      156.3852      86.568822       0.00288
  18     136.5       69.7882        0.3532      155.9962      156.3493      86.561170       0.00294
  17     162.9       69.7545        0.4199      155.8831      156.3030      86.548453       0.00406
  16     196.4       69.7108        0.5067      155.7199      156.2266      86.515795       0.00822
  15     218.7       69.6822        0.5638      155.5733      156.1371      86.454834       0.02314
  14     243.0       69.6514        0.6258      155.3367      155.9624      86.310996       0.04989
  13     269.0       69.6189        0.6928      154.9514      155.6442      86.025299       0.09268
  12     297.5       69.5854        0.7649      154.3896      155.1545      85.569097       0.13530
  11     328.5       69.5514        0.8426      153.7151      154.5577      85.006335       0.15301
  10     361.9       69.5179        0.9260      152.9087      153.8347      84.316836       0.17445
   9     398.1       69.4867        1.0151      151.8986      152.9137      83.426984       0.20732
   8     437.6       69.4610        1.1097      150.6031      151.7129      82.251909       0.25124
   7     480.5       69.4444        1.2096      149.0014      150.2110      80.766606       0.29171
   6     533.0       69.4449        1.3303      146.7375      148.0678      78.622942       0.34485
   5     589.8       69.4834        1.4563      143.8730      145.3293      75.845932       0.41220
   4     651.6       69.6040        1.5852      140.0955      141.6807      72.076631       0.51546
   3     718.7       69.8637        1.7155      135.5278      137.2432      67.379481       0.59030
   2     792.3       70.3876        1.8439      130.0690      131.9130      61.525364       0.67140
   1     891.5       71.7480        1.9985      122.1273      124.1258      52.377776       0.77842
   0    1013.0       75.1122        2.1633      112.9512      115.1145      40.002289       0.85929



 Wavenumbers: 12850. - 16000. cm-1, ATM      1
 LEVEL PRESSURE   UPWARD FLUX   DIFDOWN FLUX  DIRDOWN FLUX  DOWNWARD FLUX   NET FLUX    HEATING RATE
          mb          W/m2          W/m2          W/m2        W/m2          W/m2       degree/day
  51    .06700       68.0718        0.0000       98.0872       98.0872      30.015440       0.00000
  50    .07753       68.0718        0.0001       98.0864       98.0864      30.014651       0.63245
  49    .09103       68.0718        0.0002       98.0853       98.0854      30.013660       0.61911
  48    0.1069       68.0718        0.0002       98.0841       98.0843      30.012523       0.60546
  47    0.1255       68.0718        0.0004       98.0826       98.0830      30.011217       0.59206
  46    0.1487       68.0718        0.0005       98.0809       98.0814      30.009570       0.60029
  45    0.1794       68.0718        0.0007       98.0784       98.0791      30.007332       0.61450
  44    0.2165       68.0718        0.0009       98.0756       98.0765      30.004701       0.59839
  43    0.2613       68.0719        0.0012       98.0723       98.0735      30.001611       0.58243
  42    0.3336       68.0721        0.0016       98.0670       98.0687      29.996576       0.58713
  41    0.4307       68.0723        0.0022       98.0602       98.0624      29.990074       0.56527
  40    0.5894       68.0729        0.0032       98.0496       98.0528      29.979856       0.54342
  39     1.339       68.0781        0.0078       98.0043       98.0121      29.933980       0.51648
  38     1.782       68.0830        0.0104       97.9793       97.9897      29.906717       0.51904
  37     2.292       68.0904        0.0135       97.9498       97.9633      29.872952       0.55924
  36     2.964       68.1027        0.0176       97.9088       97.9264      29.823781       0.61724
  35     3.853       68.1226        0.0230       97.8503       97.8733      29.750775       0.69284
  34     5.035       68.1526        0.0301       97.7680       97.7981      29.645499       0.75205
  33     6.613       68.1946        0.0397       97.6562       97.6959      29.501218       0.77133
  32     8.786       68.2493        0.0525       97.5107       97.5632      29.313872       0.72758
  31     11.80       68.3203        0.0709       97.3179       97.3887      29.068375       0.68732
  30     15.07       68.3882        0.0905       97.1283       97.2189      28.830625       0.61382
  29     18.79       68.4574        0.1127       96.9300       97.0428      28.585352       0.55611
  28     23.16       68.5295        0.1387       96.7166       96.8552      28.325697       0.50209
  27     28.12       68.6018        0.1683       96.4935       96.6617      28.059897       0.45184
  26     33.73       68.6683        0.2014       96.2731       96.4745      27.806189       0.38146
  25     40.54       68.7318        0.2414       96.0408       96.2822      27.550415       0.31732
  24     48.69       68.7920        0.2897       95.7946       96.0842      27.292247       0.26716
  23     57.69       68.8423        0.3427       95.5573       95.8999      27.057635       0.21991
  22     68.43       68.8851        0.4058       95.3106       95.7164      26.831342       0.17790
  21     81.20       68.9125        0.4811       95.0643       95.5455      26.632932       0.13111
  20     96.49       68.9235        0.5710       94.8153       95.3862      26.462725       0.09394
  19     114.6       68.9377        0.6787       94.5411       95.2198      26.282013       0.08438
  18     136.5       68.9446        0.8064       94.2320       95.0384      26.093787       0.07238
  17     162.9       68.9437        0.9584       93.8753       94.8337      25.890072       0.06512
  16     196.4       68.9229        1.1555       93.4347       94.5902      25.667250       0.05609
  15     218.7       68.9023        1.2849       93.1513       94.4362      25.533921       0.05062
  14     243.0       68.8768        1.4256       92.8439       94.2695      25.392718       0.04897
  13     269.0       68.8463        1.5779       92.5111       94.0891      25.242794       0.04863
  12     297.5       68.8110        1.7426       92.1495       93.8920      25.081007       0.04798
  11     328.5       68.7727        1.9204       91.7554       93.6758      24.903141       0.04836
  10     361.9       68.7317        2.1118       91.3262       93.4380      24.706313       0.04980
   9     398.1       68.6892        2.3177       90.8575       93.1753      24.486119       0.05130
   8     437.6       68.6471        2.5387       90.3418       92.8805      24.233402       0.05403
   7     480.5       68.6076        2.7754       89.7728       92.5482      23.940556       0.05751
   6     533.0       68.5701        3.0662       89.0428       92.1091      23.538940       0.06461
   5     589.8       68.5510        3.3787       88.2038       91.5825      23.031539       0.07531
   4     651.6       68.5747        3.7125       87.1979       90.9105      22.335763       0.09515
   3     718.7       68.6571        4.0659       86.0161       90.0821      21.425012       0.11446
   2     792.3       68.8500        4.4353       84.5970       89.0324      20.182354       0.14252
   1     891.5       69.3587        4.9155       82.4374       87.3529      17.994185       0.18620
   0    1013.0       70.4665        5.4658       79.6182       85.0839      14.617420       0.23447



 Wavenumbers: 16000. - 22650. cm-1, ATM      1
 LEVEL PRESSURE   UPWARD FLUX   DIFDOWN FLUX  DIRDOWN FLUX  DOWNWARD FLUX   NET FLUX    HEATING RATE
          mb          W/m2          W/m2          W/m2        W/m2          W/m2       degree/day
  51    .06700      139.4178        0.0000      156.3892      156.3892      16.971455       0.00000
  50    .07753      139.4178        0.0004      156.3887      156.3891      16.971308       0.11759
  49    .09103      139.4177        0.0009      156.3879      156.3888      16.971095       0.13338
  48    0.1069      139.4177        0.0015      156.3871      156.3885      16.970809       0.15209
  47    0.1255      139.4177        0.0021      156.3861      156.3882      16.970427       0.17337
  46    0.1487      139.4178        0.0029      156.3847      156.3877      16.969863       0.20544
  45    0.1794      139.4179        0.0041      156.3828      156.3869      16.968982       0.24189
  44    0.2165      139.4181        0.0054      156.3805      156.3859      16.967787       0.27185
  43    0.2613      139.4185        0.0070      156.3776      156.3846      16.966166       0.30563
  42    0.3336      139.4192        0.0096      156.3726      156.3823      16.963083       0.35941
  41    0.4307      139.4204        0.0131      156.3657      156.3788      16.958436       0.40402
  40    0.5894      139.4229        0.0188      156.3537      156.3725      16.949574       0.47127
  39     1.339      139.4450        0.0457      156.2834      156.3291      16.884101       0.73711
  38     1.782      139.4655        0.0614      156.2324      156.2938      16.828326       1.06187
  37     2.292      139.4962        0.0797      156.1641      156.2438      16.747591       1.33718
  36     2.964      139.5474        0.1037      156.0605      156.1642      16.616800       1.64182
  35     3.853      139.6301        0.1353      155.9041      156.0394      16.409269       1.96951
  34     5.035      139.7550        0.1773      155.6774      155.8547      16.099653       2.21177
  33     6.613      139.9296        0.2334      155.3656      155.5990      15.669383       2.30022
  32     8.786      140.1570        0.3088      154.9577      155.2665      15.109518       2.17431
  31     11.80      140.4528        0.4166      154.4153      154.8318      14.379060       2.04505
  30     15.07      140.7361        0.5321      153.8804      154.4125      13.676408       1.81411
  29     18.79      141.0252        0.6624      153.3191      153.9815      12.956279       1.63275
  28     23.16      141.3273        0.8143      152.7126      153.5269      12.199637       1.46310
  27     28.12      141.6310        0.9878      152.0755      153.0633      11.432305       1.30441
  26     33.73      141.9112        1.1818      151.4409      152.6228      10.711579       1.08363
  25     40.54      142.1804        1.4160      150.7637      152.1797       9.999269       0.88370
  24     48.69      142.4377        1.6980      150.0338      151.7318       9.294100       0.72974
  23     57.69      142.6553        2.0073      149.3151      151.3225       8.667159       0.58766
  22     68.43      142.8443        2.3754      148.5476      150.9230       8.078650       0.46265
  21     81.20      142.9734        2.8136      147.7517      150.5652       7.591835       0.32168
  20     96.49      143.0380        3.3352      146.9127      150.2478       7.209822       0.21084
  19     114.6      143.0690        3.9527      145.9763      149.9290       6.859984       0.16335
  18     136.5      143.0748        4.6818      144.9088      149.5906       6.515847       0.13233
  17     162.9      143.0534        5.5460      143.6785      149.2246       6.171135       0.11018
  16     196.4      142.9649        6.6610      142.1651      148.8261       5.861118       0.07804
  15     218.7      142.8846        7.3896      141.2033      148.5930       5.708397       0.05798
  14     243.0      142.7870        8.1782      140.1753      148.3535       5.566562       0.04919
  13     269.0      142.6705        9.0289      139.0797      148.1086       5.438025       0.04170
  12     297.5      142.5346        9.9437      137.9141      147.8578       5.323172       0.03406
  11     328.5      142.3831       10.9270      136.6676      147.5946       5.211434       0.03038
  10     361.9      142.2158       11.9796      135.3392      147.3188       5.102957       0.02745
   9     398.1      142.0322       13.1056      133.9235      147.0290       4.996873       0.02472
   8     437.6      141.8330       14.3068      132.4163      146.7231       4.890078       0.02283
   7     480.5      141.6180       15.5856      130.8147      146.4003       4.782306       0.02117
   6     533.0      141.3533       17.1474      128.8599      146.0073       4.654010       0.02064
   5     589.8      141.0716       18.8159      126.7679      145.5838       4.512201       0.02105
   4     651.6      140.7791       20.5928      124.5274      145.1203       4.341130       0.02339
   3     718.7      140.4816       22.4798      122.1285      144.6083       4.126671       0.02695
   2     792.3      140.1953       24.4748      119.5548      144.0296       3.834273       0.03353
   1     891.5      139.8870       27.1226      116.0566      143.1792       3.292239       0.04612
   0    1013.0      139.6445       30.2335      111.8404      142.0739       2.429464       0.05991



 Wavenumbers: 22650. - 29000. cm-1, ATM      1
 LEVEL PRESSURE   UPWARD FLUX   DIFDOWN FLUX  DIRDOWN FLUX  DOWNWARD FLUX   NET FLUX    HEATING RATE
          mb          W/m2          W/m2          W/m2        W/m2          W/m2       degree/day
  51    .06700       58.1011        0.0000       59.0156       59.0156       0.914518       0.00000
  50    .07753       58.1010        0.0005       59.0151       59.0155       0.914518      -0.00000
  49    .09103       58.1009        0.0010       59.0144       59.0154       0.914518      -0.00000
  48    0.1069       58.1008        0.0017       59.0136       59.0153       0.914518       0.00000
  47    0.1255       58.1006        0.0025       59.0127       59.0151       0.914518      -0.00000
  46    0.1487       58.1004        0.0034       59.0115       59.0149       0.914518       0.00000
  45    0.1794       58.1002        0.0048       59.0099       59.0147       0.914518       0.00000
  44    0.2165       58.0998        0.0063       59.0080       59.0144       0.914518      -0.00000
  43    0.2613       58.0995        0.0082       59.0058       59.0140       0.914518       0.00000
  42    0.3336       58.0989        0.0112       59.0022       59.0134       0.914518      -0.00000
  41    0.4307       58.0981        0.0153       58.9973       59.0126       0.914518       0.00000
  40    0.5894       58.0968        0.0219       58.9894       59.0113       0.914518       0.00000
  39     1.339       58.0906        0.0533       58.9518       59.0051       0.914518      -0.00000
  38     1.782       58.0869        0.0717       58.9297       59.0015       0.914518       0.00000
  37     2.292       58.0827        0.0931       58.9042       58.9972       0.914518      -0.00000
  36     2.964       58.0772        0.1211       58.8706       58.9917       0.914518       0.00000
  35     3.853       58.0699        0.1581       58.8264       58.9844       0.914518       0.00000
  34     5.035       58.0602        0.2072       58.7676       58.9747       0.914518       0.00000
  33     6.613       58.0473        0.2727       58.6891       58.9618       0.914518      -0.00000
  32     8.786       58.0299        0.3610       58.5834       58.9444       0.914518       0.00000
  31     11.80       58.0050        0.4871       58.4324       58.9195       0.914518       0.00000
  30     15.07       57.9783        0.6222       58.2706       58.8928       0.914518       0.00000
  29     18.79       57.9483        0.7745       58.0882       58.8628       0.914518      -0.00000
  28     23.16       57.9132        0.9520       57.8757       58.8277       0.914518       0.00000
  27     28.12       57.8733        1.1544       57.6333       58.7878       0.914518       0.00000
  26     33.73       57.8287        1.3801       57.3631       58.7432       0.914518       0.00000
  25     40.54       57.7751        1.6517       57.0379       58.6896       0.914518       0.00000
  24     48.69       57.7107        1.9774       56.6479       58.6252       0.914518      -0.00000
  23     57.69       57.6405        2.3329       56.2221       58.5550       0.914518       0.00000
  22     68.43       57.5573        2.7533       55.7186       58.4719       0.914518      -0.00000
  21     81.20       57.4592        3.2498       55.1239       58.3737       0.914518       0.00000
  20     96.49       57.3433        3.8351       54.4228       58.2578       0.914518       0.00000
  19     114.6       57.2075        4.5210       53.6010       58.1220       0.914518       0.00000
  18     136.5       57.0489        5.3216       52.6418       57.9634       0.914518       0.00000
  17     162.9       56.8632        6.2574       51.5203       57.7778       0.914518      -0.00000
  16     196.4       56.6278        7.4429       50.0994       57.5423       0.914518       0.00000
  15     218.7       56.4764        8.2046       49.1863       57.3909       0.914518      -0.00000
  14     243.0       56.3145        9.0178       48.2113       57.2291       0.914518       0.00000
  13     269.0       56.1424        9.8820       47.1749       57.0569       0.914518       0.00000
  12     297.5       55.9600       10.7963       46.0783       56.8745       0.914518      -0.00000
  11     328.5       55.7671       11.7621       44.9195       56.6817       0.914518       0.00000
  10     361.9       55.5642       12.7769       43.7018       56.4787       0.914518       0.00000
   9     398.1       55.3511       13.8406       42.4250       56.2656       0.914518       0.00000
   8     437.6       55.1282       14.9511       41.0916       56.0427       0.914518       0.00000
   7     480.5       54.8960       16.1060       39.7045       55.8105       0.914518       0.00000
   6     533.0       54.6191       17.4794       38.0543       55.5336       0.914518       0.00000
   5     589.8       54.3313       18.9028       36.3431       55.2458       0.914518       0.00000
   4     651.6       54.0339       20.3689       34.5795       54.9485       0.914518       0.00000
   3     718.7       53.7279       21.8722       32.7702       54.6424       0.914518      -0.00000
   2     792.3       53.4147       23.4037       30.9256       54.3292       0.914518       0.00000
   1     891.5       53.0143       25.3510       28.5778       53.9288       0.914518       0.00000
   0    1013.0       52.5661       27.5141       25.9665       53.4806       0.914518       0.00000



 Wavenumbers: 29000. - 38000. cm-1, ATM      1
 LEVEL PRESSURE   UPWARD FLUX   DIFDOWN FLUX  DIRDOWN FLUX  DOWNWARD FLUX   NET FLUX    HEATING RATE
          mb          W/m2          W/m2          W/m2        W/m2          W/m2       degree/day
  51    .06700        8.7023        0.0000       20.8114       20.8114      12.109102       0.00000
  50    .07753        8.7021        0.0003       20.8070       20.8074      12.105295       3.05148
  49    .09103        8.7018        0.0007       20.8009       20.8016      12.099758       3.46077
  48    0.1069        8.7016        0.0012       20.7928       20.7939      12.092348       3.94420
  47    0.1255        8.7013        0.0017       20.7820       20.7837      12.082444       4.49023
  46    0.1487        8.7010        0.0024       20.7665       20.7688      12.067881       5.30831
  45    0.1794        8.7005        0.0033       20.7424       20.7457      12.045217       6.22189
  44    0.2165        8.7000        0.0043       20.7103       20.7147      12.014695       6.94323
  43    0.2613        8.6994        0.0056       20.6675       20.6731      11.973701       7.72712
  42    0.3336        8.6985        0.0077       20.5880       20.5956      11.897142       8.92601
  41    0.4307        8.6974        0.0104       20.4722       20.4826      11.785193       9.73375
  40    0.5894        8.6958        0.0147       20.2637       20.2784      11.582515      10.77814
  39     1.339        8.6924        0.0331       19.0984       19.1315      10.439085      12.87295
  38     1.782        8.6928        0.0426       18.4394       18.4820       9.789200      12.37276
  37     2.292        8.6954        0.0529       17.7714       17.8243       9.128911      10.93611
  36     2.964        8.7018        0.0656       17.0421       17.1077       8.405875       9.07628
  35     3.853        8.7145        0.0815       16.2678       16.3493       7.634836       7.31731
  34     5.035        8.7354        0.1016       15.4803       15.5819       6.846547       5.63121
  33     6.613        8.7658        0.1273       14.7157       14.8430       6.077249       4.11267
  32     8.786        8.8059        0.1610       13.9936       14.1546       5.348673       2.82953
  31     11.80        8.8583        0.2080       13.2835       13.4915       4.633200       2.00310
  30     15.07        8.9088        0.2567       12.7394       12.9960       4.087205       1.40965
  29     18.79        8.9610        0.3106       12.2666       12.5773       3.616259       1.06778
  28     23.16        9.0164        0.3720       11.8300       12.2020       3.185658       0.83264
  27     28.12        9.0731        0.4408       11.4279       11.8686       2.795526       0.66320
  26     33.73        9.1254        0.5165       11.0695       11.5859       2.460562       0.50363
  25     40.54        9.1749        0.6070       10.7209       11.3279       2.152948       0.38163
  24     48.69        9.2215        0.7143       10.3742       11.0885       1.866958       0.29595
  23     57.69        9.2597        0.8305       10.0549       10.8854       1.625718       0.22613
  22     68.43        9.2903        0.9668        9.7327       10.6995       1.409186       0.17022
  21     81.20        9.3046        1.1277        9.4134       10.5411       1.236553       0.11407
  20     96.49        9.3004        1.3169        9.0887       10.4056       1.105160       0.07252
  19     114.6        9.2859        1.5354        8.7388       10.2742       0.988223       0.05460
  18     136.5        9.2640        1.7852        8.3549       10.1401       0.876039       0.04314
  17     162.9        9.2348        2.0699        7.9311       10.0010       0.766221       0.03510
  16     196.4        9.1862        2.4224        7.4333        9.8558       0.669583       0.02432
  15     218.7        9.1513        2.6442        7.1295        9.7737       0.622461       0.01789
  14     243.0        9.1131        2.8759        6.8161        9.6920       0.578955       0.01509
  13     269.0        9.0713        3.1169        6.4943        9.6112       0.539898       0.01267
  12     297.5        9.0261        3.3659        6.1657        9.5316       0.505474       0.01021
  11     328.5        8.9789        3.6220        5.8295        9.4514       0.472523       0.00896
  10     361.9        8.9301        3.8827        5.4886        9.3713       0.441192       0.00793
   9     398.1        8.8798        4.1474        5.1440        9.2913       0.411508       0.00692
   8     437.6        8.8287        4.4146        4.7969        9.2116       0.382899       0.00612
   7     480.5        8.7769        4.6822        4.4504        9.1326       0.355751       0.00533
   6     533.0        8.7173        4.9872        4.0563        9.0435       0.326165       0.00476
   5     589.8        8.6584        5.2877        3.6682        8.9559       0.297530       0.00425
   4     651.6        8.6010        5.5800        3.2905        8.8705       0.269526       0.00383
   3     718.7        8.5457        5.8626        2.9252        8.7878       0.242110       0.00345
   2     792.3        8.4931        6.1320        2.5764        8.7084       0.215286       0.00308
   1     891.5        8.4321        6.4484        2.1659        8.6143       0.182186       0.00282
   0    1013.0        8.3726        6.7657        1.7526        8.5183       0.145662       0.00254



 Wavenumbers: 38000. - 50000. cm-1, ATM      1
 LEVEL PRESSURE   UPWARD FLUX   DIFDOWN FLUX  DIRDOWN FLUX  DOWNWARD FLUX   NET FLUX    HEATING RATE
          mb          W/m2          W/m2          W/m2        W/m2          W/m2       degree/day
  51    .06700        0.0061        0.0000        1.2836        1.2836       1.277518       0.00000
  50    .07753        0.0061        0.0001        1.2812        1.2812       1.275183       1.87150
  49    .09103        0.0060        0.0002        1.2777        1.2778       1.271851       2.08247
  48    0.1069        0.0059        0.0002        1.2731        1.2734       1.267473       2.33059
  47    0.1255        0.0058        0.0004        1.2672        1.2675       1.261717       2.60908
  46    0.1487        0.0057        0.0005        1.2586        1.2591       1.253391       3.03499
  45    0.1794        0.0055        0.0007        1.2455        1.2462       1.240623       3.50520
  44    0.2165        0.0054        0.0009        1.2282        1.2291       1.223697       3.85037
  43    0.2613        0.0052        0.0011        1.2054        1.2065       1.201348       4.21261
  42    0.3336        0.0049        0.0015        1.1639        1.1654       1.160524       4.75970
  41    0.4307        0.0045        0.0020        1.1051        1.1070       1.102565       5.03943
  40    0.5894        0.0039        0.0026        1.0039        1.0064       1.002524       5.32007
  39     1.339        0.0022        0.0035        0.5438        0.5473       0.545104       5.14971
  38     1.782        0.0016        0.0032        0.3635        0.3666       0.365006       3.42879
  37     2.292        0.0012        0.0027        0.2356        0.2383       0.237058       2.11916
  36     2.964        0.0009        0.0022        0.1455        0.1477       0.146786       1.13318
  35     3.853        0.0006        0.0017        0.0858        0.0875       0.086906       0.56828
  34     5.035        0.0004        0.0013        0.0488        0.0501       0.049701       0.26578
  33     6.613        0.0003        0.0010        0.0273        0.0282       0.027974       0.11615
  32     8.786        0.0002        0.0007        0.0144        0.0151       0.014928       0.05067
  31     11.80        0.0001        0.0004        0.0065        0.0070       0.006903       0.02247
  30     15.07        0.0000        0.0003        0.0031        0.0034       0.003329       0.00923
  29     18.79        0.0000        0.0002        0.0014        0.0016       0.001583       0.00396
  28     23.16        0.0000        0.0001        0.0006        0.0007       0.000720       0.00167
  27     28.12        0.0000        0.0001        0.0003        0.0003       0.000317       0.00069
  26     33.73        0.0000        0.0000        0.0001        0.0001       0.000140       0.00027
  25     40.54        0.0000        0.0000        0.0000        0.0001       0.000057       0.00010
  24     48.69        0.0000        0.0000        0.0000        0.0000       0.000021       0.00004
  23     57.69        0.0000        0.0000        0.0000        0.0000       0.000008       0.00001
  22     68.43        0.0000        0.0000        0.0000        0.0000       0.000003       0.00000
  21     81.20        0.0000        0.0000        0.0000        0.0000       0.000001       0.00000
  20     96.49        0.0000        0.0000        0.0000        0.0000       0.000000       0.00000
  19     114.6        0.0000        0.0000        0.0000        0.0000       0.000000       0.00000
  18     136.5        0.0000        0.0000        0.0000        0.0000       0.000000       0.00000
  17     162.9        0.0000        0.0000        0.0000        0.0000       0.000000       0.00000
  16     196.4        0.0000        0.0000        0.0000        0.0000       0.000000       0.00000
  15     218.7        0.0000        0.0000        0.0000        0.0000       0.000000       0.00000
  14     243.0        0.0000        0.0000        0.0000        0.0000       0.000000       0.00000
  13     269.0        0.0000        0.0000        0.0000        0.0000       0.000000       0.00000
  12     297.5        0.0000        0.0000        0.0000        0.0000       0.000000       0.00000
  11     328.5        0.0000        0.0000        0.0000        0.0000       0.000000       0.00000
  10     361.9        0.0000        0.0000        0.0000        0.0000       0.000000       0.00000
   9     398.1        0.0000        0.0000        0.0000        0.0000       0.000000       0.00000
   8     437.6        0.0000        0.0000        0.0000        0.0000       0.000000       0.00000
   7     480.5        0.0000        0.0000        0.0000        0.0000       0.000000       0.00000
   6     533.0        0.0000        0.0000        0.0000        0.0000       0.000000       0.00000
   5     589.8        0.0000        0.0000        0.0000        0.0000       0.000000       0.00000
   4     651.6        0.0000        0.0000        0.0000        0.0000       0.000000       0.00000
   3     718.7        0.0000        0.0000        0.0000        0.0000       0.000000       0.00000
   2     792.3        0.0000        0.0000        0.0000        0.0000       0.000000       0.00000
   1     891.5        0.0000        0.0000        0.0000        0.0000       0.000000       0.00000
   0    1013.0        0.0000        0.0000        0.0000        0.0000       0.000000       0.00000



 Wavenumbers:   820. -  2600. cm-1, ATM      1
 LEVEL PRESSURE   UPWARD FLUX   DIFDOWN FLUX  DIRDOWN FLUX  DOWNWARD FLUX   NET FLUX    HEATING RATE
          mb          W/m2          W/m2          W/m2        W/m2          W/m2       degree/day
  51    .06700        0.6974        0.0000        6.0047        6.0047       5.307203       0.00000
  50    .07753        0.6974        0.0000        6.0008        6.0008       5.303350       3.08820
  49    .09103        0.6974        0.0000        5.9999        5.9999       5.302464       0.55357
  48    0.1069        0.6974        0.0000        5.9989        5.9989       5.301475       0.52651
  47    0.1255        0.6974        0.0000        5.9978        5.9978       5.300358       0.50649
  46    0.1487        0.6974        0.0000        5.9964        5.9964       5.299001       0.49456
  45    0.1794        0.6974        0.0000        5.9947        5.9947       5.297281       0.47199
  44    0.2165        0.6974        0.0000        5.9929        5.9929       5.295439       0.41909
  43    0.2613        0.6974        0.0000        5.9909        5.9909       5.293480       0.36932
  42    0.3336        0.6974        0.0000        5.9880        5.9880       5.290602       0.33555
  41    0.4307        0.6974        0.0000        5.9846        5.9846       5.287133       0.30164
  40    0.5894        0.6974        0.0000        5.9791        5.9791       5.281628       0.29275
  39     1.339        0.6975        0.0000        5.9536        5.9536       5.256141       0.28693
  38     1.782        0.6975        0.0000        5.9395        5.9395       5.242004       0.26916
  37     2.292        0.6975        0.0000        5.9237        5.9237       5.226253       0.26087
  36     2.964        0.6975        0.0000        5.9039        5.9039       5.206480       0.24822
  35     3.853        0.6975        0.0000        5.8793        5.8793       5.181824       0.23398
  34     5.035        0.6975        0.0000        5.8487        5.8487       5.151262       0.21832
  33     6.613        0.6975        0.0000        5.8108        5.8108       5.113299       0.20295
  32     8.786        0.6975        0.0000        5.7631        5.7631       5.065677       0.18495
  31     11.80        0.6975        0.0000        5.7039        5.7039       5.006422       0.16590
  30     15.07        0.6975        0.0000        5.6539        5.6539       4.956384       0.12919
  29     18.79        0.6975        0.0000        5.6127        5.6127       4.915250       0.09327
  28     23.16        0.6975        0.0000        5.5794        5.5794       4.881873       0.06454
  27     28.12        0.6975        0.0000        5.5518        5.5518       4.854305       0.04686
  26     33.73        0.6975        0.0000        5.5268        5.5268       4.829249       0.03767
  25     40.54        0.6975        0.0000        5.4993        5.4993       4.801801       0.03405
  24     48.69        0.6975        0.0000        5.4678        5.4678       4.770251       0.03265
  23     57.69        0.6976        0.0000        5.4340        5.4340       4.736452       0.03168
  22     68.43        0.6976        0.0000        5.3947        5.3948       4.697164       0.03089
  21     81.20        0.6976        0.0000        5.3497        5.3497       4.652112       0.02977
  20     96.49        0.6976        0.0000        5.2982        5.2982       4.600575       0.02844
  19     114.6        0.6977        0.0000        5.2389        5.2389       4.541222       0.02771
  18     136.5        0.6977        0.0000        5.1716        5.1717       4.473927       0.02588
  17     162.9        0.6978        0.0000        5.0890        5.0890       4.391239       0.02643
  16     196.4        0.6979        0.0000        4.9668        4.9668       4.268902       0.03079
  15     218.7        0.6981        0.0000        4.8585        4.8585       4.160419       0.04119
  14     243.0        0.6983        0.0000        4.7078        4.7079       4.009603       0.05231
  13     269.0        0.6986        0.0000        4.5343        4.5343       3.835716       0.05641
  12     297.5        0.6991        0.0000        4.3419        4.3420       3.642895       0.05719
  11     328.5        0.6998        0.0000        4.1281        4.1281       3.428383       0.05833
  10     361.9        0.7007        0.0000        3.8786        3.8787       3.177982       0.06335
   9     398.1        0.7019        0.0000        3.6159        3.6159       2.914021       0.06150
   8     437.6        0.7036        0.0000        3.3759        3.3759       2.672338       0.05167
   7     480.5        0.7056        0.0000        3.1957        3.1958       2.490214       0.03577
   6     533.0        0.7087        0.0000        3.0467        3.0467       2.337992       0.02449
   5     589.8        0.7134        0.0000        2.9023        2.9023       2.188873       0.02213
   4     651.6        0.7220        0.0000        2.7183        2.7184       1.996353       0.02633
   3     718.7        0.7369        0.0000        2.5058        2.5059       1.768974       0.02858
   2     792.3        0.7643        0.0000        2.2756        2.2757       1.511421       0.02954
   1     891.5        0.8339        0.0000        1.9621        1.9622       1.128228       0.03261
   0    1013.0        1.0093        0.0000        1.5468        1.5469       0.537541       0.04101

  Modules and versions used in this calculation:

       rrtmg_sw.1col.f90:  $Revision$                    rrtmg_sw_init.f90:  $Revision$        
     rrtmgsw_cldprop.f90:  $Revision$                  rrtmgsw_cldprmc.f90:  NOT USED          
     rrtmg_sw_reftra.f90:  $Revision$                  rrtmg_sw_spcvrt.f90:  NOT USED          
     rrtmg_sw_spcvmc.f90:  NOT USED                    rrtmgsw_setcoef.f90:  NOT USED          
     rrtmg_sw_taumol.f90:  $Revision$                  rrtmg_sw_vrtqdr.f90:  NOT USED          
                rrtatm.f:  NOT USED                             util_xxx.f:  NOT USED          
                 extra.f:  NOT USED                       rrtmg_sw_k_g.f90:  $Revision$        

