

 Wavenumbers:   820. - 50000. cm-1, ATM      1
 LEVEL PRESSURE   UPWARD FLUX   DIFDOWN FLUX  DIRDOWN FLUX  DOWNWARD FLUX   NET FLUX    HEATING RATE
          mb          W/m2          W/m2          W/m2        W/m2          W/m2       degree/day
  51    .06700      174.4545        0.0000      397.8738      397.8738     223.419320       0.00000
  50    .07753      174.4538        0.0012      397.8577      397.8589     223.405038      11.44723
  49    .09103      174.4531        0.0026      397.8418      397.8444     223.391362       8.54761
  48    0.1069      174.4522        0.0043      397.8230      397.8272     223.375031       8.69317
  47    0.1255      174.4512        0.0062      397.7997      397.8058     223.354610       9.25783
  46    0.1487      174.4500        0.0086      397.7676      397.7762     223.326184      10.36159
  45    0.1794      174.4485        0.0119      397.7205      397.7324     223.283941      11.59688
  44    0.2165      174.4467        0.0158      397.6602      397.6760     223.229357      12.41680
  43    0.2613      174.4446        0.0203      397.5829      397.6033     223.158647      13.32857
  42    0.3336      174.4414        0.0279      397.4449      397.4728     223.031371      14.83909
  41    0.4307      174.4374        0.0377      397.2524      397.2901     222.852746      15.53107
  40    0.5894      174.4314        0.0536      396.9253      396.9789     222.547489      16.23319
  39     1.339      174.4138        0.1245      395.4254      395.5499     221.136072      15.88999
  38     1.782      174.4104        0.1642      394.7288      394.8930     220.482609      12.44088
  37     2.292      174.4125        0.2094      394.0572      394.2666     219.854038      10.41076
  36     2.964      174.4244        0.2680      393.3007      393.5688     219.144389       8.90825
  35     3.853      174.4525        0.3447      392.4318      392.7766     218.324047       7.78519
  34     5.035      174.5023        0.4456      391.4441      391.8897     217.387439       6.69074
  33     6.613      174.5756        0.5792      390.3268      390.9060     216.330396       5.65095
  32     8.786      174.6696        0.7578      389.0623      389.8201     215.150512       4.58224
  31     11.80      174.7835        1.0114      387.5497      388.5611     213.777587       3.84376
  30     15.07      174.8816        1.2813      386.1550      387.4363     212.554756       3.15711
  29     18.79      174.9709        1.5839      384.7492      386.3331     211.362203       2.70389
  28     23.16      175.0503        1.9343      383.2671      385.2015     210.151157       2.34177
  27     28.12      175.1122        2.3318      381.7310      384.0628     208.950573       2.04091
  26     33.73      175.1388        2.7733      380.1955      382.9688     207.829927       1.68492
  25     40.54      175.1217        3.3027      378.5342      381.8369     206.715200       1.38294
  24     48.69      175.0538        3.9352      376.7152      380.6503     205.596528       1.15765
  23     57.69      174.9341        4.6233      374.8866      379.5099     204.575801       0.95678
  22     68.43      174.7432        5.4344      372.8858      378.3202     203.576942       0.78524
  21     81.20      174.4490        6.3901      370.7311      377.1212     202.672266       0.59780
  20     96.49      174.0383        7.5143      368.3868      375.9011     201.862815       0.44676
  19     114.6      173.5317        8.8270      365.7379      374.5650     201.033312       0.38732
  18     136.5      172.9197       10.3511      362.7409      373.0920     200.172294       0.33108
  17     162.9      172.1861       12.1222      359.3257      371.4479     199.261746       0.29105
  16     196.4      171.2135       14.3542      355.1241      369.4783     198.264727       0.25096
  15     218.7      170.5728       15.7813      352.4121      368.1934     197.620570       0.24456
  14     243.0      169.8814       17.2989      349.3563      366.6552     196.773730       0.29371
  13     269.0      169.1387       18.9054      345.8373      364.7427     195.604012       0.37945
  12     297.5      168.3449       20.5983      341.6360      362.2343     193.889410       0.50853
  11     328.5      167.5031       22.3789      336.2811      358.6600     191.156853       0.74297
  10     361.9      166.6160       24.2416      330.1041      354.3457     187.729679       0.86711
   9     398.1      165.6846       26.1861      323.1141      349.3002     183.615598       0.95849
   8     437.6      164.7136       28.2069      315.4377      343.6445     178.930939       1.00161
   7     480.5      163.7065       30.3002      307.3363      337.6365     173.929990       0.98217
   6     533.0      162.5187       32.7774      297.6330      330.4103     167.891619       0.97138
   5     589.8      161.3103       35.3330      287.3735      322.7065     161.396163       0.96414
   4     651.6      160.1017       37.9551      276.8358      314.7909     154.689211       0.91719
   3     718.7      158.9182       40.6306      266.1058      306.7364     147.818260       0.86349
   2     792.3      157.8047       43.3440      255.0794      298.4235     140.618745       0.82570
   1     891.5      156.6066       46.7721      240.9434      287.7154     131.108854       0.80925
   0    1013.0      155.7997       50.5588      225.0549      275.6137     119.814018       0.78426



 Wavenumbers:  2600. -  3250. cm-1, ATM      1
 LEVEL PRESSURE   UPWARD FLUX   DIFDOWN FLUX  DIRDOWN FLUX  DOWNWARD FLUX   NET FLUX    HEATING RATE
          mb          W/m2          W/m2          W/m2        W/m2          W/m2       degree/day
  51    .06700        0.2554        0.0000        3.5066        3.5066       3.251204       0.00000
  50    .07753        0.2554        0.0000        3.5066        3.5066       3.251196       0.00640
  49    .09103        0.2554        0.0000        3.5066        3.5066       3.251186       0.00627
  48    0.1069        0.2554        0.0000        3.5066        3.5066       3.251174       0.00613
  47    0.1255        0.2554        0.0000        3.5066        3.5066       3.251161       0.00599
  46    0.1487        0.2554        0.0000        3.5066        3.5066       3.251144       0.00607
  45    0.1794        0.2554        0.0000        3.5065        3.5065       3.251122       0.00624
  44    0.2165        0.2554        0.0000        3.5065        3.5065       3.251095       0.00611
  43    0.2613        0.2554        0.0000        3.5065        3.5065       3.251063       0.00598
  42    0.3336        0.2554        0.0000        3.5064        3.5064       3.251010       0.00615
  41    0.4307        0.2554        0.0000        3.5064        3.5064       3.250939       0.00618
  40    0.5894        0.2554        0.0000        3.5062        3.5062       3.250820       0.00633
  39     1.339        0.2554        0.0000        3.5055        3.5055       3.250121       0.00787
  38     1.782        0.2554        0.0000        3.5050        3.5050       3.249591       0.01011
  37     2.292        0.2554        0.0000        3.5043        3.5043       3.248898       0.01147
  36     2.964        0.2554        0.0000        3.5033        3.5033       3.247907       0.01245
  35     3.853        0.2554        0.0000        3.5019        3.5019       3.246530       0.01307
  34     5.035        0.2554        0.0000        3.5001        3.5001       3.244669       0.01329
  33     6.613        0.2554        0.0000        3.4977        3.4977       3.242259       0.01288
  32     8.786        0.2554        0.0000        3.4947        3.4947       3.239288       0.01154
  31     11.80        0.2554        0.0000        3.4911        3.4911       3.235653       0.01018
  30     15.07        0.2554        0.0000        3.4878        3.4878       3.232432       0.00832
  29     18.79        0.2554        0.0000        3.4848        3.4848       3.229369       0.00695
  28     23.16        0.2554        0.0000        3.4816        3.4816       3.226149       0.00623
  27     28.12        0.2554        0.0000        3.4779        3.4779       3.222531       0.00615
  26     33.73        0.2554        0.0000        3.4735        3.4735       3.218064       0.00672
  25     40.54        0.2554        0.0000        3.4671        3.4671       3.211739       0.00785
  24     48.69        0.2554        0.0000        3.4582        3.4583       3.202844       0.00920
  23     57.69        0.2554        0.0000        3.4472        3.4472       3.191796       0.01036
  22     68.43        0.2554        0.0000        3.4329        3.4329       3.177536       0.01121
  21     81.20        0.2554        0.0000        3.4152        3.4152       3.159808       0.01171
  20     96.49        0.2554        0.0000        3.3940        3.3941       3.138663       0.01167
  19     114.6        0.2554        0.0000        3.3692        3.3692       3.113782       0.01162
  18     136.5        0.2554        0.0001        3.3422        3.3422       3.086775       0.01038
  17     162.9        0.2555        0.0001        3.3140        3.3141       3.058636       0.00899
  16     196.4        0.2555        0.0001        3.2836        3.2836       3.028132       0.00768
  15     218.7        0.2555        0.0001        3.2661        3.2661       3.010607       0.00665
  14     243.0        0.2556        0.0001        3.2475        3.2476       2.992002       0.00645
  13     269.0        0.2556        0.0001        3.2258        3.2259       2.970230       0.00706
  12     297.5        0.2558        0.0001        3.1980        3.1981       2.942361       0.00827
  11     328.5        0.2560        0.0001        3.1575        3.1576       2.901686       0.01106
  10     361.9        0.2563        0.0001        3.0994        3.0995       2.843283       0.01478
   9     398.1        0.2567        0.0001        3.0171        3.0173       2.760557       0.01927
   8     437.6        0.2574        0.0001        2.9065        2.9067       2.649289       0.02379
   7     480.5        0.2583        0.0002        2.7693        2.7694       2.511132       0.02713
   6     533.0        0.2598        0.0002        2.5905        2.5907       2.330846       0.02900
   5     589.8        0.2621        0.0002        2.3956        2.3958       2.133640       0.02927
   4     651.6        0.2656        0.0002        2.1976        2.1978       1.932244       0.02754
   3     718.7        0.2705        0.0002        1.9940        1.9942       1.723652       0.02621
   2     792.3        0.2777        0.0002        1.7824        1.7826       1.504876       0.02509
   1     891.5        0.2917        0.0002        1.5225        1.5227       1.230976       0.02331
   0    1013.0        0.3196        0.0002        1.2528        1.2529       0.933307       0.02067



 Wavenumbers:  3250. -  4000. cm-1, ATM      1
 LEVEL PRESSURE   UPWARD FLUX   DIFDOWN FLUX  DIRDOWN FLUX  DOWNWARD FLUX   NET FLUX    HEATING RATE
          mb          W/m2          W/m2          W/m2        W/m2          W/m2       degree/day
  51    .06700        0.0006        0.0000        5.9117        5.9117       5.911035       0.00000
  50    .07753        0.0006        0.0000        5.9075        5.9075       5.906845       3.35808
  49    .09103        0.0006        0.0000        5.9050        5.9050       5.904402       1.52677
  48    0.1069        0.0006        0.0000        5.9032        5.9032       5.902536       0.99346
  47    0.1255        0.0006        0.0000        5.9014        5.9014       5.900778       0.79708
  46    0.1487        0.0006        0.0000        5.8995        5.8995       5.898889       0.68848
  45    0.1794        0.0006        0.0000        5.8974        5.8974       5.896740       0.58983
  44    0.2165        0.0006        0.0000        5.8952        5.8952       5.894624       0.48155
  43    0.2613        0.0006        0.0000        5.8931        5.8931       5.892465       0.40696
  42    0.3336        0.0006        0.0000        5.8899        5.8899       5.889307       0.36820
  41    0.4307        0.0006        0.0000        5.8861        5.8861       5.885469       0.33365
  40    0.5894        0.0006        0.0000        5.8803        5.8803       5.879667       0.30857
  39     1.339        0.0006        0.0000        5.8597        5.8597       5.859069       0.23189
  38     1.782        0.0006        0.0000        5.8513        5.8513       5.850645       0.16039
  37     2.292        0.0006        0.0000        5.8431        5.8431       5.842474       0.13533
  36     2.964        0.0006        0.0000        5.8334        5.8334       5.832834       0.12100
  35     3.853        0.0006        0.0000        5.8213        5.8213       5.820658       0.11555
  34     5.035        0.0006        0.0000        5.8052        5.8052       5.804563       0.11498
  33     6.613        0.0006        0.0000        5.7833        5.7834       5.782742       0.11666
  32     8.786        0.0006        0.0000        5.7531        5.7531       5.752459       0.11761
  31     11.80        0.0006        0.0000        5.7089        5.7089       5.708291       0.12366
  30     15.07        0.0006        0.0000        5.6613        5.6614       5.660761       0.12271
  29     18.79        0.0006        0.0000        5.6091        5.6091       5.608527       0.11843
  28     23.16        0.0006        0.0000        5.5521        5.5521       5.551533       0.11021
  27     28.12        0.0006        0.0000        5.4932        5.4932       5.492647       0.10010
  26     33.73        0.0006        0.0000        5.4343        5.4344       5.433817       0.08845
  25     40.54        0.0006        0.0001        5.3700        5.3700       5.369462       0.07984
  24     48.69        0.0006        0.0001        5.2974        5.2974       5.296867       0.07512
  23     57.69        0.0005        0.0001        5.2198        5.2198       5.219303       0.07270
  22     68.43        0.0005        0.0001        5.1289        5.1290       5.128495       0.07139
  21     81.20        0.0005        0.0001        5.0243        5.0244       5.023927       0.06910
  20     96.49        0.0005        0.0001        4.9082        4.9083       4.907832       0.06408
  19     114.6        0.0005        0.0001        4.7756        4.7757       4.775220       0.06192
  18     136.5        0.0005        0.0002        4.6350        4.6352       4.634733       0.05402
  17     162.9        0.0004        0.0002        4.4854        4.4856       4.485161       0.04781
  16     196.4        0.0004        0.0002        4.3102        4.3104       4.309986       0.04409
  15     218.7        0.0004        0.0002        4.1896        4.1899       4.189486       0.04575
  14     243.0        0.0003        0.0003        4.0234        4.0236       4.023269       0.05765
  13     269.0        0.0003        0.0003        3.8211        3.8214       3.821038       0.06560
  12     297.5        0.0003        0.0003        3.5531        3.5534       3.553117       0.07946
  11     328.5        0.0003        0.0003        3.1444        3.1447       3.144392       0.11113
  10     361.9        0.0002        0.0003        2.6688        2.6691       2.668843       0.12032
   9     398.1        0.0002        0.0003        2.2141        2.2144       2.214168       0.10593
   8     437.6        0.0002        0.0002        1.8156        1.8159       1.815635       0.08521
   7     480.5        0.0002        0.0002        1.4745        1.4747       1.474517       0.06699
   6     533.0        0.0002        0.0002        1.1319        1.1320       1.131841       0.05513
   5     589.8        0.0002        0.0002        0.8183        0.8185       0.818276       0.04654
   4     651.6        0.0002        0.0001        0.5439        0.5440       0.543758       0.03754
   3     718.7        0.0003        0.0001        0.3279        0.3279       0.327659       0.02716
   2     792.3        0.0004        0.0001        0.1664        0.1664       0.165999       0.01854
   1     891.5        0.0009        0.0000        0.0454        0.0454       0.044508       0.01034
   0    1013.0        0.0037        0.0000        0.0039        0.0039       0.000200       0.00308



 Wavenumbers:  4000. -  4650. cm-1, ATM      1
 LEVEL PRESSURE   UPWARD FLUX   DIFDOWN FLUX  DIRDOWN FLUX  DOWNWARD FLUX   NET FLUX    HEATING RATE
          mb          W/m2          W/m2          W/m2        W/m2          W/m2       degree/day
  51    .06700        0.6531        0.0000        6.9421        6.9421       6.288951       0.00000
  50    .07753        0.6531        0.0000        6.9421        6.9421       6.288950       0.00080
  49    .09103        0.6531        0.0000        6.9421        6.9421       6.288948       0.00078
  48    0.1069        0.6531        0.0000        6.9421        6.9421       6.288947       0.00077
  47    0.1255        0.6531        0.0000        6.9421        6.9421       6.288945       0.00075
  46    0.1487        0.6531        0.0000        6.9421        6.9421       6.288943       0.00076
  45    0.1794        0.6531        0.0000        6.9421        6.9421       6.288940       0.00078
  44    0.2165        0.6531        0.0000        6.9421        6.9421       6.288937       0.00076
  43    0.2613        0.6531        0.0000        6.9421        6.9421       6.288933       0.00075
  42    0.3336        0.6531        0.0000        6.9420        6.9420       6.288926       0.00077
  41    0.4307        0.6531        0.0000        6.9420        6.9420       6.288917       0.00078
  40    0.5894        0.6531        0.0000        6.9420        6.9420       6.288902       0.00080
  39     1.339        0.6531        0.0000        6.9419        6.9419       6.288813       0.00101
  38     1.782        0.6531        0.0000        6.9418        6.9419       6.288743       0.00133
  37     2.292        0.6531        0.0000        6.9418        6.9418       6.288649       0.00156
  36     2.964        0.6531        0.0000        6.9416        6.9416       6.288508       0.00176
  35     3.853        0.6531        0.0000        6.9414        6.9414       6.288300       0.00198
  34     5.035        0.6531        0.0000        6.9411        6.9411       6.287993       0.00219
  33     6.613        0.6531        0.0000        6.9406        6.9406       6.287542       0.00241
  32     8.786        0.6531        0.0000        6.9399        6.9400       6.286877       0.00258
  31     11.80        0.6531        0.0000        6.9389        6.9389       6.285835       0.00292
  30     15.07        0.6531        0.0001        6.9376        6.9377       6.284616       0.00315
  29     18.79        0.6531        0.0001        6.9361        6.9362       6.283146       0.00333
  28     23.16        0.6530        0.0001        6.9343        6.9344       6.281329       0.00351
  27     28.12        0.6530        0.0001        6.9321        6.9322       6.279139       0.00372
  26     33.73        0.6530        0.0001        6.9293        6.9295       6.276452       0.00404
  25     40.54        0.6530        0.0001        6.9257        6.9258       6.272829       0.00449
  24     48.69        0.6530        0.0002        6.9208        6.9210       6.268033       0.00496
  23     57.69        0.6529        0.0002        6.9151        6.9153       6.262391       0.00529
  22     68.43        0.6529        0.0003        6.9080        6.9083       6.255378       0.00551
  21     81.20        0.6529        0.0003        6.8994        6.8997       6.246803       0.00567
  20     96.49        0.6529        0.0004        6.8890        6.8893       6.236448       0.00572
  19     114.6        0.6528        0.0004        6.8759        6.8763       6.223509       0.00604
  18     136.5        0.6528        0.0005        6.8604        6.8609       6.208069       0.00594
  17     162.9        0.6528        0.0006        6.8417        6.8423       6.189541       0.00592
  16     196.4        0.6528        0.0007        6.8172        6.8179       6.165139       0.00614
  15     218.7        0.6528        0.0008        6.8004        6.8011       6.148374       0.00637
  14     243.0        0.6528        0.0009        6.7805        6.7814       6.128609       0.00686
  13     269.0        0.6529        0.0010        6.7564        6.7574       6.104545       0.00781
  12     297.5        0.6530        0.0011        6.7261        6.7272       6.074206       0.00900
  11     328.5        0.6532        0.0012        6.6836        6.6848       6.031565       0.01159
  10     361.9        0.6536        0.0013        6.6246        6.6259       5.972254       0.01501
   9     398.1        0.6542        0.0014        6.5425        6.5439       5.889665       0.01924
   8     437.6        0.6550        0.0015        6.4365        6.4380       5.783065       0.02279
   7     480.5        0.6560        0.0016        6.3128        6.3144       5.658467       0.02447
   6     533.0        0.6575        0.0018        6.1571        6.1589       5.501360       0.02527
   5     589.8        0.6598        0.0019        5.9754        5.9774       5.317563       0.02728
   4     651.6        0.6631        0.0021        5.7522        5.7543       5.091189       0.03096
   3     718.7        0.6679        0.0022        5.4867        5.4889       4.821030       0.03395
   2     792.3        0.6749        0.0023        5.1976        5.2000       4.525015       0.03395
   1     891.5        0.6887        0.0024        4.8390        4.8414       4.152731       0.03168
   0    1013.0        0.7162        0.0026        4.4429        4.4455       3.729335       0.02940



 Wavenumbers:  4650. -  5150. cm-1, ATM      1
 LEVEL PRESSURE   UPWARD FLUX   DIFDOWN FLUX  DIRDOWN FLUX  DOWNWARD FLUX   NET FLUX    HEATING RATE
          mb          W/m2          W/m2          W/m2        W/m2          W/m2       degree/day
  51    .06700        0.4595        0.0000        6.5710        6.5710       6.111471       0.00000
  50    .07753        0.4595        0.0000        6.5708        6.5708       6.111236       0.18861
  49    .09103        0.4595        0.0000        6.5705        6.5705       6.110942       0.18337
  48    0.1069        0.4595        0.0000        6.5701        6.5701       6.110608       0.17782
  47    0.1255        0.4595        0.0000        6.5698        6.5698       6.110229       0.17215
  46    0.1487        0.4595        0.0000        6.5693        6.5693       6.109755       0.17245
  45    0.1794        0.4595        0.0000        6.5686        6.5686       6.109120       0.17450
  44    0.2165        0.4595        0.0000        6.5679        6.5679       6.108383       0.16765
  43    0.2613        0.4595        0.0000        6.5671        6.5671       6.107531       0.16056
  42    0.3336        0.4595        0.0000        6.5657        6.5657       6.106170       0.15872
  41    0.4307        0.4595        0.0000        6.5640        6.5640       6.104450       0.14950
  40    0.5894        0.4595        0.0000        6.5614        6.5614       6.101838       0.13894
  39     1.339        0.4595        0.0000        6.5516        6.5516       6.092074       0.10993
  38     1.782        0.4595        0.0000        6.5474        6.5474       6.087864       0.08015
  37     2.292        0.4595        0.0000        6.5435        6.5435       6.083982       0.06429
  36     2.964        0.4595        0.0000        6.5395        6.5395       6.080034       0.04957
  35     3.853        0.4595        0.0000        6.5356        6.5356       6.076097       0.03736
  34     5.035        0.4595        0.0000        6.5316        6.5316       6.072101       0.02855
  33     6.613        0.4595        0.0000        6.5272        6.5272       6.067714       0.02345
  32     8.786        0.4595        0.0000        6.5217        6.5217       6.062228       0.02131
  31     11.80        0.4595        0.0001        6.5136        6.5136       6.054162       0.02258
  30     15.07        0.4594        0.0001        6.5042        6.5043       6.044810       0.02415
  29     18.79        0.4594        0.0001        6.4926        6.4927       6.033314       0.02606
  28     23.16        0.4594        0.0001        6.4780        6.4782       6.018747       0.02817
  27     28.12        0.4594        0.0002        6.4600        6.4602       6.000804       0.03050
  26     33.73        0.4594        0.0002        6.4386        6.4388       5.979411       0.03216
  25     40.54        0.4593        0.0002        6.4115        6.4117       5.952335       0.03359
  24     48.69        0.4593        0.0003        6.3778        6.3781       5.918761       0.03474
  23     57.69        0.4593        0.0003        6.3407        6.3410       5.881741       0.03470
  22     68.43        0.4593        0.0004        6.2975        6.2979       5.838638       0.03388
  21     81.20        0.4592        0.0004        6.2487        6.2492       5.789926       0.03219
  20     96.49        0.4592        0.0005        6.1954        6.1959       5.736677       0.02939
  19     114.6        0.4592        0.0006        6.1388        6.1394       5.680187       0.02638
  18     136.5        0.4592        0.0007        6.0797        6.0805       5.621280       0.02265
  17     162.9        0.4592        0.0009        6.0171        6.0179       5.558743       0.01999
  16     196.4        0.4592        0.0010        5.9418        5.9428       5.483622       0.01891
  15     218.7        0.4592        0.0011        5.8929        5.8940       5.434782       0.01854
  14     243.0        0.4593        0.0012        5.8384        5.8397       5.380344       0.01888
  13     269.0        0.4594        0.0014        5.7769        5.7783       5.318850       0.01995
  12     297.5        0.4596        0.0015        5.7059        5.7074       5.247761       0.02108
  11     328.5        0.4599        0.0016        5.6198        5.6214       5.161510       0.02345
  10     361.9        0.4603        0.0018        5.5153        5.5171       5.056748       0.02651
   9     398.1        0.4610        0.0019        5.3905        5.3925       4.931502       0.02918
   8     437.6        0.4618        0.0021        5.2441        5.2462       4.784318       0.03147
   7     480.5        0.4631        0.0022        5.0760        5.0782       4.615137       0.03323
   6     533.0        0.4650        0.0024        4.8599        4.8622       4.397253       0.03505
   5     589.8        0.4678        0.0025        4.6209        4.6234       4.155672       0.03586
   4     651.6        0.4717        0.0027        4.3681        4.3708       3.899133       0.03508
   3     718.7        0.4772        0.0028        4.1088        4.1116       3.634474       0.03326
   2     792.3        0.4849        0.0029        3.8442        3.8470       3.362113       0.03124
   1     891.5        0.4993        0.0030        3.5137        3.5167       3.017420       0.02933
   0    1013.0        0.5256        0.0031        3.1498        3.1529       2.627320       0.02709



 Wavenumbers:  5150. -  6150. cm-1, ATM      1
 LEVEL PRESSURE   UPWARD FLUX   DIFDOWN FLUX  DIRDOWN FLUX  DOWNWARD FLUX   NET FLUX    HEATING RATE
          mb          W/m2          W/m2          W/m2        W/m2          W/m2       degree/day
  51    .06700        1.2684        0.0000       16.4735       16.4735      15.205150       0.00000
  50    .07753        1.2684        0.0000       16.4735       16.4735      15.205116       0.02761
  49    .09103        1.2684        0.0000       16.4734       16.4734      15.205071       0.02810
  48    0.1069        1.2684        0.0000       16.4734       16.4734      15.205017       0.02859
  47    0.1255        1.2684        0.0000       16.4733       16.4733      15.204953       0.02904
  46    0.1487        1.2684        0.0000       16.4732       16.4732      15.204869       0.03059
  45    0.1794        1.2684        0.0000       16.4731       16.4731      15.204750       0.03269
  44    0.2165        1.2684        0.0000       16.4730       16.4730      15.204603       0.03331
  43    0.2613        1.2684        0.0000       16.4728       16.4728      15.204424       0.03376
  42    0.3336        1.2684        0.0000       16.4725       16.4725      15.204119       0.03564
  41    0.4307        1.2683        0.0000       16.4720       16.4720      15.203699       0.03645
  40    0.5894        1.2683        0.0000       16.4713       16.4713      15.202998       0.03728
  39     1.339        1.2683        0.0000       16.4679       16.4679      15.199590       0.03837
  38     1.782        1.2683        0.0000       16.4659       16.4659      15.197591       0.03806
  37     2.292        1.2683        0.0001       16.4635       16.4636      15.195299       0.03795
  36     2.964        1.2683        0.0001       16.4605       16.4606      15.192330       0.03727
  35     3.853        1.2683        0.0001       16.4567       16.4567      15.188477       0.03656
  34     5.035        1.2682        0.0001       16.4516       16.4517      15.183481       0.03569
  33     6.613        1.2682        0.0002       16.4451       16.4452      15.177021       0.03453
  32     8.786        1.2682        0.0002       16.4366       16.4369      15.168692       0.03235
  31     11.80        1.2681        0.0003       16.4253       16.4256      15.157496       0.03135
  30     15.07        1.2680        0.0004       16.4140       16.4144      15.146326       0.02884
  29     18.79        1.2680        0.0005       16.4022       16.4026      15.134695       0.02637
  28     23.16        1.2679        0.0006       16.3896       16.3902      15.122310       0.02395
  27     28.12        1.2678        0.0007       16.3766       16.3773      15.109517       0.02175
  26     33.73        1.2677        0.0009       16.3634       16.3643      15.096636       0.01937
  25     40.54        1.2675        0.0010       16.3492       16.3502      15.082692       0.01730
  24     48.69        1.2674        0.0012       16.3339       16.3352      15.067786       0.01543
  23     57.69        1.2672        0.0015       16.3191       16.3206      15.053367       0.01352
  22     68.43        1.2670        0.0017       16.3034       16.3052      15.038147       0.01197
  21     81.20        1.2668        0.0021       16.2868       16.2889      15.022095       0.01061
  20     96.49        1.2665        0.0024       16.2692       16.2716      15.005094       0.00938
  19     114.6        1.2662        0.0029       16.2496       16.2525      14.986296       0.00878
  18     136.5        1.2658        0.0034       16.2269       16.2304      14.964566       0.00836
  17     162.9        1.2654        0.0041       16.1993       16.2034      14.937995       0.00849
  16     196.4        1.2648        0.0049       16.1566       16.1615      14.896711       0.01039
  15     218.7        1.2645        0.0055       16.1111       16.1166      14.852090       0.01694
  14     243.0        1.2641        0.0061       16.0126       16.0187      14.754638       0.03380
  13     269.0        1.2637        0.0067       15.8147       15.8214      14.557745       0.06387
  12     297.5        1.2633        0.0073       15.4731       15.4803      14.217079       0.10104
  11     328.5        1.2629        0.0078       14.9373       14.9451      13.682234       0.14542
  10     361.9        1.2626        0.0083       14.2926       14.3009      13.038326       0.16292
   9     398.1        1.2623        0.0087       13.4966       13.5053      12.243005       0.18529
   8     437.6        1.2622        0.0091       12.6404       12.6495      11.387232       0.18297
   7     480.5        1.2623        0.0094       11.8029       11.8123      10.549969       0.16444
   6     533.0        1.2628        0.0097       10.9310       10.9407       9.677949       0.14028
   5     589.8        1.2639        0.0100       10.1888       10.1988       8.934864       0.11030
   4     651.6        1.2661        0.0104        9.6117        9.6221       8.356012       0.07916
   3     718.7        1.2698        0.0109        9.1583        9.1692       7.899416       0.05738
   2     792.3        1.2761        0.0115        8.7458        8.7573       7.481177       0.04797
   1     891.5        1.2902        0.0123        8.2120        8.2242       6.934033       0.04656
   0    1013.0        1.3240        0.0131        7.6399        7.6530       6.329016       0.04201



 Wavenumbers:  6150. -  7700. cm-1, ATM      1
 LEVEL PRESSURE   UPWARD FLUX   DIFDOWN FLUX  DIRDOWN FLUX  DOWNWARD FLUX   NET FLUX    HEATING RATE
          mb          W/m2          W/m2          W/m2        W/m2          W/m2       degree/day
  51    .06700        1.9660        0.0000       30.4684       30.4684      28.502427       0.00000
  50    .07753        1.9660        0.0000       30.4683       30.4683      28.502376       0.04144
  49    .09103        1.9660        0.0000       30.4683       30.4683      28.502309       0.04173
  48    0.1069        1.9659        0.0000       30.4682       30.4682      28.502230       0.04202
  47    0.1255        1.9659        0.0000       30.4681       30.4681      28.502137       0.04227
  46    0.1487        1.9659        0.0000       30.4680       30.4680      28.502016       0.04411
  45    0.1794        1.9659        0.0000       30.4678       30.4678      28.501846       0.04669
  44    0.2165        1.9659        0.0000       30.4676       30.4676      28.501638       0.04715
  43    0.2613        1.9659        0.0000       30.4673       30.4673      28.501387       0.04744
  42    0.3336        1.9659        0.0000       30.4669       30.4669      28.500960       0.04974
  41    0.4307        1.9659        0.0000       30.4663       30.4663      28.500379       0.05052
  40    0.5894        1.9659        0.0001       30.4653       30.4653      28.499411       0.05146
  39     1.339        1.9658        0.0001       30.4604       30.4606      28.494728       0.05273
  38     1.782        1.9658        0.0002       30.4576       30.4578      28.491978       0.05235
  37     2.292        1.9657        0.0002       30.4543       30.4545      28.488820       0.05231
  36     2.964        1.9657        0.0003       30.4501       30.4504      28.484713       0.05156
  35     3.853        1.9656        0.0004       30.4445       30.4449      28.479356       0.05084
  34     5.035        1.9654        0.0005       30.4373       30.4378      28.472356       0.05000
  33     6.613        1.9653        0.0007       30.4278       30.4285      28.463209       0.04890
  32     8.786        1.9651        0.0009       30.4154       30.4163      28.451236       0.04650
  31     11.80        1.9648        0.0013       30.3983       30.3995      28.434777       0.04608
  30     15.07        1.9644        0.0016       30.3808       30.3824      28.417948       0.04345
  29     18.79        1.9641        0.0020       30.3620       30.3640      28.399955       0.04080
  28     23.16        1.9636        0.0025       30.3412       30.3437      28.380099       0.03839
  27     28.12        1.9631        0.0030       30.3189       30.3220      28.358847       0.03613
  26     33.73        1.9626        0.0036       30.2956       30.2992      28.336631       0.03340
  25     40.54        1.9619        0.0043       30.2693       30.2736      28.311777       0.03084
  24     48.69        1.9611        0.0052       30.2401       30.2453      28.284245       0.02849
  23     57.69        1.9602        0.0062       30.2107       30.2168      28.256671       0.02585
  22     68.43        1.9591        0.0073       30.1785       30.1858      28.226760       0.02351
  21     81.20        1.9578        0.0087       30.1437       30.1524      28.194594       0.02126
  20     96.49        1.9563        0.0103       30.1062       30.1165      28.160209       0.01898
  19     114.6        1.9545        0.0122       30.0647       30.0769      28.122434       0.01764
  18     136.5        1.9523        0.0145       30.0175       30.0320      28.079677       0.01644
  17     162.9        1.9497        0.0172       29.9614       29.9786      28.028906       0.01623
  16     196.4        1.9464        0.0208       29.8799       29.9007      27.954299       0.01878
  15     218.7        1.9442        0.0231       29.8030       29.8261      27.881888       0.02749
  14     243.0        1.9419        0.0255       29.6606       29.6861      27.744284       0.04773
  13     269.0        1.9393        0.0281       29.3974       29.4256      27.486216       0.08372
  12     297.5        1.9367        0.0307       28.9190       28.9498      27.013075       0.14033
  11     328.5        1.9340        0.0332       28.0351       28.0683      26.134277       0.23894
  10     361.9        1.9313        0.0354       26.9237       26.9591      25.027720       0.27997
   9     398.1        1.9289        0.0374       25.6005       25.6379      23.709058       0.30722
   8     437.6        1.9267        0.0391       24.0710       24.1101      22.183434       0.32619
   7     480.5        1.9251        0.0405       22.4856       22.5261      20.601023       0.31078
   6     533.0        1.9243        0.0418       20.6979       20.7397      18.815443       0.28724
   5     589.8        1.9254        0.0428       18.9639       19.0067      17.081284       0.25741
   4     651.6        1.9296        0.0436       17.3772       17.4209      15.491299       0.21743
   3     718.7        1.9384        0.0445       15.9419       15.9863      14.047896       0.18140
   2     792.3        1.9547        0.0453       14.6385       14.6838      12.729088       0.15125
   1     891.5        1.9924        0.0463       13.1935       13.2399      11.247425       0.12608
   0    1013.0        2.0814        0.0474       11.7655       11.8129       9.731453       0.10526



 Wavenumbers:  7700. -  8050. cm-1, ATM      1
 LEVEL PRESSURE   UPWARD FLUX   DIFDOWN FLUX  DIRDOWN FLUX  DOWNWARD FLUX   NET FLUX    HEATING RATE
          mb          W/m2          W/m2          W/m2        W/m2          W/m2       degree/day
  51    .06700        1.0311        0.0000        7.2006        7.2006       6.169438       0.00000
  50    .07753        1.0311        0.0000        7.2006        7.2006       6.169420       0.01474
  49    .09103        1.0311        0.0000        7.2005        7.2005       6.169397       0.01445
  48    0.1069        1.0311        0.0000        7.2005        7.2005       6.169370       0.01414
  47    0.1255        1.0311        0.0000        7.2005        7.2005       6.169340       0.01384
  46    0.1487        1.0311        0.0000        7.2004        7.2005       6.169301       0.01404
  45    0.1794        1.0311        0.0000        7.2004        7.2004       6.169249       0.01445
  44    0.2165        1.0312        0.0000        7.2003        7.2003       6.169186       0.01417
  43    0.2613        1.0312        0.0000        7.2003        7.2003       6.169112       0.01391
  42    0.3336        1.0312        0.0000        7.2001        7.2001       6.168990       0.01423
  41    0.4307        1.0312        0.0000        7.2000        7.2000       6.168829       0.01407
  40    0.5894        1.0312        0.0000        7.1997        7.1997       6.168564       0.01406
  39     1.339        1.0312        0.0001        7.1984        7.1985       6.167314       0.01408
  38     1.782        1.0312        0.0001        7.1977        7.1978       6.166580       0.01398
  37     2.292        1.0312        0.0001        7.1968        7.1969       6.165730       0.01407
  36     2.964        1.0312        0.0001        7.1957        7.1958       6.164616       0.01400
  35     3.853        1.0312        0.0002        7.1942        7.1944       6.163144       0.01397
  34     5.035        1.0313        0.0002        7.1922        7.1924       6.161190       0.01396
  33     6.613        1.0313        0.0003        7.1896        7.1899       6.158583       0.01394
  32     8.786        1.0313        0.0004        7.1860        7.1864       6.155075       0.01362
  31     11.80        1.0314        0.0005        7.1810        7.1815       6.150069       0.01402
  30     15.07        1.0315        0.0006        7.1755        7.1762       6.144710       0.01384
  29     18.79        1.0316        0.0008        7.1694        7.1702       6.138677       0.01368
  28     23.16        1.0317        0.0010        7.1623        7.1633       6.131658       0.01357
  27     28.12        1.0318        0.0012        7.1542        7.1555       6.123669       0.01358
  26     33.73        1.0319        0.0014        7.1452        7.1467       6.114777       0.01337
  25     40.54        1.0321        0.0017        7.1344        7.1362       6.104102       0.01324
  24     48.69        1.0323        0.0021        7.1215        7.1236       6.091331       0.01322
  23     57.69        1.0325        0.0025        7.1074        7.1099       6.077429       0.01303
  22     68.43        1.0327        0.0029        7.0909        7.0938       6.061039       0.01288
  21     81.20        1.0330        0.0034        7.0713        7.0748       6.041749       0.01275
  20     96.49        1.0334        0.0041        7.0484        7.0525       6.019091       0.01251
  19     114.6        1.0339        0.0048        7.0217        7.0265       5.992636       0.01235
  18     136.5        1.0344        0.0057        6.9906        6.9963       5.961883       0.01183
  17     162.9        1.0351        0.0068        6.9544        6.9612       5.926069       0.01145
  16     196.4        1.0360        0.0082        6.9087        6.9169       5.880869       0.01138
  15     218.7        1.0367        0.0091        6.8795        6.8885       5.851853       0.01102
  14     243.0        1.0374        0.0100        6.8482        6.8582       5.820877       0.01074
  13     269.0        1.0381        0.0111        6.8150        6.8261       5.787916       0.01069
  12     297.5        1.0390        0.0122        6.7797        6.7919       5.752871       0.01039
  11     328.5        1.0400        0.0134        6.7422        6.7556       5.715580       0.01014
  10     361.9        1.0411        0.0147        6.7023        6.7170       5.675868       0.01005
   9     398.1        1.0424        0.0161        6.6597        6.6758       5.633412       0.00989
   8     437.6        1.0439        0.0176        6.6141        6.6317       5.587807       0.00975
   7     480.5        1.0456        0.0192        6.5651        6.5843       5.538616       0.00966
   6     533.0        1.0480        0.0212        6.5041        6.5253       5.477251       0.00987
   5     589.8        1.0510        0.0232        6.4367        6.4599       5.408969       0.01014
   4     651.6        1.0546        0.0254        6.3618        6.3872       5.332589       0.01045
   3     718.7        1.0592        0.0278        6.2776        6.3054       5.246191       0.01086
   2     792.3        1.0649        0.0303        6.1825        6.2127       5.147847       0.01128
   1     891.5        1.0743        0.0335        6.0449        6.0784       5.004161       0.01223
   0    1013.0        1.0886        0.0372        5.8629        5.9001       4.811567       0.01337



 Wavenumbers:  8050. - 12850. cm-1, ATM      1
 LEVEL PRESSURE   UPWARD FLUX   DIFDOWN FLUX  DIRDOWN FLUX  DOWNWARD FLUX   NET FLUX    HEATING RATE
          mb          W/m2          W/m2          W/m2        W/m2          W/m2       degree/day
  51    .06700       21.8126        0.0000      100.8135      100.8135      79.000897       0.00000
  50    .07753       21.8126        0.0000      100.8135      100.8135      79.000897       0.00000
  49    .09103       21.8126        0.0001      100.8134      100.8135      79.000897       0.00000
  48    0.1069       21.8125        0.0001      100.8134      100.8134      79.000897       0.00000
  47    0.1255       21.8125        0.0001      100.8133      100.8134      79.000897       0.00000
  46    0.1487       21.8125        0.0002      100.8132      100.8134      79.000897      -0.00000
  45    0.1794       21.8124        0.0002      100.8131      100.8133      79.000897       0.00000
  44    0.2165       21.8124        0.0003      100.8129      100.8132      79.000897       0.00000
  43    0.2613       21.8123        0.0004      100.8127      100.8132      79.000897       0.00000
  42    0.3336       21.8121        0.0006      100.8125      100.8130      79.000897      -0.00000
  41    0.4307       21.8120        0.0008      100.8121      100.8129      79.000897      -0.00000
  40    0.5894       21.8117        0.0011      100.8115      100.8126      79.000897      -0.00000
  39     1.339       21.8104        0.0028      100.8085      100.8113      79.000897       0.00000
  38     1.782       21.8096        0.0037      100.8068      100.8105      79.000897      -0.00000
  37     2.292       21.8087        0.0048      100.8047      100.8096      79.000897       0.00000
  36     2.964       21.8075        0.0063      100.8021      100.8084      79.000897       0.00000
  35     3.853       21.8059        0.0082      100.7986      100.8068      79.000897      -0.00000
  34     5.035       21.8038        0.0108      100.7940      100.8047      79.000897       0.00000
  33     6.613       21.8011        0.0142      100.7878      100.8020      79.000897      -0.00000
  32     8.786       21.7973        0.0188      100.7794      100.7982      79.000897      -0.00000
  31     11.80       21.7919        0.0254      100.7674      100.7928      79.000897       0.00000
  30     15.07       21.7861        0.0325      100.7546      100.7870      79.000897      -0.00000
  29     18.79       21.7796        0.0405      100.7400      100.7805      79.000897      -0.00000
  28     23.16       21.7720        0.0499      100.7230      100.7729      79.000897       0.00000
  27     28.12       21.7632        0.0606      100.7035      100.7641      79.000897       0.00000
  26     33.73       21.7534        0.0726      100.6817      100.7543      79.000897       0.00000
  25     40.54       21.7415        0.0872      100.6552      100.7424      79.000897      -0.00000
  24     48.69       21.7272        0.1047      100.6234      100.7281      79.000897       0.00000
  23     57.69       21.7114        0.1241      100.5883      100.7123      79.000897       0.00000
  22     68.43       21.6926        0.1471      100.5464      100.6935      79.000897      -0.00000
  21     81.20       21.6702        0.1746      100.4965      100.6711      79.000897       0.00000
  20     96.49       21.6434        0.2074      100.4370      100.6443      79.000897      -0.00000
  19     114.6       21.6116        0.2463      100.3587      100.6051      78.993448       0.00348
  18     136.5       21.5738        0.2926      100.2659      100.5585      78.984711       0.00336
  17     162.9       21.5287        0.3478      100.1549      100.5027      78.974013       0.00342
  16     196.4       21.4700        0.4196      100.0076      100.4272      78.957219       0.00423
  15     218.7       21.4314        0.4668       99.9030      100.3698      78.938401       0.00714
  14     243.0       21.3893        0.5181       99.7669      100.2850      78.895675       0.01482
  13     269.0       21.3437        0.5738       99.5755      100.1493      78.805541       0.02924
  12     297.5       21.2946        0.6337       99.2916       99.9254      78.630721       0.05185
  11     328.5       21.2422        0.6981       98.8222       99.5203      78.278114       0.09587
  10     361.9       21.1868        0.7667       98.1801       98.9468      77.759954       0.13110
   9     398.1       21.1292        0.8396       97.3132       98.1529      77.023676       0.17154
   8     437.6       21.0703        0.9165       96.1582       97.0747      76.004379       0.21793
   7     480.5       21.0117        0.9968       94.7033       95.7002      74.688410       0.25845
   6     533.0       20.9480        1.0925       92.6539       93.7463      72.798314       0.30406
   5     589.8       20.8943        1.1907       90.1287       91.3195      70.425198       0.35225
   4     651.6       20.8582        1.2910       87.2571       88.5481      67.689933       0.37405
   3     718.7       20.8515        1.3928       84.1081       85.5009      64.649465       0.38210
   2     792.3       20.8938        1.4951       80.6630       82.1581      61.264237       0.38825
   1     891.5       21.0619        1.6218       76.0418       77.6636      56.601747       0.39676
   0    1013.0       21.5371        1.7566       70.7345       72.4911      50.954007       0.39215



 Wavenumbers: 12850. - 16000. cm-1, ATM      1
 LEVEL PRESSURE   UPWARD FLUX   DIFDOWN FLUX  DIRDOWN FLUX  DOWNWARD FLUX   NET FLUX    HEATING RATE
          mb          W/m2          W/m2          W/m2        W/m2          W/m2       degree/day
  51    .06700       31.9278        0.0000       63.1686       63.1686      31.240802       0.00000
  50    .07753       31.9277        0.0001       63.1677       63.1678      31.240023       0.62429
  49    .09103       31.9277        0.0001       63.1666       63.1668      31.239053       0.60662
  48    0.1069       31.9277        0.0002       63.1654       63.1656      31.237948       0.58814
  47    0.1255       31.9276        0.0003       63.1640       63.1643      31.236691       0.56958
  46    0.1487       31.9276        0.0004       63.1623       63.1627      31.235125       0.57100
  45    0.1794       31.9275        0.0006       63.1600       63.1606      31.233025       0.57649
  44    0.2165       31.9275        0.0008       63.1573       63.1581      31.230597       0.55222
  43    0.2613       31.9274        0.0010       63.1542       63.1552      31.227799       0.52757
  42    0.3336       31.9273        0.0014       63.1493       63.1507      31.223342       0.51962
  41    0.4307       31.9272        0.0019       63.1431       63.1450      31.217772       0.48428
  40    0.5894       31.9271        0.0027       63.1338       63.1365      31.209345       0.44816
  39     1.339       31.9279        0.0065       63.0956       63.1020      31.174103       0.39676
  38     1.782       31.9293        0.0087       63.0740       63.0827      31.153459       0.39303
  37     2.292       31.9316        0.0113       63.0477       63.0590      31.127336       0.43266
  36     2.964       31.9359        0.0147       63.0095       63.0242      31.088279       0.49029
  35     3.853       31.9434        0.0192       62.9533       62.9724      31.029054       0.56205
  34     5.035       31.9549        0.0251       62.8725       62.8976      30.942660       0.61716
  33     6.613       31.9713        0.0330       62.7621       62.7951      30.823799       0.63543
  32     8.786       31.9924        0.0437       62.6182       62.6619      30.669531       0.59912
  31     11.80       32.0192        0.0589       62.4284       62.4873      30.468027       0.56415
  30     15.07       32.0441        0.0752       62.2426       62.3178      30.273696       0.50173
  29     18.79       32.0687        0.0936       62.0493       62.1429      30.074183       0.45236
  28     23.16       32.0933        0.1150       61.8424       61.9574      29.864111       0.40621
  27     28.12       32.1167        0.1394       61.6278       61.7672      29.650488       0.36314
  26     33.73       32.1361        0.1667       61.4177       61.5843      29.448220       0.30412
  25     40.54       32.1517        0.1995       61.1983       61.3978      29.246176       0.25066
  24     48.69       32.1628        0.2391       60.9680       61.2071      29.044324       0.20888
  23     57.69       32.1676        0.2825       60.7478       61.0303      28.862745       0.17020
  22     68.43       32.1653        0.3342       60.5202       60.8544      28.689066       0.13654
  21     81.20       32.1516        0.3957       60.2938       60.6895      28.537889       0.09990
  20     96.49       32.1252        0.4689       60.0643       60.5332      28.408020       0.07168
  19     114.6       32.0941        0.5563       59.8078       60.3641      28.269950       0.06447
  18     136.5       32.0528        0.6597       59.5158       60.1755      28.122639       0.05664
  17     162.9       31.9994        0.7825       59.1773       59.9598      27.960384       0.05186
  16     196.4       31.9212        0.9412       58.7613       59.7026      27.781368       0.04506
  15     218.7       31.8666        1.0452       58.4967       59.5419      27.675308       0.04027
  14     243.0       31.8058        1.1580       58.2130       59.3709      27.565118       0.03822
  13     269.0       31.7385        1.2799       57.9102       59.1901      27.451656       0.03681
  12     297.5       31.6643        1.4113       57.5871       58.9984      27.334063       0.03488
  11     328.5       31.5840        1.5529       57.2375       58.7904      27.206403       0.03471
  10     361.9       31.4977        1.7049       56.8579       58.5628      27.065121       0.03575
   9     398.1       31.4056        1.8680       56.4424       58.3104      26.904743       0.03736
   8     437.6       31.3086        2.0424       55.9833       58.0257      26.717073       0.04012
   7     480.5       31.2075        2.2284       55.4739       57.7023      26.494781       0.04366
   6     533.0       31.0888        2.4558       54.8166       57.2724      26.183637       0.05005
   5     589.8       30.9715        2.6986       54.0593       56.7579      25.786403       0.05896
   4     651.6       30.8608        2.9565       53.1919       56.1484      25.287606       0.06821
   3     718.7       30.7609        3.2284       52.2214       55.4499      24.688950       0.07523
   2     792.3       30.6827        3.5128       51.1400       54.6528      23.970163       0.08244
   1     891.5       30.6378        3.8840       49.6200       53.5040      22.866163       0.09395
   0    1013.0       30.7012        4.3099       47.7260       52.0359      21.334701       0.10634



 Wavenumbers: 16000. - 22650. cm-1, ATM      1
 LEVEL PRESSURE   UPWARD FLUX   DIFDOWN FLUX  DIRDOWN FLUX  DOWNWARD FLUX   NET FLUX    HEATING RATE
          mb          W/m2          W/m2          W/m2        W/m2          W/m2       degree/day
  51    .06700       75.3476        0.0000      100.7153      100.7153      25.367691       0.00000
  50    .07753       75.3475        0.0003      100.7147      100.7151      25.367574       0.09378
  49    .09103       75.3473        0.0007      100.7140      100.7147      25.367404       0.10636
  48    0.1069       75.3472        0.0012      100.7131      100.7143      25.367176       0.12129
  47    0.1255       75.3470        0.0017      100.7121      100.7139      25.366871       0.13825
  46    0.1487       75.3468        0.0024      100.7108      100.7132      25.366422       0.16382
  45    0.1794       75.3465        0.0034      100.7089      100.7122      25.365719       0.19289
  44    0.2165       75.3462        0.0045      100.7066      100.7110      25.364766       0.21679
  43    0.2613       75.3460        0.0058      100.7037      100.7094      25.363473       0.24372
  42    0.3336       75.3456        0.0079      100.6987      100.7066      25.361015       0.28660
  41    0.4307       75.3453        0.0108      100.6918      100.7026      25.357310       0.32216
  40    0.5894       75.3450        0.0155      100.6797      100.6952      25.350244       0.37577
  39     1.339       75.3491        0.0377      100.6095      100.6472      25.298048       0.58763
  38     1.782       75.3556        0.0507      100.5585      100.6092      25.253597       0.84627
  37     2.292       75.3667        0.0658      100.4903      100.5560      25.189275       1.06535
  36     2.964       75.3872        0.0855      100.3868      100.4723      25.085121       1.30744
  35     3.853       75.4222        0.1116      100.2306      100.3422      24.919976       1.56726
  34     5.035       75.4768        0.1462      100.0045      100.1507      24.673862       1.75813
  33     6.613       75.5538        0.1923       99.6939       99.8862      24.332367       1.82563
  32     8.786       75.6534        0.2543       99.2881       99.5423      23.888928       1.72216
  31     11.80       75.7803        0.3427       98.7496       99.0923      23.311931       1.61541
  30     15.07       75.8985        0.4372       98.2198       98.6571      22.758576       1.42865
  29     18.79       76.0156        0.5437       97.6651       98.2088      22.193185       1.28192
  28     23.16       76.1337        0.6675       97.0671       97.7347      21.601031       1.14503
  27     28.12       76.2467        0.8087       96.4406       97.2492      21.002534       1.01740
  26     33.73       76.3416        0.9660       95.8179       96.7839      20.442287       0.84235
  25     40.54       76.4199        1.1555       95.1548       96.3104      19.890462       0.68460
  24     48.69       76.4789        1.3831       94.4420       95.8250      19.346096       0.56333
  23     57.69       76.5098        1.6320       93.7416       95.3736      18.863822       0.45206
  22     68.43       76.5099        1.9272       92.9954       94.9226      18.412684       0.35465
  21     81.20       76.4599        2.2776       92.2231       94.5007      18.040798       0.24574
  20     96.49       76.3541        2.6931       91.4110       94.1041      17.749965       0.16052
  19     114.6       76.2058        3.1831       90.5070       93.6901      17.484305       0.12404
  18     136.5       76.0152        3.7589       89.4803       93.2392      17.223966       0.10011
  17     162.9       75.7757        4.4377       88.3022       92.7400      16.964320       0.08299
  16     196.4       75.4366        5.3078       86.8608       92.1686      16.732023       0.05847
  15     218.7       75.2043        5.8730       85.9495       91.8225      16.618203       0.04321
  14     243.0       74.9483        6.4817       84.9796       91.4613      16.513077       0.03646
  13     269.0       74.6672        7.1348       83.9509       91.0858      16.418582       0.03065
  12     297.5       74.3604        7.8332       82.8624       90.6956      16.335183       0.02474
  11     328.5       74.0292        8.5792       81.7046       90.2838      16.254573       0.02192
  10     361.9       73.6735        9.3726       80.4776       89.8501      16.176638       0.01972
   9     398.1       73.2923       10.2151       79.1776       89.3927      16.100420       0.01776
   8     437.6       72.8859       11.1072       77.8022       88.9094      16.023521       0.01644
   7     480.5       72.4541       12.0490       76.3505       88.3995      15.945406       0.01534
   6     533.0       71.9287       13.1881       74.5921       87.7802      15.851437       0.01512
   5     589.8       71.3720       14.3916       72.7266       87.1182      15.746174       0.01562
   4     651.6       70.7855       15.6575       70.7530       86.4105      15.625054       0.01656
   3     718.7       70.1711       16.9838       68.6703       85.6541      15.483069       0.01784
   2     792.3       69.5340       18.3655       66.4782       84.8437      15.309706       0.01988
   1     891.5       68.7128       20.1674       63.5764       83.7438      15.031021       0.02371
   0    1013.0       67.7890       22.2344       60.1839       82.4182      14.629239       0.02790



 Wavenumbers: 22650. - 29000. cm-1, ATM      1
 LEVEL PRESSURE   UPWARD FLUX   DIFDOWN FLUX  DIRDOWN FLUX  DOWNWARD FLUX   NET FLUX    HEATING RATE
          mb          W/m2          W/m2          W/m2        W/m2          W/m2       degree/day
  51    .06700       34.6309        0.0000       38.0063       38.0063       3.375411       0.00000
  50    .07753       34.6307        0.0004       38.0057       38.0061       3.375411      -0.00000
  49    .09103       34.6305        0.0009       38.0050       38.0059       3.375411       0.00000
  48    0.1069       34.6303        0.0014       38.0042       38.0057       3.375411       0.00000
  47    0.1255       34.6300        0.0021       38.0033       38.0054       3.375411       0.00000
  46    0.1487       34.6296        0.0029       38.0022       38.0051       3.375411       0.00000
  45    0.1794       34.6292        0.0040       38.0006       38.0046       3.375411       0.00000
  44    0.2165       34.6286        0.0053       37.9987       38.0040       3.375411       0.00000
  43    0.2613       34.6279        0.0068       37.9965       38.0034       3.375411      -0.00000
  42    0.3336       34.6268        0.0094       37.9928       38.0023       3.375411      -0.00000
  41    0.4307       34.6254        0.0128       37.9880       38.0008       3.375411       0.00000
  40    0.5894       34.6230        0.0184       37.9800       37.9984       3.375411       0.00000
  39     1.339       34.6117        0.0447       37.9425       37.9871       3.375411      -0.00000
  38     1.782       34.6051        0.0601       37.9204       37.9805       3.375411       0.00000
  37     2.292       34.5975        0.0780       37.8949       37.9729       3.375411      -0.00000
  36     2.964       34.5874        0.1014       37.8614       37.9628       3.375411       0.00000
  35     3.853       34.5742        0.1323       37.8172       37.9496       3.375411       0.00000
  34     5.035       34.5566        0.1734       37.7586       37.9320       3.375411      -0.00000
  33     6.613       34.5331        0.2282       37.6803       37.9085       3.375411       0.00000
  32     8.786       34.5015        0.3018       37.5750       37.8769       3.375411       0.00000
  31     11.80       34.4564        0.4069       37.4249       37.8318       3.375411       0.00000
  30     15.07       34.4081        0.5194       37.2642       37.7835       3.375411      -0.00000
  29     18.79       34.3538        0.6459       37.0833       37.7292       3.375411       0.00000
  28     23.16       34.2906        0.7930       36.8730       37.6660       3.375411      -0.00000
  27     28.12       34.2187        0.9603       36.6338       37.5941       3.375411       0.00000
  26     33.73       34.1386        1.1463       36.3677       37.5140       3.375411       0.00000
  25     40.54       34.0426        1.3694       36.0486       37.4180       3.375411      -0.00000
  24     48.69       33.9277        1.6359       35.6672       37.3031       3.375411       0.00000
  23     57.69       33.8027        1.9255       35.2527       37.1782       3.375411       0.00000
  22     68.43       33.6556        2.2660       34.7649       37.0310       3.375411       0.00000
  21     81.20       33.4826        2.6657       34.1922       36.8580       3.375411      -0.00000
  20     96.49       33.2797        3.1334       33.5217       36.6551       3.375411       0.00000
  19     114.6       33.0435        3.6766       32.7424       36.4189       3.375411       0.00000
  18     136.5       32.7700        4.3038       31.8416       36.1454       3.375411       0.00000
  17     162.9       32.4531        5.0277       30.8008       35.8285       3.375411       0.00000
  16     196.4       32.0560        5.9307       29.5007       35.4314       3.375411      -0.00000
  15     218.7       31.8035        6.5021       28.6767       35.1789       3.375411       0.00000
  14     243.0       31.5362        7.1047       27.8069       34.9116       3.375411      -0.00000
  13     269.0       31.2547        7.7365       26.8935       34.6301       3.375411       0.00000
  12     297.5       30.9597        8.3953       25.9397       34.3351       3.375411       0.00000
  11     328.5       30.6511        9.0807       24.9458       34.0265       3.375411      -0.00000
  10     361.9       30.3304        9.7886       23.9172       33.7058       3.375411       0.00000
   9     398.1       29.9978       10.5175       22.8557       33.3732       3.375411       0.00000
   8     437.6       29.6549       11.2630       21.7673       33.0303       3.375411      -0.00000
   7     480.5       29.3026       12.0222       20.6558       32.6780       3.375411       0.00000
   6     533.0       28.8898       12.9021       19.3631       32.2652       3.375411       0.00000
   5     589.8       28.4681       13.7890       18.0544       31.8435       3.375411      -0.00000
   4     651.6       28.0402       14.6753       16.7402       31.4156       3.375411       0.00000
   3     718.7       27.6091       15.5519       15.4326       30.9845       3.375411       0.00000
   2     792.3       27.1771       16.4121       14.1404       30.5525       3.375411       0.00000
   1     891.5       26.6389       17.4540       12.5603       30.0143       3.375411      -0.00000
   0    1013.0       26.0528       18.5441       10.8841       29.4282       3.375411       0.00000



 Wavenumbers: 29000. - 38000. cm-1, ATM      1
 LEVEL PRESSURE   UPWARD FLUX   DIFDOWN FLUX  DIRDOWN FLUX  DOWNWARD FLUX   NET FLUX    HEATING RATE
          mb          W/m2          W/m2          W/m2        W/m2          W/m2       degree/day
  51    .06700        4.9419        0.0000       13.4026       13.4026       8.460715       0.00000
  50    .07753        4.9417        0.0003       13.3983       13.3986       8.456917       3.04443
  49    .09103        4.9414        0.0007       13.3921       13.3928       8.451397       3.44972
  48    0.1069        4.9411        0.0011       13.3840       13.3851       8.444020       3.92683
  47    0.1255        4.9407        0.0016       13.3733       13.3749       8.434175       4.46325
  46    0.1487        4.9403        0.0022       13.3579       13.3600       8.419733       5.26447
  45    0.1794        4.9397        0.0030       13.3340       13.3371       8.397333       6.14937
  44    0.2165        4.9391        0.0040       13.3024       13.3064       8.367313       6.82889
  43    0.2613        4.9383        0.0052       13.2604       13.2656       8.327258       7.55024
  42    0.3336        4.9371        0.0070       13.1833       13.1903       8.253250       8.62859
  41    0.4307        4.9355        0.0095       13.0729       13.0824       8.146876       9.24899
  40    0.5894        4.9332        0.0134       12.8796       12.8930       7.959829       9.94693
  39     1.339        4.9248        0.0297       11.9165       11.9462       7.021460      10.56433
  38     1.782        4.9215        0.0380       11.4399       11.4779       6.556454       8.85297
  37     2.292        4.9190        0.0469       10.9796       11.0265       6.107485       7.43610
  36     2.964        4.9177        0.0578       10.4786       10.5365       5.618794       6.13455
  35     3.853        4.9184        0.0713        9.9429       10.0142       5.095840       4.96294
  34     5.035        4.9219        0.0882        9.4007        9.4889       4.566960       3.77810
  33     6.613        4.9284        0.1096        8.8752        8.9848       4.056360       2.72967
  32     8.786        4.9374        0.1371        8.3786        8.5157       3.578351       1.85641
  31     11.80        4.9483        0.1750        7.8897        8.0647       3.116331       1.29351
  30     15.07        4.9578        0.2141        7.5108        7.7249       2.767056       0.90176
  29     18.79        4.9666        0.2566        7.1776        7.4342       2.467599       0.67896
  28     23.16        4.9748        0.3046        6.8664        7.1710       2.196224       0.52475
  27     28.12        4.9814        0.3576        6.5780        6.9356       1.954170       0.41148
  26     33.73        4.9842        0.4153        6.3195        6.7348       1.750650       0.30600
  25     40.54        4.9818        0.4835        6.0663        6.5497       1.567937       0.22668
  24     48.69        4.9738        0.5633        5.8128        6.3761       1.402335       0.17137
  23     57.69        4.9601        0.6485        5.5777        6.2262       1.266110       0.12769
  22     68.43        4.9384        0.7471        5.3379        6.0850       1.146569       0.09398
  21     81.20        4.9046        0.8616        5.0965        5.9580       1.053479       0.06151
  20     96.49        4.8573        0.9937        4.8476        5.8414       0.984126       0.03828
  19     114.6        4.7997        1.1436        4.5799        5.7234       0.923729       0.02820
  18     136.5        4.7329        1.3109        4.2891        5.6000       0.867088       0.02178
  17     162.9        4.6567        1.4966        3.9732        5.4698       0.813059       0.01727
  16     196.4        4.5601        1.7190        3.6080        5.3270       0.766840       0.01163
  15     218.7        4.4993        1.8543        3.3898        5.2441       0.744822       0.00836
  14     243.0        4.4360        1.9923        3.1686        5.1608       0.724838       0.00693
  13     269.0        4.3706        2.1318        2.9461        5.0778       0.707202       0.00572
  12     297.5        4.3036        2.2716        2.7239        4.9955       0.691934       0.00453
  11     328.5        4.2357        2.4103        2.5029        4.9132       0.677583       0.00390
  10     361.9        4.1673        2.5469        2.2846        4.8315       0.664171       0.00339
   9     398.1        4.0990        2.6799        2.0708        4.7507       0.651693       0.00291
   8     437.6        4.0312        2.8080        1.8631        4.6711       0.639883       0.00252
   7     480.5        3.9642        2.9305        1.6626        4.5931       0.628868       0.00216
   6     533.0        3.8891        3.0617        1.4445        4.5062       0.617082       0.00190
   5     589.8        3.8164        3.1822        1.2401        4.4223       0.605889       0.00166
   4     651.6        3.7465        3.2903        1.0513        4.3416       0.595138       0.00147
   3     718.7        3.6797        3.3852        0.8793        4.2644       0.584791       0.00130
   2     792.3        3.6162        3.4660        0.7250        4.1910       0.574827       0.00114
   1     891.5        3.5416        3.5470        0.5573        4.1043       0.562740       0.00103
   0    1013.0        3.4653        3.6103        0.4047        4.0149       0.549645       0.00091



 Wavenumbers: 38000. - 50000. cm-1, ATM      1
 LEVEL PRESSURE   UPWARD FLUX   DIFDOWN FLUX  DIRDOWN FLUX  DOWNWARD FLUX   NET FLUX    HEATING RATE
          mb          W/m2          W/m2          W/m2        W/m2          W/m2       degree/day
  51    .06700        0.0051        0.0000        0.8267        0.8267       0.821528       0.00000
  50    .07753        0.0051        0.0001        0.8242        0.8243       0.819196       1.86936
  49    .09103        0.0050        0.0002        0.8207        0.8209       0.815872       2.07705
  48    0.1069        0.0049        0.0002        0.8162        0.8164       0.811514       2.31984
  47    0.1255        0.0048        0.0004        0.8103        0.8106       0.805801       2.59006
  46    0.1487        0.0047        0.0005        0.8018        0.8023       0.797567       3.00143
  45    0.1794        0.0045        0.0007        0.7889        0.7896       0.785013       3.44648
  44    0.2165        0.0044        0.0009        0.7720        0.7729       0.768507       3.75474
  43    0.2613        0.0042        0.0011        0.7500        0.7511       0.746955       4.06246
  42    0.3336        0.0039        0.0015        0.7106        0.7121       0.708267       4.51071
  41    0.4307        0.0035        0.0019        0.6566        0.6584       0.654972       4.63387
  40    0.5894        0.0029        0.0024        0.5680        0.5704       0.567464       4.65357
  39     1.339        0.0015        0.0030        0.2422        0.2452       0.243720       3.64476
  38     1.782        0.0010        0.0026        0.1493        0.1519       0.150889       1.76735
  37     2.292        0.0007        0.0022        0.0924        0.0946       0.093932       0.94336
  36     2.964        0.0005        0.0018        0.0539        0.0557       0.055224       0.48589
  35     3.853        0.0003        0.0013        0.0295        0.0308       0.030502       0.23462
  34     5.035        0.0002        0.0010        0.0154        0.0164       0.016181       0.10230
  33     6.613        0.0001        0.0007        0.0073        0.0080       0.007912       0.04420
  32     8.786        0.0000        0.0004        0.0030        0.0034       0.003390       0.01756
  31     11.80        0.0000        0.0003        0.0010        0.0012       0.001199       0.00613
  30     15.07        0.0000        0.0001        0.0003        0.0005       0.000463       0.00190
  29     18.79        0.0000        0.0001        0.0001        0.0002       0.000182       0.00064
  28     23.16        0.0000        0.0000        0.0000        0.0001       0.000071       0.00022
  27     28.12        0.0000        0.0000        0.0000        0.0000       0.000028       0.00007
  26     33.73        0.0000        0.0000        0.0000        0.0000       0.000011       0.00002
  25     40.54        0.0000        0.0000        0.0000        0.0000       0.000005       0.00001
  24     48.69        0.0000        0.0000        0.0000        0.0000       0.000002       0.00000
  23     57.69        0.0000        0.0000        0.0000        0.0000       0.000001       0.00000
  22     68.43        0.0000        0.0000        0.0000        0.0000       0.000000       0.00000
  21     81.20        0.0000        0.0000        0.0000        0.0000       0.000000       0.00000
  20     96.49        0.0000        0.0000        0.0000        0.0000       0.000000       0.00000
  19     114.6        0.0000        0.0000        0.0000        0.0000       0.000000       0.00000
  18     136.5        0.0000        0.0000        0.0000        0.0000       0.000000       0.00000
  17     162.9        0.0000        0.0000        0.0000        0.0000       0.000000       0.00000
  16     196.4        0.0000        0.0000        0.0000        0.0000       0.000000       0.00000
  15     218.7        0.0000        0.0000        0.0000        0.0000       0.000000       0.00000
  14     243.0        0.0000        0.0000        0.0000        0.0000       0.000000       0.00000
  13     269.0        0.0000        0.0000        0.0000        0.0000       0.000000       0.00000
  12     297.5        0.0000        0.0000        0.0000        0.0000       0.000000       0.00000
  11     328.5        0.0000        0.0000        0.0000        0.0000       0.000000       0.00000
  10     361.9        0.0000        0.0000        0.0000        0.0000       0.000000       0.00000
   9     398.1        0.0000        0.0000        0.0000        0.0000       0.000000       0.00000
   8     437.6        0.0000        0.0000        0.0000        0.0000       0.000000       0.00000
   7     480.5        0.0000        0.0000        0.0000        0.0000       0.000000       0.00000
   6     533.0        0.0000        0.0000        0.0000        0.0000       0.000000       0.00000
   5     589.8        0.0000        0.0000        0.0000        0.0000       0.000000       0.00000
   4     651.6        0.0000        0.0000        0.0000        0.0000       0.000000       0.00000
   3     718.7        0.0000        0.0000        0.0000        0.0000       0.000000       0.00000
   2     792.3        0.0000        0.0000        0.0000        0.0000       0.000000       0.00000
   1     891.5        0.0000        0.0000        0.0000        0.0000       0.000000       0.00000
   0    1013.0        0.0000        0.0000        0.0000        0.0000       0.000000       0.00000



 Wavenumbers:   820. -  2600. cm-1, ATM      1
 LEVEL PRESSURE   UPWARD FLUX   DIFDOWN FLUX  DIRDOWN FLUX  DOWNWARD FLUX   NET FLUX    HEATING RATE
          mb          W/m2          W/m2          W/m2        W/m2          W/m2       degree/day
  51    .06700        0.1544        0.0000        3.8670        3.8670       3.712600       0.00000
  50    .07753        0.1544        0.0000        3.8643        3.8643       3.709883       2.17769
  49    .09103        0.1544        0.0000        3.8635        3.8635       3.709073       0.50638
  48    0.1069        0.1544        0.0000        3.8626        3.8626       3.708182       0.47415
  47    0.1255        0.1544        0.0000        3.8616        3.8616       3.707221       0.43559
  46    0.1487        0.1544        0.0000        3.8605        3.8605       3.706112       0.40437
  45    0.1794        0.1544        0.0000        3.8592        3.8592       3.704777       0.36648
  44    0.2165        0.1544        0.0000        3.8578        3.8578       3.703399       0.31346
  43    0.2613        0.1544        0.0000        3.8564        3.8564       3.701939       0.27522
  42    0.3336        0.1544        0.0000        3.8541        3.8541       3.699708       0.26012
  41    0.4307        0.1544        0.0000        3.8512        3.8512       3.696825       0.25063
  40    0.5894        0.1544        0.0000        3.8465        3.8465       3.692099       0.25134
  39     1.339        0.1544        0.0000        3.8251        3.8251       3.670724       0.24064
  38     1.782        0.1544        0.0000        3.8133        3.8133       3.658911       0.22489
  37     2.292        0.1544        0.0000        3.8003        3.8003       3.645850       0.21633
  36     2.964        0.1544        0.0000        3.7841        3.7841       3.629721       0.20247
  35     3.853        0.1544        0.0000        3.7642        3.7642       3.609807       0.18899
  34     5.035        0.1544        0.0000        3.7395        3.7395       3.585116       0.17638
  33     6.613        0.1544        0.0000        3.7090        3.7090       3.554580       0.16324
  32     8.786        0.1544        0.0000        3.6726        3.6726       3.518150       0.14148
  31     11.80        0.1544        0.0000        3.6319        3.6319       3.477508       0.11378
  30     15.07        0.1544        0.0000        3.6015        3.6015       3.447054       0.07863
  29     18.79        0.1544        0.0000        3.5775        3.5775       3.423063       0.05439
  28     23.16        0.1544        0.0000        3.5560        3.5560       3.401588       0.04153
  27     28.12        0.1544        0.0000        3.5343        3.5343       3.379892       0.03688
  26     33.73        0.1544        0.0000        3.5111        3.5111       3.356661       0.03493
  25     40.54        0.1544        0.0000        3.4838        3.4838       3.329378       0.03385
  24     48.69        0.1544        0.0000        3.4520        3.4520       3.297596       0.03289
  23     57.69        0.1544        0.0000        3.4186        3.4186       3.264118       0.03138
  22     68.43        0.1545        0.0000        3.3808        3.3808       3.226322       0.02971
  21     81.20        0.1545        0.0000        3.3393        3.3394       3.184892       0.02738
  20     96.49        0.1545        0.0000        3.2948        3.2949       3.140381       0.02457
  19     114.6        0.1545        0.0000        3.2469        3.2469       3.092406       0.02240
  18     136.5        0.1545        0.0000        3.1960        3.1960       3.041496       0.01958
  17     162.9        0.1545        0.0000        3.1440        3.1440       2.989508       0.01662
  16     196.4        0.1545        0.0000        3.0876        3.0876       2.933109       0.01420
  15     218.7        0.1545        0.0000        3.0539        3.0539       2.899345       0.01282
  14     243.0        0.1546        0.0000        3.0101        3.0101       2.855587       0.01518
  13     269.0        0.1546        0.0000        2.9536        2.9537       2.799081       0.01833
  12     297.5        0.1546        0.0000        2.8762        2.8762       2.721629       0.02297
  11     328.5        0.1547        0.0000        2.7482        2.7482       2.593526       0.03483
  10     361.9        0.1548        0.0000        2.5602        2.5602       2.405343       0.04761
   9     398.1        0.1551        0.0000        2.3333        2.3334       2.178290       0.05290
   8     437.6        0.1554        0.0000        2.1353        2.1353       1.979891       0.04242
   7     480.5        0.1559        0.0000        2.0041        2.0041       1.848252       0.02585
   6     533.0        0.1567        0.0000        1.8904        1.8905       1.733795       0.01841
   5     589.8        0.1579        0.0000        1.7647        1.7647       1.606819       0.01885
   4     651.6        0.1598        0.0000        1.6296        1.6296       1.469844       0.01873
   3     718.7        0.1627        0.0000        1.4989        1.4990       1.336256       0.01679
   2     792.3        0.1671        0.0000        1.3754        1.3754       1.208286       0.01468
   1     891.5        0.1762        0.0000        1.2167        1.2167       1.040518       0.01428
   0    1013.0        0.1953        0.0000        1.0041        1.0041       0.808816       0.01609

  Modules and versions used in this calculation:

       rrtmg_sw.1col.f90:  $Revision$                    rrtmg_sw_init.f90:  $Revision$        
     rrtmgsw_cldprop.f90:  $Revision$                  rrtmgsw_cldprmc.f90:  NOT USED          
     rrtmg_sw_reftra.f90:  $Revision$                  rrtmg_sw_spcvrt.f90:  NOT USED          
     rrtmg_sw_spcvmc.f90:  NOT USED                    rrtmgsw_setcoef.f90:  NOT USED          
     rrtmg_sw_taumol.f90:  $Revision$                  rrtmg_sw_vrtqdr.f90:  NOT USED          
                rrtatm.f:  NOT USED                             util_xxx.f:  NOT USED          
                 extra.f:  NOT USED                       rrtmg_sw_k_g.f90:  $Revision$        

