

 Wavenumbers:   820. - 50000. cm-1, ATM      1
 LEVEL PRESSURE   UPWARD FLUX   DIFDOWN FLUX  DIRDOWN FLUX  DOWNWARD FLUX   NET FLUX    HEATING RATE
          mb          W/m2          W/m2          W/m2        W/m2          W/m2       degree/day
  51    .06700      174.2849        0.0000      397.8738      397.8738     223.588920       0.00000
  50    .07753      174.2842        0.0011      397.8577      397.8589     223.574639      11.44672
  49    .09103      174.2834        0.0026      397.8418      397.8444     223.560964       8.54698
  48    0.1069      174.2826        0.0042      397.8230      397.8272     223.544635       8.69240
  47    0.1255      174.2816        0.0061      397.7997      397.8058     223.524216       9.25689
  46    0.1487      174.2804        0.0085      397.7676      397.7762     223.495793      10.36042
  45    0.1794      174.2787        0.0118      397.7205      397.7323     223.453555      11.59545
  44    0.2165      174.2769        0.0156      397.6602      397.6759     223.398979      12.41513
  43    0.2613      174.2748        0.0202      397.5829      397.6031     223.328279      13.32664
  42    0.3336      174.2715        0.0276      397.4449      397.4725     223.201023      14.83676
  41    0.4307      174.2674        0.0374      397.2524      397.2898     223.022428      15.52839
  40    0.5894      174.2612        0.0531      396.9253      396.9785     222.717231      16.22999
  39     1.339      174.2425        0.1234      395.4254      395.5487     221.306279      15.88476
  38     1.782      174.2383        0.1627      394.7288      394.8915     220.653218      12.43322
  37     2.292      174.2394        0.2074      394.0572      394.2646     220.025233      10.40108
  36     2.964      174.2497        0.2655      393.3007      393.5662     219.316533       8.89633
  35     3.853      174.2755        0.3414      392.4318      392.7732     218.497701       7.77087
  34     5.035      174.3219        0.4412      391.4441      391.8853     217.563346       6.67464
  33     6.613      174.3908        0.5734      390.3268      390.9002     216.509438       5.63420
  32     8.786      174.4788        0.7502      389.0623      389.8125     215.333636       4.56639
  31     11.80      174.5847        1.0010      387.5497      388.5507     213.966047       3.82882
  30     15.07      174.6747        1.2681      386.1550      387.4231     212.748366       3.14382
  29     18.79      174.7554        1.5673      384.7492      386.3165     211.561110       2.69187
  28     23.16      174.8254        1.9139      383.2671      385.1811     210.355656       2.33096
  27     28.12      174.8772        2.3070      381.7310      384.0380     209.160771       2.03122
  26     33.73      174.8935        2.7436      380.1955      382.9390     208.045490       1.67685
  25     40.54      174.8651        3.2670      378.5342      381.8012     206.936064       1.37637
  24     48.69      174.7848        3.8922      376.7152      380.6074     205.822628       1.15223
  23     57.69      174.6525        4.5724      374.8866      379.4590     204.806528       0.95244
  22     68.43      174.4478        5.3739      372.8858      378.2597     203.811952       0.78187
  21     81.20      174.1388        6.3183      370.7311      377.0494     202.910672       0.59555
  20     96.49      173.7120        7.4289      368.3868      375.8157     202.103661       0.44541
  19     114.6      173.1869        8.7253      365.7379      374.4633     201.276404       0.38627
  18     136.5      172.5535       10.2301      362.7409      372.9710     200.417427       0.33030
  17     162.9      171.7951       11.9781      359.3257      371.3038     199.508722       0.29046
  16     196.4      170.7912       14.1800      355.1241      369.3040     198.512821       0.25068
  15     218.7      170.1304       15.5872      352.4121      367.9993     197.868895       0.24447
  14     243.0      169.4174       17.0832      349.3563      366.4394     197.022032       0.29372
  13     269.0      168.6514       18.6661      345.8373      364.5034     195.851968       0.37956
  12     297.5      167.8328       20.3335      341.6360      361.9695     194.136618       0.50875
  11     328.5      166.9645       22.0863      336.2811      358.3674     191.402830       0.74331
  10     361.9      166.0493       23.9189      330.1041      354.0231     187.973784       0.86758
   9     398.1      165.0881       25.8310      323.1141      348.9451     183.857005       0.95912
   8     437.6      164.0857       27.8167      315.4377      343.2543     179.168618       1.00241
   7     480.5      163.0459       29.8721      307.3363      337.2085     174.162591       0.98316
   6     533.0      161.8193       32.3023      297.6330      329.9353     168.116051       0.97270
   5     589.8      160.5719       34.8068      287.3735      322.1803     161.608440       0.96594
   4     651.6      159.3258       37.3734      276.8358      314.2093     154.883508       0.91965
   3     718.7      158.1087       39.9887      266.1058      306.0945     147.985852       0.86684
   2     792.3      156.9701       42.6370      255.0794      297.7164     140.746239       0.83030
   1     891.5      155.7632       45.9759      240.9434      286.9192     131.156056       0.81608
   0    1013.0      155.0152       49.6538      225.0549      274.7087     119.693484       0.79591



 Wavenumbers:  2600. -  3250. cm-1, ATM      1
 LEVEL PRESSURE   UPWARD FLUX   DIFDOWN FLUX  DIRDOWN FLUX  DOWNWARD FLUX   NET FLUX    HEATING RATE
          mb          W/m2          W/m2          W/m2        W/m2          W/m2       degree/day
  51    .06700        0.3053        0.0000        3.5066        3.5066       3.201291       0.00000
  50    .07753        0.3053        0.0000        3.5066        3.5066       3.201283       0.00640
  49    .09103        0.3053        0.0000        3.5066        3.5066       3.201273       0.00627
  48    0.1069        0.3053        0.0000        3.5066        3.5066       3.201261       0.00613
  47    0.1255        0.3053        0.0000        3.5066        3.5066       3.201248       0.00599
  46    0.1487        0.3053        0.0000        3.5066        3.5066       3.201231       0.00607
  45    0.1794        0.3053        0.0000        3.5065        3.5065       3.201209       0.00624
  44    0.2165        0.3053        0.0000        3.5065        3.5065       3.201182       0.00611
  43    0.2613        0.3053        0.0000        3.5065        3.5065       3.201150       0.00598
  42    0.3336        0.3053        0.0000        3.5064        3.5064       3.201097       0.00615
  41    0.4307        0.3053        0.0000        3.5064        3.5064       3.201026       0.00618
  40    0.5894        0.3053        0.0000        3.5062        3.5062       3.200907       0.00633
  39     1.339        0.3053        0.0000        3.5055        3.5055       3.200208       0.00787
  38     1.782        0.3053        0.0000        3.5050        3.5050       3.199678       0.01011
  37     2.292        0.3053        0.0000        3.5043        3.5043       3.198985       0.01147
  36     2.964        0.3053        0.0000        3.5033        3.5033       3.197994       0.01245
  35     3.853        0.3053        0.0000        3.5019        3.5019       3.196617       0.01307
  34     5.035        0.3053        0.0000        3.5001        3.5001       3.194756       0.01329
  33     6.613        0.3053        0.0000        3.4977        3.4977       3.192346       0.01288
  32     8.786        0.3053        0.0000        3.4947        3.4947       3.189375       0.01154
  31     11.80        0.3053        0.0000        3.4911        3.4911       3.185740       0.01018
  30     15.07        0.3053        0.0000        3.4878        3.4878       3.182519       0.00832
  29     18.79        0.3053        0.0000        3.4848        3.4848       3.179455       0.00695
  28     23.16        0.3053        0.0000        3.4816        3.4816       3.176235       0.00623
  27     28.12        0.3053        0.0000        3.4779        3.4779       3.172617       0.00615
  26     33.73        0.3053        0.0000        3.4735        3.4735       3.168151       0.00672
  25     40.54        0.3053        0.0000        3.4671        3.4671       3.161825       0.00785
  24     48.69        0.3053        0.0000        3.4582        3.4583       3.152929       0.00921
  23     57.69        0.3053        0.0000        3.4472        3.4472       3.141881       0.01036
  22     68.43        0.3053        0.0000        3.4329        3.4329       3.127620       0.01121
  21     81.20        0.3053        0.0000        3.4152        3.4152       3.109890       0.01172
  20     96.49        0.3053        0.0000        3.3940        3.3941       3.088744       0.01167
  19     114.6        0.3053        0.0000        3.3692        3.3692       3.063860       0.01162
  18     136.5        0.3054        0.0001        3.3422        3.3422       3.036849       0.01039
  17     162.9        0.3054        0.0001        3.3140        3.3141       3.008704       0.00900
  16     196.4        0.3054        0.0001        3.2836        3.2836       2.978192       0.00768
  15     218.7        0.3055        0.0001        3.2661        3.2661       2.960659       0.00666
  14     243.0        0.3055        0.0001        3.2475        3.2476       2.942044       0.00646
  13     269.0        0.3056        0.0001        3.2258        3.2259       2.920255       0.00707
  12     297.5        0.3058        0.0001        3.1980        3.1981       2.892361       0.00827
  11     328.5        0.3060        0.0001        3.1575        3.1577       2.851645       0.01107
  10     361.9        0.3064        0.0001        3.0994        3.0995       2.793181       0.01479
   9     398.1        0.3069        0.0001        3.0171        3.0173       2.710365       0.01929
   8     437.6        0.3077        0.0001        2.9065        2.9067       2.598968       0.02382
   7     480.5        0.3088        0.0002        2.7693        2.7694       2.460628       0.02717
   6     533.0        0.3106        0.0002        2.5905        2.5907       2.280042       0.02905
   5     589.8        0.3134        0.0002        2.3956        2.3958       2.082378       0.02934
   4     651.6        0.3175        0.0002        2.1976        2.1978       1.880308       0.02763
   3     718.7        0.3234        0.0002        1.9940        1.9942       1.670747       0.02634
   2     792.3        0.3320        0.0002        1.7824        1.7826       1.450559       0.02525
   1     891.5        0.3488        0.0002        1.5225        1.5227       1.173922       0.02354
   0    1013.0        0.3821        0.0002        1.2528        1.2529       0.870787       0.02105



 Wavenumbers:  3250. -  4000. cm-1, ATM      1
 LEVEL PRESSURE   UPWARD FLUX   DIFDOWN FLUX  DIRDOWN FLUX  DOWNWARD FLUX   NET FLUX    HEATING RATE
          mb          W/m2          W/m2          W/m2        W/m2          W/m2       degree/day
  51    .06700        0.0005        0.0000        5.9117        5.9117       5.911141       0.00000
  50    .07753        0.0005        0.0000        5.9075        5.9075       5.906951       3.35808
  49    .09103        0.0005        0.0000        5.9050        5.9050       5.904508       1.52677
  48    0.1069        0.0005        0.0000        5.9032        5.9032       5.902642       0.99346
  47    0.1255        0.0005        0.0000        5.9014        5.9014       5.900884       0.79708
  46    0.1487        0.0005        0.0000        5.8995        5.8995       5.898995       0.68848
  45    0.1794        0.0005        0.0000        5.8974        5.8974       5.896846       0.58983
  44    0.2165        0.0005        0.0000        5.8952        5.8952       5.894729       0.48155
  43    0.2613        0.0005        0.0000        5.8931        5.8931       5.892570       0.40696
  42    0.3336        0.0005        0.0000        5.8899        5.8899       5.889412       0.36820
  41    0.4307        0.0005        0.0000        5.8861        5.8861       5.885575       0.33365
  40    0.5894        0.0005        0.0000        5.8803        5.8803       5.879773       0.30857
  39     1.339        0.0005        0.0000        5.8597        5.8597       5.859175       0.23189
  38     1.782        0.0005        0.0000        5.8513        5.8513       5.850750       0.16039
  37     2.292        0.0005        0.0000        5.8431        5.8431       5.842579       0.13533
  36     2.964        0.0005        0.0000        5.8334        5.8334       5.832940       0.12100
  35     3.853        0.0005        0.0000        5.8213        5.8213       5.820764       0.11555
  34     5.035        0.0005        0.0000        5.8052        5.8052       5.804669       0.11498
  33     6.613        0.0005        0.0000        5.7833        5.7834       5.782848       0.11666
  32     8.786        0.0005        0.0000        5.7531        5.7531       5.752565       0.11761
  31     11.80        0.0005        0.0000        5.7089        5.7089       5.708397       0.12366
  30     15.07        0.0005        0.0000        5.6613        5.6614       5.660867       0.12271
  29     18.79        0.0005        0.0000        5.6091        5.6091       5.608633       0.11843
  28     23.16        0.0005        0.0000        5.5521        5.5521       5.551639       0.11021
  27     28.12        0.0005        0.0000        5.4932        5.4932       5.492753       0.10010
  26     33.73        0.0005        0.0000        5.4343        5.4344       5.433923       0.08845
  25     40.54        0.0005        0.0001        5.3700        5.3700       5.369568       0.07984
  24     48.69        0.0004        0.0001        5.2974        5.2974       5.296973       0.07512
  23     57.69        0.0004        0.0001        5.2198        5.2198       5.219409       0.07270
  22     68.43        0.0004        0.0001        5.1289        5.1290       5.128601       0.07139
  21     81.20        0.0004        0.0001        5.0243        5.0244       5.024033       0.06910
  20     96.49        0.0004        0.0001        4.9082        4.9083       4.907938       0.06408
  19     114.6        0.0004        0.0001        4.7756        4.7757       4.775326       0.06192
  18     136.5        0.0003        0.0002        4.6350        4.6352       4.634838       0.05402
  17     162.9        0.0003        0.0002        4.4854        4.4856       4.485267       0.04781
  16     196.4        0.0003        0.0002        4.3102        4.3104       4.310092       0.04409
  15     218.7        0.0003        0.0002        4.1896        4.1899       4.189592       0.04575
  14     243.0        0.0002        0.0003        4.0234        4.0236       4.023375       0.05765
  13     269.0        0.0002        0.0003        3.8211        3.8214       3.821144       0.06560
  12     297.5        0.0002        0.0003        3.5531        3.5534       3.553223       0.07946
  11     328.5        0.0002        0.0003        3.1444        3.1447       3.144498       0.11113
  10     361.9        0.0001        0.0003        2.6688        2.6691       2.668950       0.12032
   9     398.1        0.0001        0.0003        2.2141        2.2144       2.214275       0.10593
   8     437.6        0.0001        0.0002        1.8156        1.8159       1.815744       0.08521
   7     480.5        0.0001        0.0002        1.4745        1.4747       1.474629       0.06699
   6     533.0        0.0001        0.0002        1.1319        1.1320       1.131959       0.05512
   5     589.8        0.0001        0.0002        0.8183        0.8185       0.818405       0.04654
   4     651.6        0.0001        0.0001        0.5439        0.5440       0.543908       0.03754
   3     718.7        0.0001        0.0001        0.3279        0.3279       0.327850       0.02715
   2     792.3        0.0001        0.0001        0.1664        0.1664       0.166278       0.01853
   1     891.5        0.0003        0.0000        0.0454        0.0454       0.045103       0.01031
   0    1013.0        0.0012        0.0000        0.0039        0.0039       0.002704       0.00294



 Wavenumbers:  4000. -  4650. cm-1, ATM      1
 LEVEL PRESSURE   UPWARD FLUX   DIFDOWN FLUX  DIRDOWN FLUX  DOWNWARD FLUX   NET FLUX    HEATING RATE
          mb          W/m2          W/m2          W/m2        W/m2          W/m2       degree/day
  51    .06700        1.2339        0.0000        6.9421        6.9421       5.708183       0.00000
  50    .07753        1.2339        0.0000        6.9421        6.9421       5.708182       0.00080
  49    .09103        1.2339        0.0000        6.9421        6.9421       5.708181       0.00078
  48    0.1069        1.2339        0.0000        6.9421        6.9421       5.708180       0.00077
  47    0.1255        1.2339        0.0000        6.9421        6.9421       5.708178       0.00075
  46    0.1487        1.2339        0.0000        6.9421        6.9421       5.708176       0.00076
  45    0.1794        1.2339        0.0000        6.9421        6.9421       5.708173       0.00078
  44    0.2165        1.2339        0.0000        6.9421        6.9421       5.708170       0.00076
  43    0.2613        1.2339        0.0000        6.9421        6.9421       5.708166       0.00075
  42    0.3336        1.2339        0.0000        6.9420        6.9420       5.708159       0.00077
  41    0.4307        1.2339        0.0000        6.9420        6.9420       5.708150       0.00078
  40    0.5894        1.2339        0.0000        6.9420        6.9420       5.708135       0.00080
  39     1.339        1.2339        0.0000        6.9419        6.9419       5.708046       0.00101
  38     1.782        1.2339        0.0000        6.9418        6.9419       5.707976       0.00133
  37     2.292        1.2339        0.0000        6.9418        6.9418       5.707881       0.00156
  36     2.964        1.2339        0.0000        6.9416        6.9416       5.707741       0.00176
  35     3.853        1.2339        0.0000        6.9414        6.9414       5.707533       0.00198
  34     5.035        1.2339        0.0000        6.9411        6.9411       5.707226       0.00219
  33     6.613        1.2339        0.0000        6.9406        6.9406       5.706775       0.00241
  32     8.786        1.2339        0.0000        6.9399        6.9400       5.706109       0.00258
  31     11.80        1.2338        0.0000        6.9389        6.9389       5.705067       0.00292
  30     15.07        1.2338        0.0001        6.9376        6.9377       5.703848       0.00315
  29     18.79        1.2338        0.0001        6.9361        6.9362       5.702378       0.00333
  28     23.16        1.2338        0.0001        6.9343        6.9344       5.700560       0.00351
  27     28.12        1.2338        0.0001        6.9321        6.9322       5.698369       0.00372
  26     33.73        1.2338        0.0001        6.9293        6.9295       5.695681       0.00404
  25     40.54        1.2338        0.0002        6.9257        6.9258       5.692055       0.00450
  24     48.69        1.2338        0.0002        6.9208        6.9210       5.687255       0.00497
  23     57.69        1.2337        0.0002        6.9151        6.9153       5.681608       0.00529
  22     68.43        1.2337        0.0003        6.9080        6.9083       5.674586       0.00552
  21     81.20        1.2337        0.0003        6.8994        6.8997       5.665999       0.00567
  20     96.49        1.2337        0.0004        6.8890        6.8893       5.655627       0.00572
  19     114.6        1.2337        0.0004        6.8759        6.8764       5.642661       0.00605
  18     136.5        1.2337        0.0005        6.8604        6.8609       5.627184       0.00595
  17     162.9        1.2337        0.0006        6.8417        6.8423       5.608602       0.00594
  16     196.4        1.2338        0.0007        6.8172        6.8179       5.584116       0.00616
  15     218.7        1.2339        0.0008        6.8004        6.8012       5.567280       0.00639
  14     243.0        1.2340        0.0009        6.7805        6.7814       5.547419       0.00689
  13     269.0        1.2342        0.0010        6.7564        6.7574       5.523219       0.00785
  12     297.5        1.2345        0.0011        6.7261        6.7272       5.492687       0.00906
  11     328.5        1.2351        0.0012        6.6836        6.6848       5.449740       0.01168
  10     361.9        1.2359        0.0013        6.6246        6.6259       5.389983       0.01512
   9     398.1        1.2371        0.0014        6.5425        6.5439       5.306778       0.01938
   8     437.6        1.2387        0.0016        6.4365        6.4381       5.199391       0.02296
   7     480.5        1.2407        0.0017        6.3128        6.3145       5.073791       0.02467
   6     533.0        1.2438        0.0018        6.1571        6.1590       4.915161       0.02552
   5     589.8        1.2482        0.0020        5.9754        5.9774       4.729195       0.02760
   4     651.6        1.2546        0.0021        5.7522        5.7544       4.499729       0.03138
   3     718.7        1.2639        0.0023        5.4867        5.4890       4.225132       0.03451
   2     792.3        1.2774        0.0024        5.1976        5.2001       3.922657       0.03469
   1     891.5        1.3037        0.0026        4.8390        4.8416       3.537876       0.03274
   0    1013.0        1.3559        0.0027        4.4429        4.4456       3.089714       0.03112



 Wavenumbers:  4650. -  5150. cm-1, ATM      1
 LEVEL PRESSURE   UPWARD FLUX   DIFDOWN FLUX  DIRDOWN FLUX  DOWNWARD FLUX   NET FLUX    HEATING RATE
          mb          W/m2          W/m2          W/m2        W/m2          W/m2       degree/day
  51    .06700        0.8376        0.0000        6.5710        6.5710       5.733409       0.00000
  50    .07753        0.8376        0.0000        6.5708        6.5708       5.733174       0.18861
  49    .09103        0.8376        0.0000        6.5705        6.5705       5.732880       0.18337
  48    0.1069        0.8376        0.0000        6.5701        6.5701       5.732546       0.17782
  47    0.1255        0.8376        0.0000        6.5698        6.5698       5.732167       0.17215
  46    0.1487        0.8376        0.0000        6.5693        6.5693       5.731694       0.17245
  45    0.1794        0.8376        0.0000        6.5686        6.5686       5.731058       0.17450
  44    0.2165        0.8376        0.0000        6.5679        6.5679       5.730321       0.16765
  43    0.2613        0.8376        0.0000        6.5671        6.5671       5.729469       0.16056
  42    0.3336        0.8376        0.0000        6.5657        6.5657       5.728108       0.15872
  41    0.4307        0.8376        0.0000        6.5640        6.5640       5.726388       0.14950
  40    0.5894        0.8376        0.0000        6.5614        6.5614       5.723776       0.13894
  39     1.339        0.8376        0.0000        6.5516        6.5516       5.714012       0.10993
  38     1.782        0.8376        0.0000        6.5474        6.5474       5.709802       0.08015
  37     2.292        0.8376        0.0000        6.5435        6.5435       5.705920       0.06429
  36     2.964        0.8376        0.0000        6.5395        6.5395       5.701972       0.04957
  35     3.853        0.8376        0.0000        6.5356        6.5356       5.698034       0.03736
  34     5.035        0.8376        0.0000        6.5316        6.5316       5.694038       0.02855
  33     6.613        0.8376        0.0000        6.5272        6.5272       5.689651       0.02346
  32     8.786        0.8375        0.0001        6.5217        6.5217       5.684164       0.02131
  31     11.80        0.8375        0.0001        6.5136        6.5136       5.676098       0.02258
  30     15.07        0.8375        0.0001        6.5042        6.5043       5.666744       0.02415
  29     18.79        0.8375        0.0001        6.4926        6.4927       5.655245       0.02607
  28     23.16        0.8375        0.0001        6.4780        6.4782       5.640676       0.02817
  27     28.12        0.8375        0.0002        6.4600        6.4602       5.622728       0.03051
  26     33.73        0.8375        0.0002        6.4386        6.4388       5.601329       0.03217
  25     40.54        0.8374        0.0002        6.4115        6.4117       5.574246       0.03360
  24     48.69        0.8374        0.0003        6.3778        6.3781       5.540660       0.03476
  23     57.69        0.8374        0.0003        6.3407        6.3410       5.503625       0.03471
  22     68.43        0.8374        0.0004        6.2975        6.2979       5.460502       0.03390
  21     81.20        0.8374        0.0005        6.2487        6.2492       5.411763       0.03221
  20     96.49        0.8374        0.0005        6.1954        6.1959       5.358475       0.02941
  19     114.6        0.8375        0.0006        6.1388        6.1394       5.301931       0.02640
  18     136.5        0.8375        0.0007        6.0797        6.0805       5.242951       0.02268
  17     162.9        0.8376        0.0009        6.0171        6.0179       5.180313       0.02002
  16     196.4        0.8378        0.0010        5.9418        5.9429       5.105038       0.01895
  15     218.7        0.8380        0.0012        5.8929        5.8941       5.056080       0.01859
  14     243.0        0.8382        0.0013        5.8384        5.8397       5.001494       0.01893
  13     269.0        0.8385        0.0014        5.7769        5.7783       4.939814       0.02001
  12     297.5        0.8389        0.0015        5.7059        5.7074       4.868483       0.02116
  11     328.5        0.8395        0.0017        5.6198        5.6214       4.781891       0.02354
  10     361.9        0.8405        0.0018        5.5153        5.5171       4.676645       0.02663
   9     398.1        0.8418        0.0020        5.3905        5.3925       4.550750       0.02933
   8     437.6        0.8435        0.0021        5.2441        5.2462       4.402699       0.03165
   7     480.5        0.8459        0.0023        5.0760        5.0783       4.232374       0.03345
   6     533.0        0.8496        0.0024        4.8599        4.8623       4.012729       0.03533
   5     589.8        0.8548        0.0026        4.6209        4.6235       3.768694       0.03622
   4     651.6        0.8621        0.0027        4.3681        4.3709       3.508746       0.03555
   3     718.7        0.8724        0.0029        4.1088        4.1117       3.239363       0.03385
   2     792.3        0.8868        0.0030        3.8442        3.8472       2.960373       0.03200
   1     891.5        0.9132        0.0031        3.5137        3.5168       2.603566       0.03036
   0    1013.0        0.9617        0.0033        3.1498        3.1530       2.191365       0.02862



 Wavenumbers:  5150. -  6150. cm-1, ATM      1
 LEVEL PRESSURE   UPWARD FLUX   DIFDOWN FLUX  DIRDOWN FLUX  DOWNWARD FLUX   NET FLUX    HEATING RATE
          mb          W/m2          W/m2          W/m2        W/m2          W/m2       degree/day
  51    .06700        2.2228        0.0000       16.4735       16.4735      14.250702       0.00000
  50    .07753        2.2228        0.0000       16.4735       16.4735      14.250667       0.02761
  49    .09103        2.2228        0.0000       16.4734       16.4734      14.250622       0.02811
  48    0.1069        2.2228        0.0000       16.4734       16.4734      14.250569       0.02859
  47    0.1255        2.2228        0.0000       16.4733       16.4733      14.250505       0.02904
  46    0.1487        2.2228        0.0000       16.4732       16.4732      14.250421       0.03060
  45    0.1794        2.2228        0.0000       16.4731       16.4731      14.250302       0.03269
  44    0.2165        2.2228        0.0000       16.4730       16.4730      14.250155       0.03331
  43    0.2613        2.2228        0.0000       16.4728       16.4728      14.249976       0.03376
  42    0.3336        2.2228        0.0000       16.4725       16.4725      14.249670       0.03564
  41    0.4307        2.2228        0.0000       16.4720       16.4720      14.249251       0.03646
  40    0.5894        2.2228        0.0000       16.4713       16.4713      14.248550       0.03729
  39     1.339        2.2228        0.0000       16.4679       16.4679      14.245141       0.03838
  38     1.782        2.2228        0.0000       16.4659       16.4659      14.243141       0.03807
  37     2.292        2.2228        0.0001       16.4635       16.4636      14.240849       0.03796
  36     2.964        2.2227        0.0001       16.4605       16.4606      14.237880       0.03728
  35     3.853        2.2227        0.0001       16.4567       16.4568      14.234026       0.03658
  34     5.035        2.2227        0.0001       16.4516       16.4517      14.229028       0.03570
  33     6.613        2.2227        0.0002       16.4451       16.4452      14.222565       0.03455
  32     8.786        2.2226        0.0002       16.4366       16.4369      14.214232       0.03236
  31     11.80        2.2226        0.0003       16.4253       16.4256      14.203030       0.03136
  30     15.07        2.2225        0.0004       16.4140       16.4144      14.191853       0.02886
  29     18.79        2.2224        0.0005       16.4022       16.4027      14.180214       0.02639
  28     23.16        2.2224        0.0006       16.3896       16.3902      14.167818       0.02397
  27     28.12        2.2223        0.0007       16.3766       16.3773      14.155012       0.02177
  26     33.73        2.2222        0.0009       16.3634       16.3643      14.142115       0.01939
  25     40.54        2.2221        0.0011       16.3492       16.3502      14.128149       0.01733
  24     48.69        2.2220        0.0013       16.3339       16.3352      14.113213       0.01546
  23     57.69        2.2218        0.0015       16.3191       16.3206      14.098759       0.01355
  22     68.43        2.2217        0.0018       16.3034       16.3052      14.083494       0.01200
  21     81.20        2.2215        0.0021       16.2868       16.2889      14.067385       0.01064
  20     96.49        2.2214        0.0025       16.2692       16.2717      14.050314       0.00942
  19     114.6        2.2211        0.0030       16.2496       16.2526      14.031432       0.00882
  18     136.5        2.2209        0.0035       16.2269       16.2305      14.009597       0.00840
  17     162.9        2.2206        0.0042       16.1993       16.2035      13.982899       0.00853
  16     196.4        2.2202        0.0051       16.1566       16.1617      13.941445       0.01043
  15     218.7        2.2200        0.0056       16.1111       16.1167      13.896710       0.01698
  14     243.0        2.2197        0.0062       16.0126       16.0189      13.799129       0.03384
  13     269.0        2.2195        0.0068       15.8147       15.8216      13.602091       0.06392
  12     297.5        2.2193        0.0074       15.4731       15.4805      13.261257       0.10109
  11     328.5        2.2191        0.0080       14.9373       14.9453      12.726204       0.14548
  10     361.9        2.2191        0.0085       14.2926       14.3011      12.082034       0.16298
   9     398.1        2.2192        0.0090       13.4966       13.5056      11.286371       0.18537
   8     437.6        2.2196        0.0094       12.6404       12.6497      10.430147       0.18307
   7     480.5        2.2203        0.0097       11.8029       11.8126       9.592284       0.16455
   6     533.0        2.2218        0.0100       10.9310       10.9411       8.719296       0.14044
   5     589.8        2.2244        0.0104       10.1888       10.1992       7.974730       0.11052
   4     651.6        2.2289        0.0108        9.6117        9.6225       7.393609       0.07947
   3     718.7        2.2362        0.0114        9.1583        9.1697       6.933517       0.05782
   2     792.3        2.2480        0.0120        8.7458        8.7578       6.509803       0.04860
   1     891.5        2.2737        0.0128        8.2120        8.2248       5.951046       0.04755
   0    1013.0        2.3343        0.0137        7.6399        7.6536       5.319255       0.04387



 Wavenumbers:  6150. -  7700. cm-1, ATM      1
 LEVEL PRESSURE   UPWARD FLUX   DIFDOWN FLUX  DIRDOWN FLUX  DOWNWARD FLUX   NET FLUX    HEATING RATE
          mb          W/m2          W/m2          W/m2        W/m2          W/m2       degree/day
  51    .06700        3.3505        0.0000       30.4684       30.4684      27.117904       0.00000
  50    .07753        3.3505        0.0000       30.4683       30.4683      27.117852       0.04144
  49    .09103        3.3505        0.0000       30.4683       30.4683      27.117785       0.04173
  48    0.1069        3.3505        0.0000       30.4682       30.4682      27.117706       0.04202
  47    0.1255        3.3505        0.0000       30.4681       30.4681      27.117613       0.04227
  46    0.1487        3.3505        0.0000       30.4680       30.4680      27.117492       0.04411
  45    0.1794        3.3505        0.0000       30.4678       30.4678      27.117322       0.04669
  44    0.2165        3.3505        0.0000       30.4676       30.4676      27.117115       0.04715
  43    0.2613        3.3505        0.0000       30.4673       30.4673      27.116863       0.04744
  42    0.3336        3.3504        0.0000       30.4669       30.4669      27.116437       0.04974
  41    0.4307        3.3504        0.0000       30.4663       30.4663      27.115855       0.05052
  40    0.5894        3.3504        0.0001       30.4653       30.4653      27.114888       0.05146
  39     1.339        3.3503        0.0001       30.4604       30.4606      27.110204       0.05273
  38     1.782        3.3503        0.0002       30.4576       30.4578      27.107455       0.05235
  37     2.292        3.3503        0.0002       30.4543       30.4546      27.104296       0.05231
  36     2.964        3.3502        0.0003       30.4501       30.4504      27.100189       0.05156
  35     3.853        3.3501        0.0004       30.4445       30.4449      27.094832       0.05084
  34     5.035        3.3500        0.0005       30.4373       30.4378      27.087833       0.05000
  33     6.613        3.3498        0.0007       30.4278       30.4285      27.078686       0.04890
  32     8.786        3.3496        0.0010       30.4154       30.4163      27.066712       0.04650
  31     11.80        3.3493        0.0013       30.3983       30.3996      27.050253       0.04608
  30     15.07        3.3490        0.0017       30.3808       30.3824      27.033425       0.04345
  29     18.79        3.3486        0.0021       30.3620       30.3640      27.015431       0.04080
  28     23.16        3.3482        0.0025       30.3412       30.3438      26.995575       0.03839
  27     28.12        3.3477        0.0031       30.3189       30.3220      26.974322       0.03613
  26     33.73        3.3471        0.0037       30.2956       30.2993      26.952107       0.03340
  25     40.54        3.3465        0.0044       30.2693       30.2737      26.927252       0.03084
  24     48.69        3.3457        0.0053       30.2401       30.2454      26.899720       0.02849
  23     57.69        3.3448        0.0063       30.2107       30.2169      26.872145       0.02585
  22     68.43        3.3437        0.0075       30.1785       30.1860      26.842234       0.02351
  21     81.20        3.3425        0.0088       30.1437       30.1526      26.810066       0.02126
  20     96.49        3.3410        0.0105       30.1062       30.1167      26.775680       0.01898
  19     114.6        3.3392        0.0125       30.0647       30.0771      26.737902       0.01764
  18     136.5        3.3371        0.0148       30.0175       30.0323      26.695143       0.01644
  17     162.9        3.3346        0.0176       29.9614       29.9790      26.644367       0.01623
  16     196.4        3.3314        0.0212       29.8799       29.9011      26.569752       0.01878
  15     218.7        3.3292        0.0235       29.8030       29.8266      26.497332       0.02750
  14     243.0        3.3269        0.0260       29.6606       29.6866      26.359713       0.04773
  13     269.0        3.3245        0.0287       29.3974       29.4261      26.101619       0.08372
  12     297.5        3.3220        0.0314       28.9190       28.9504      25.628434       0.14034
  11     328.5        3.3194        0.0339       28.0351       28.0690      24.749537       0.23897
  10     361.9        3.3170        0.0361       26.9237       26.9598      23.642786       0.28002
   9     398.1        3.3150        0.0382       25.6005       25.6388      22.323767       0.30730
   8     437.6        3.3135        0.0400       24.0710       24.1111      20.797527       0.32632
   7     480.5        3.3130        0.0415       22.4856       22.5271      19.214115       0.31098
   6     533.0        3.3142        0.0429       20.6979       20.7408      17.426630       0.28755
   5     589.8        3.3188        0.0440       18.9639       19.0079      15.689145       0.25790
   4     651.6        3.3286        0.0450       17.3772       17.4222      14.093638       0.21819
   3     718.7        3.3465        0.0460       15.9419       15.9878      12.641315       0.18252
   2     792.3        3.3773        0.0469       14.6385       14.6854      11.308169       0.15290
   1     891.5        3.4458        0.0481       13.1935       13.2417       9.795859       0.12869
   0    1013.0        3.6035        0.0494       11.7655       11.8149       8.211360       0.11002



 Wavenumbers:  7700. -  8050. cm-1, ATM      1
 LEVEL PRESSURE   UPWARD FLUX   DIFDOWN FLUX  DIRDOWN FLUX  DOWNWARD FLUX   NET FLUX    HEATING RATE
          mb          W/m2          W/m2          W/m2        W/m2          W/m2       degree/day
  51    .06700        1.6818        0.0000        7.2006        7.2006       5.518775       0.00000
  50    .07753        1.6818        0.0000        7.2006        7.2006       5.518756       0.01507
  49    .09103        1.6818        0.0000        7.2005        7.2005       5.518733       0.01477
  48    0.1069        1.6818        0.0000        7.2005        7.2005       5.518705       0.01446
  47    0.1255        1.6818        0.0000        7.2005        7.2005       5.518674       0.01415
  46    0.1487        1.6818        0.0000        7.2004        7.2005       5.518635       0.01436
  45    0.1794        1.6818        0.0000        7.2004        7.2004       5.518581       0.01478
  44    0.2165        1.6818        0.0000        7.2003        7.2003       5.518517       0.01450
  43    0.2613        1.6818        0.0000        7.2003        7.2003       5.518442       0.01422
  42    0.3336        1.6818        0.0000        7.2001        7.2001       5.518317       0.01455
  41    0.4307        1.6818        0.0000        7.2000        7.2000       5.518151       0.01439
  40    0.5894        1.6818        0.0000        7.1997        7.1997       5.517881       0.01438
  39     1.339        1.6819        0.0001        7.1984        7.1985       5.516602       0.01439
  38     1.782        1.6819        0.0001        7.1977        7.1978       5.515852       0.01429
  37     2.292        1.6819        0.0001        7.1968        7.1969       5.514983       0.01439
  36     2.964        1.6820        0.0001        7.1957        7.1958       5.513843       0.01431
  35     3.853        1.6820        0.0002        7.1942        7.1944       5.512337       0.01429
  34     5.035        1.6821        0.0002        7.1922        7.1925       5.510339       0.01428
  33     6.613        1.6822        0.0003        7.1896        7.1899       5.507672       0.01426
  32     8.786        1.6823        0.0004        7.1860        7.1864       5.504084       0.01394
  31     11.80        1.6825        0.0005        7.1810        7.1815       5.498962       0.01434
  30     15.07        1.6827        0.0007        7.1755        7.1762       5.493479       0.01416
  29     18.79        1.6830        0.0008        7.1694        7.1703       5.487305       0.01400
  28     23.16        1.6832        0.0010        7.1623        7.1634       5.480121       0.01389
  27     28.12        1.6836        0.0013        7.1542        7.1555       5.471943       0.01390
  26     33.73        1.6839        0.0015        7.1452        7.1467       5.462839       0.01369
  25     40.54        1.6843        0.0018        7.1344        7.1362       5.451906       0.01356
  24     48.69        1.6848        0.0022        7.1215        7.1237       5.438824       0.01354
  23     57.69        1.6854        0.0026        7.1074        7.1100       5.424577       0.01335
  22     68.43        1.6861        0.0030        7.0909        7.0939       5.407775       0.01321
  21     81.20        1.6869        0.0036        7.0713        7.0749       5.387990       0.01307
  20     96.49        1.6879        0.0042        7.0484        7.0527       5.364738       0.01283
  19     114.6        1.6891        0.0050        7.0217        7.0267       5.337570       0.01269
  18     136.5        1.6906        0.0060        6.9906        6.9965       5.305964       0.01215
  17     162.9        1.6923        0.0071        6.9544        6.9615       5.269122       0.01178
  16     196.4        1.6947        0.0085        6.9087        6.9172       5.222567       0.01172
  15     218.7        1.6962        0.0094        6.8795        6.8889       5.192649       0.01136
  14     243.0        1.6980        0.0104        6.8482        6.8586       5.160680       0.01109
  13     269.0        1.6999        0.0115        6.8150        6.8265       5.126627       0.01105
  12     297.5        1.7020        0.0127        6.7797        6.7924       5.090384       0.01075
  11     328.5        1.7043        0.0140        6.7422        6.7561       5.051770       0.01050
  10     361.9        1.7070        0.0153        6.7023        6.7176       5.010595       0.01042
   9     398.1        1.7099        0.0168        6.6597        6.6764       4.966510       0.01027
   8     437.6        1.7133        0.0183        6.6141        6.6324       4.919079       0.01014
   7     480.5        1.7172        0.0200        6.5651        6.5850       4.867833       0.01006
   6     533.0        1.7223        0.0220        6.5041        6.5261       4.803786       0.01030
   5     589.8        1.7285        0.0242        6.4367        6.4609       4.732371       0.01060
   4     651.6        1.7359        0.0265        6.3618        6.3882       4.652311       0.01095
   3     718.7        1.7450        0.0289        6.2776        6.3065       4.561534       0.01141
   2     792.3        1.7560        0.0315        6.1825        6.2140       4.457947       0.01188
   1     891.5        1.7737        0.0349        6.0449        6.0798       4.306111       0.01292
   0    1013.0        1.8000        0.0388        5.8629        5.9017       4.101711       0.01419



 Wavenumbers:  8050. - 12850. cm-1, ATM      1
 LEVEL PRESSURE   UPWARD FLUX   DIFDOWN FLUX  DIRDOWN FLUX  DOWNWARD FLUX   NET FLUX    HEATING RATE
          mb          W/m2          W/m2          W/m2        W/m2          W/m2       degree/day
  51    .06700       22.3468        0.0000      100.8135      100.8135      78.466678       0.00000
  50    .07753       22.3468        0.0000      100.8135      100.8135      78.466678       0.00000
  49    .09103       22.3468        0.0001      100.8134      100.8135      78.466678      -0.00000
  48    0.1069       22.3468        0.0001      100.8134      100.8134      78.466678       0.00000
  47    0.1255       22.3467        0.0001      100.8133      100.8134      78.466678      -0.00000
  46    0.1487       22.3467        0.0002      100.8132      100.8134      78.466678       0.00000
  45    0.1794       22.3466        0.0002      100.8131      100.8133      78.466678       0.00000
  44    0.2165       22.3466        0.0003      100.8129      100.8132      78.466678       0.00000
  43    0.2613       22.3465        0.0004      100.8127      100.8132      78.466678       0.00000
  42    0.3336       22.3464        0.0006      100.8125      100.8130      78.466678       0.00000
  41    0.4307       22.3462        0.0008      100.8121      100.8129      78.466678      -0.00000
  40    0.5894       22.3459        0.0011      100.8115      100.8126      78.466678       0.00000
  39     1.339       22.3446        0.0028      100.8085      100.8113      78.466678       0.00000
  38     1.782       22.3438        0.0037      100.8068      100.8105      78.466678       0.00000
  37     2.292       22.3429        0.0048      100.8047      100.8096      78.466678       0.00000
  36     2.964       22.3417        0.0063      100.8021      100.8084      78.466678       0.00000
  35     3.853       22.3402        0.0082      100.7986      100.8068      78.466678      -0.00000
  34     5.035       22.3381        0.0108      100.7940      100.8048      78.466678       0.00000
  33     6.613       22.3353        0.0142      100.7878      100.8020      78.466678       0.00000
  32     8.786       22.3316        0.0188      100.7794      100.7982      78.466678      -0.00000
  31     11.80       22.3262        0.0254      100.7674      100.7929      78.466678       0.00000
  30     15.07       22.3204        0.0326      100.7546      100.7871      78.466678       0.00000
  29     18.79       22.3139        0.0406      100.7400      100.7806      78.466678      -0.00000
  28     23.16       22.3063        0.0500      100.7230      100.7730      78.466678       0.00000
  27     28.12       22.2976        0.0608      100.7035      100.7642      78.466678      -0.00000
  26     33.73       22.2878        0.0728      100.6817      100.7545      78.466678       0.00000
  25     40.54       22.2759        0.0874      100.6552      100.7426      78.466678      -0.00000
  24     48.69       22.2617        0.1050      100.6234      100.7283      78.466678      -0.00000
  23     57.69       22.2459        0.1243      100.5883      100.7126      78.466678       0.00000
  22     68.43       22.2272        0.1474      100.5464      100.6939      78.466678       0.00000
  21     81.20       22.2048        0.1750      100.4965      100.6715      78.466678       0.00000
  20     96.49       22.1781        0.2078      100.4370      100.6448      78.466678       0.00000
  19     114.6       22.1464        0.2469      100.3587      100.6056      78.459228       0.00348
  18     136.5       22.1087        0.2933      100.2659      100.5592      78.450490       0.00336
  17     162.9       22.0637        0.3486      100.1549      100.5035      78.439790       0.00342
  16     196.4       22.0052        0.4206      100.0076      100.4282      78.422995       0.00423
  15     218.7       21.9667        0.4679       99.9030      100.3708      78.404176       0.00715
  14     243.0       21.9247        0.5193       99.7669      100.2862      78.361448       0.01482
  13     269.0       21.8793        0.5751       99.5755      100.1506      78.271311       0.02924
  12     297.5       21.8303        0.6352       99.2916       99.9268      78.096482       0.05185
  11     328.5       21.7781        0.6997       98.8222       99.5219      77.743852       0.09588
  10     361.9       21.7229        0.7685       98.1801       98.9485      77.225643       0.13111
   9     398.1       21.6655        0.8416       97.3132       98.1548      76.489270       0.17156
   8     437.6       21.6070        0.9186       96.1582       97.0768      75.469803       0.21797
   7     480.5       21.5489        0.9992       94.7033       95.7025      74.153549       0.25851
   6     533.0       21.4860        1.0951       92.6539       93.7489      72.262906       0.30414
   5     589.8       21.4335        1.1936       90.1287       91.3223      69.888845       0.35239
   4     651.6       21.3993        1.2941       87.2571       88.5513      67.152031       0.37427
   3     718.7       21.3953        1.3963       84.1081       85.5044      64.109100       0.38241
   2     792.3       21.4419        1.4989       80.6630       82.1619      60.719975       0.38869
   1     891.5       21.6185        1.6261       76.0418       77.6679      56.049359       0.39745
   0    1013.0       22.1113        1.7614       70.7345       72.4959      50.384672       0.39333



 Wavenumbers: 12850. - 16000. cm-1, ATM      1
 LEVEL PRESSURE   UPWARD FLUX   DIFDOWN FLUX  DIRDOWN FLUX  DOWNWARD FLUX   NET FLUX    HEATING RATE
          mb          W/m2          W/m2          W/m2        W/m2          W/m2       degree/day
  51    .06700       30.8581        0.0000       63.1686       63.1686      32.310488       0.00000
  50    .07753       30.8581        0.0001       63.1677       63.1678      32.309709       0.62410
  49    .09103       30.8580        0.0001       63.1666       63.1668      32.308739       0.60640
  48    0.1069       30.8580        0.0002       63.1654       63.1656      32.307634       0.58789
  47    0.1255       30.8579        0.0003       63.1640       63.1643      32.306379       0.56929
  46    0.1487       30.8579        0.0004       63.1623       63.1627      32.304813       0.57066
  45    0.1794       30.8578        0.0006       63.1600       63.1605      32.302714       0.57610
  44    0.2165       30.8578        0.0008       63.1573       63.1581      32.300289       0.55178
  43    0.2613       30.8577        0.0010       63.1542       63.1552      32.297493       0.52708
  42    0.3336       30.8576        0.0014       63.1493       63.1506      32.293041       0.51903
  41    0.4307       30.8575        0.0018       63.1431       63.1450      32.287479       0.48362
  40    0.5894       30.8574        0.0026       63.1338       63.1365      32.279066       0.44739
  39     1.339       30.8581        0.0064       63.0956       63.1020      32.243931       0.39556
  38     1.782       30.8593        0.0086       63.0740       63.0827      32.223378       0.39129
  37     2.292       30.8615        0.0112       63.0477       63.0589      32.197387       0.43047
  36     2.964       30.8656        0.0146       63.0095       63.0241      32.158543       0.48761
  35     3.853       30.8726        0.0190       62.9533       62.9723      32.099658       0.55883
  34     5.035       30.8837        0.0250       62.8725       62.8975      32.013770       0.61354
  33     6.613       30.8993        0.0328       62.7621       62.7949      31.895616       0.63165
  32     8.786       30.9194        0.0434       62.6182       62.6617      31.742268       0.59555
  31     11.80       30.9450        0.0586       62.4284       62.4869      31.541971       0.56077
  30     15.07       30.9686        0.0748       62.2426       62.3174      31.348805       0.49872
  29     18.79       30.9918        0.0930       62.0493       62.1423      31.150492       0.44964
  28     23.16       31.0151        0.1143       61.8424       61.9567      30.941686       0.40376
  27     28.12       31.0370        0.1386       61.6278       61.7664      30.729355       0.36095
  26     33.73       31.0550        0.1657       61.4177       61.5833      30.528306       0.30228
  25     40.54       31.0692        0.1983       61.1983       61.3966      30.327475       0.24915
  24     48.69       31.0788        0.2377       60.9680       61.2057      30.126831       0.20763
  23     57.69       31.0823        0.2808       60.7478       61.0286      29.946332       0.16919
  22     68.43       31.0787        0.3321       60.5202       60.8523      29.773671       0.13573
  21     81.20       31.0637        0.3932       60.2938       60.6871      29.623341       0.09934
  20     96.49       31.0362        0.4660       60.0643       60.5303      29.494141       0.07131
  19     114.6       31.0038        0.5529       59.8078       60.3607      29.356881       0.06409
  18     136.5       30.9610        0.6556       59.5158       60.1713      29.210372       0.05634
  17     162.9       30.9059        0.7776       59.1773       59.9549      29.048923       0.05161
  16     196.4       30.8260        0.9353       58.7613       59.6966      28.870641       0.04488
  15     218.7       30.7703        1.0386       58.4967       59.5353      28.764949       0.04013
  14     243.0       30.7084        1.1506       58.2130       59.3636      28.655106       0.03810
  13     269.0       30.6399        1.2717       57.9102       59.1819      28.541966       0.03670
  12     297.5       30.5646        1.4022       57.5871       58.9893      28.424672       0.03479
  11     328.5       30.4830        1.5428       57.2375       58.7804      28.297325       0.03463
  10     361.9       30.3953        1.6938       56.8579       58.5517      28.156383       0.03566
   9     398.1       30.3017        1.8557       56.4424       58.2981      27.996398       0.03727
   8     437.6       30.2030        2.0289       55.9833       58.0122      27.809213       0.04002
   7     480.5       30.1000        2.2136       55.4739       57.6875      27.587540       0.04354
   6     533.0       29.9786        2.4394       54.8166       57.2560      27.277362       0.04990
   5     589.8       29.8581        2.6804       54.0593       56.7397      26.881554       0.05875
   4     651.6       29.7434        2.9363       53.1919       56.1282      26.384849       0.06793
   3     718.7       29.6385        3.2062       52.2214       55.4276      25.789126       0.07487
   2     792.3       29.5538        3.4883       51.1400       54.6283      25.074525       0.08196
   1     891.5       29.4980        3.8564       49.6200       53.4764      23.978409       0.09327
   0    1013.0       29.5438        4.2786       47.7260       52.0046      22.460780       0.10538



 Wavenumbers: 16000. - 22650. cm-1, ATM      1
 LEVEL PRESSURE   UPWARD FLUX   DIFDOWN FLUX  DIRDOWN FLUX  DOWNWARD FLUX   NET FLUX    HEATING RATE
          mb          W/m2          W/m2          W/m2        W/m2          W/m2       degree/day
  51    .06700       74.0341        0.0000      100.7153      100.7153      26.681160       0.00000
  50    .07753       74.0340        0.0003      100.7147      100.7151      26.681044       0.09329
  49    .09103       74.0339        0.0007      100.7140      100.7147      26.680875       0.10581
  48    0.1069       74.0337        0.0012      100.7131      100.7143      26.680648       0.12066
  47    0.1255       74.0335        0.0017      100.7121      100.7138      26.680345       0.13753
  46    0.1487       74.0333        0.0024      100.7108      100.7132      26.679897       0.16297
  45    0.1794       74.0330        0.0033      100.7089      100.7122      26.679198       0.19189
  44    0.2165       74.0327        0.0044      100.7066      100.7110      26.678250       0.21566
  43    0.2613       74.0325        0.0057      100.7037      100.7094      26.676964       0.24245
  42    0.3336       74.0321        0.0079      100.6987      100.7066      26.674519       0.28511
  41    0.4307       74.0317        0.0108      100.6918      100.7025      26.670833       0.32049
  40    0.5894       74.0314        0.0154      100.6797      100.6952      26.663803       0.37382
  39     1.339       74.0351        0.0375      100.6095      100.6470      26.611879       0.58457
  38     1.782       74.0413        0.0505      100.5585      100.6089      26.567659       0.84187
  37     2.292       74.0521        0.0655      100.4903      100.5557      26.503672       1.05980
  36     2.964       74.0719        0.0852      100.3868      100.4719      26.400061       1.30063
  35     3.853       74.1059        0.1111      100.2306      100.3417      26.235778       1.55908
  34     5.035       74.1591        0.1456      100.0045      100.1500      25.990954       1.74893
  33     6.613       74.2341        0.1915       99.6939       99.8853      25.651254       1.81603
  32     8.786       74.3311        0.2532       99.2881       99.5412      25.210159       1.71305
  31     11.80       74.4545        0.3412       98.7496       99.0908      24.636234       1.60681
  30     15.07       74.5693        0.4353       98.2198       98.6551      24.085848       1.42099
  29     18.79       74.6829        0.5413       97.6651       98.2064      23.523514       1.27498
  28     23.16       74.7971        0.6646       97.0671       97.7317      22.934590       1.13879
  27     28.12       74.9062        0.8051       96.4406       97.2456      22.339385       1.01181
  26     33.73       74.9974        0.9617       95.8179       96.7796      21.782247       0.83767
  25     40.54       75.0717        1.1503       95.1548       96.3052      21.233510       0.68077
  24     48.69       75.1266        1.3768       94.4420       95.8188      20.692219       0.56015
  23     57.69       75.1535        1.6246       93.7416       95.3662      20.212694       0.44948
  22     68.43       75.1497        1.9185       92.9954       94.9138      19.764150       0.35262
  21     81.20       75.0959        2.2672       92.2231       94.4903      19.394422       0.24431
  20     96.49       74.9864        2.6807       91.4110       94.0917      19.105291       0.15958
  19     114.6       74.8341        3.1683       90.5070       93.6753      18.841204       0.12331
  18     136.5       74.6392        3.7413       89.4803       93.2216      18.582421       0.09951
  17     162.9       74.3947        4.4168       88.3022       92.7191      18.324343       0.08249
  16     196.4       74.0498        5.2825       86.8608       92.1433      18.093467       0.05811
  15     218.7       73.8140        5.8448       85.9495       91.7943      17.980351       0.04295
  14     243.0       73.5541        6.4503       84.9796       91.4300      17.875880       0.03623
  13     269.0       73.2690        7.1001       83.9509       91.0510      17.781981       0.03046
  12     297.5       72.9580        7.7947       82.8624       90.6571      17.699111       0.02458
  11     328.5       72.6222        8.5367       81.7046       90.2413      17.619016       0.02178
  10     361.9       72.2616        9.3256       80.4776       89.8032      17.541582       0.01959
   9     398.1       71.8752       10.1635       79.1776       89.3411      17.465855       0.01764
   8     437.6       71.4632       11.0504       77.8022       88.8527      17.389452       0.01634
   7     480.5       71.0253       11.9867       76.3505       88.3372      17.311839       0.01524
   6     533.0       70.4926       13.1190       74.5921       87.7111      17.218471       0.01502
   5     589.8       69.9277       14.3150       72.7266       87.0416      17.113879       0.01552
   4     651.6       69.3324       15.5729       70.7530       86.3259      16.993534       0.01646
   3     718.7       68.7083       16.8904       68.6703       85.5608      16.852469       0.01773
   2     792.3       68.0606       18.2626       66.4782       84.7409      16.680258       0.01975
   1     891.5       67.2245       20.0516       63.5764       83.6280      16.403523       0.02355
   0    1013.0       66.2819       22.1028       60.1839       82.2867      16.004762       0.02769



 Wavenumbers: 22650. - 29000. cm-1, ATM      1
 LEVEL PRESSURE   UPWARD FLUX   DIFDOWN FLUX  DIRDOWN FLUX  DOWNWARD FLUX   NET FLUX    HEATING RATE
          mb          W/m2          W/m2          W/m2        W/m2          W/m2       degree/day
  51    .06700       32.4056        0.0000       38.0063       38.0063       5.600688       0.00000
  50    .07753       32.4054        0.0004       38.0057       38.0061       5.600688       0.00000
  49    .09103       32.4052        0.0009       38.0050       38.0059       5.600688       0.00000
  48    0.1069       32.4050        0.0014       38.0042       38.0057       5.600688      -0.00000
  47    0.1255       32.4047        0.0020       38.0033       38.0054       5.600688       0.00000
  46    0.1487       32.4043        0.0028       38.0022       38.0050       5.600688      -0.00000
  45    0.1794       32.4038        0.0039       38.0006       38.0045       5.600688       0.00000
  44    0.2165       32.4032        0.0052       37.9987       38.0039       5.600688      -0.00000
  43    0.2613       32.4025        0.0067       37.9965       38.0032       5.600688      -0.00000
  42    0.3336       32.4014        0.0092       37.9928       38.0021       5.600688       0.00000
  41    0.4307       32.3999        0.0126       37.9880       38.0006       5.600688       0.00000
  40    0.5894       32.3974        0.0180       37.9800       37.9981       5.600688       0.00000
  39     1.339       32.3857        0.0439       37.9425       37.9863       5.600688      -0.00000
  38     1.782       32.3788        0.0590       37.9204       37.9794       5.600688       0.00000
  37     2.292       32.3708        0.0766       37.8949       37.9715       5.600688      -0.00000
  36     2.964       32.3603        0.0996       37.8614       37.9610       5.600688       0.00000
  35     3.853       32.3465        0.1299       37.8172       37.9472       5.600688       0.00000
  34     5.035       32.3281        0.1703       37.7586       37.9288       5.600688       0.00000
  33     6.613       32.3037        0.2240       37.6803       37.9044       5.600688       0.00000
  32     8.786       32.2707        0.2964       37.5750       37.8714       5.600688       0.00000
  31     11.80       32.2237        0.3995       37.4249       37.8244       5.600688       0.00000
  30     15.07       32.1734        0.5099       37.2642       37.7741       5.600688      -0.00000
  29     18.79       32.1167        0.6341       37.0833       37.7174       5.600688       0.00000
  28     23.16       32.0508        0.7785       36.8730       37.6515       5.600688      -0.00000
  27     28.12       31.9757        0.9426       36.6338       37.5764       5.600688      -0.00000
  26     33.73       31.8922        1.1252       36.3677       37.4929       5.600688       0.00000
  25     40.54       31.7919        1.3440       36.0486       37.3926       5.600688      -0.00000
  24     48.69       31.6719        1.6053       35.6672       37.2726       5.600688       0.00000
  23     57.69       31.5413        1.8893       35.2527       37.1420       5.600688      -0.00000
  22     68.43       31.3874        2.2231       34.7649       36.9881       5.600688       0.00000
  21     81.20       31.2063        2.6148       34.1922       36.8070       5.600688       0.00000
  20     96.49       30.9939        3.0728       33.5217       36.5946       5.600688       0.00000
  19     114.6       30.7463        3.6046       32.7424       36.3470       5.600688       0.00000
  18     136.5       30.4592        4.2183       31.8416       36.0598       5.600688       0.00000
  17     162.9       30.1261        4.9260       30.8008       35.7268       5.600688      -0.00000
  16     196.4       29.7078        5.8078       29.5007       35.3085       5.600688       0.00000
  15     218.7       29.4414        6.3654       28.6767       35.0421       5.600688      -0.00000
  14     243.0       29.1590        6.9528       27.8069       34.7597       5.600688       0.00000
  13     269.0       28.8610        7.5681       26.8935       34.4617       5.600688       0.00000
  12     297.5       28.5481        8.2090       25.9397       34.1488       5.600688      -0.00000
  11     328.5       28.2201        8.8750       24.9458       33.8208       5.600688      -0.00000
  10     361.9       27.8784        9.5619       23.9172       33.4791       5.600688       0.00000
   9     398.1       27.5232       10.2681       22.8557       33.1238       5.600688       0.00000
   8     437.6       27.1558       10.9891       21.7673       32.7564       5.600688      -0.00000
   7     480.5       26.7770       11.7219       20.6558       32.3777       5.600688       0.00000
   6     533.0       26.3314       12.5690       19.3631       31.9321       5.600688      -0.00000
   5     589.8       25.8740       13.4203       18.0544       31.4747       5.600688       0.00000
   4     651.6       25.4074       14.2679       16.7402       31.0081       5.600688       0.00000
   3     718.7       24.9344       15.1025       15.4326       30.5351       5.600688       0.00000
   2     792.3       24.4570       15.9172       14.1404       30.0577       5.600688      -0.00000
   1     891.5       23.8566       16.8970       12.5603       29.4573       5.600688       0.00000
   0    1013.0       23.1946       17.9112       10.8841       28.7953       5.600688      -0.00000



 Wavenumbers: 29000. - 38000. cm-1, ATM      1
 LEVEL PRESSURE   UPWARD FLUX   DIFDOWN FLUX  DIRDOWN FLUX  DOWNWARD FLUX   NET FLUX    HEATING RATE
          mb          W/m2          W/m2          W/m2        W/m2          W/m2       degree/day
  51    .06700        4.7605        0.0000       13.4026       13.4026       8.642064       0.00000
  50    .07753        4.7603        0.0003       13.3983       13.3986       8.638266       3.04427
  49    .09103        4.7600        0.0007       13.3921       13.3928       8.632747       3.44953
  48    0.1069        4.7597        0.0011       13.3840       13.3851       8.625371       3.92660
  47    0.1255        4.7594        0.0016       13.3733       13.3749       8.615526       4.46299
  46    0.1487        4.7590        0.0022       13.3579       13.3600       8.601085       5.26416
  45    0.1794        4.7584        0.0030       13.3340       13.3371       8.578686       6.14900
  44    0.2165        4.7577        0.0040       13.3024       13.3064       8.548668       6.82846
  43    0.2613        4.7569        0.0051       13.2604       13.2655       8.508616       7.54975
  42    0.3336        4.7557        0.0070       13.1833       13.1903       8.434613       8.62800
  41    0.4307        4.7541        0.0095       13.0729       13.0824       8.328247       9.24831
  40    0.5894        4.7517        0.0133       12.8796       12.8929       8.141214       9.94612
  39     1.339        4.7431        0.0295       11.9165       11.9461       7.202961      10.56303
  38     1.782        4.7397        0.0378       11.4399       11.4778       6.738052       8.85111
  37     2.292        4.7371        0.0467       10.9796       11.0263       6.289221       7.43381
  36     2.964        4.7354        0.0575       10.4786       10.5362       5.800750       6.13179
  35     3.853        4.7357        0.0709        9.9429       10.0138       5.278138       4.95968
  34     5.035        4.7386        0.0877        9.4007        9.4884       4.749763       3.77449
  33     6.613        4.7443        0.1089        8.8752        8.9841       4.239859       2.72595
  32     8.786        4.7521        0.1362        8.3786        8.5148       3.762754       1.85290
  31     11.80        4.7615        0.1738        7.8897        8.0634       3.301916       1.29020
  30     15.07        4.7695        0.2125        7.5108        7.7233       2.953791       0.89879
  29     18.79        4.7767        0.2547        7.1776        7.4323       2.655527       0.67626
  28     23.16        4.7831        0.3021        6.8664        7.1686       2.385429       0.52228
  27     28.12        4.7879        0.3546        6.5780        6.9326       2.144699       0.40922
  26     33.73        4.7888        0.4118        6.3195        6.7312       1.942455       0.30408
  25     40.54        4.7844        0.4792        6.0663        6.5454       1.761033       0.22507
  24     48.69        4.7742        0.5581        5.8128        6.3709       1.596747       0.17001
  23     57.69        4.7583        0.6423        5.5777        6.2200       1.461724       0.12656
  22     68.43        4.7343        0.7398        5.3379        6.0776       1.343345       0.09306
  21     81.20        4.6980        0.8528        5.0965        5.9492       1.251244       0.06086
  20     96.49        4.6482        0.9832        4.8476        5.8309       1.182691       0.03784
  19     114.6        4.5878        1.1309        4.5799        5.7108       1.123047       0.02785
  18     136.5        4.5178        1.2958        4.2891        5.5849       1.067174       0.02148
  17     162.9        4.4377        1.4785        3.9732        5.4517       1.013944       0.01701
  16     196.4        4.3365        1.6970        3.6080        5.3050       0.968481       0.01144
  15     218.7        4.2727        1.8298        3.3898        5.2195       0.946853       0.00821
  14     243.0        4.2062        1.9649        3.1686        5.1335       0.927247       0.00680
  13     269.0        4.1374        2.1013        2.9461        5.0474       0.909966       0.00561
  12     297.5        4.0667        2.2378        2.7239        4.9617       0.895026       0.00443
  11     328.5        3.9948        2.3729        2.5029        4.8758       0.881004       0.00381
  10     361.9        3.9222        2.5055        2.2846        4.7901       0.867922       0.00331
   9     398.1        3.8493        2.6343        2.0708        4.7050       0.855773       0.00283
   8     437.6        3.7765        2.7577        1.8631        4.6208       0.844298       0.00245
   7     480.5        3.7042        2.8752        1.6626        4.5378       0.833617       0.00210
   6     533.0        3.6226        3.0003        1.4445        4.4448       0.822218       0.00183
   5     589.8        3.5426        3.1140        1.2401        4.3541       0.811423       0.00160
   4     651.6        3.4650        3.2147        1.0513        4.2661       0.801088       0.00141
   3     718.7        3.3897        3.3016        0.8793        4.1809       0.791177       0.00125
   2     792.3        3.3171        3.3738        0.7250        4.0988       0.781669       0.00109
   1     891.5        3.2300        3.4429        0.5573        4.0002       0.770187       0.00098
   0    1013.0        3.1384        3.4916        0.4047        3.8963       0.757823       0.00086



 Wavenumbers: 38000. - 50000. cm-1, ATM      1
 LEVEL PRESSURE   UPWARD FLUX   DIFDOWN FLUX  DIRDOWN FLUX  DOWNWARD FLUX   NET FLUX    HEATING RATE
          mb          W/m2          W/m2          W/m2        W/m2          W/m2       degree/day
  51    .06700        0.0051        0.0000        0.8267        0.8267       0.821528       0.00000
  50    .07753        0.0051        0.0001        0.8242        0.8243       0.819196       1.86936
  49    .09103        0.0050        0.0002        0.8207        0.8209       0.815872       2.07705
  48    0.1069        0.0049        0.0002        0.8162        0.8164       0.811514       2.31984
  47    0.1255        0.0048        0.0004        0.8103        0.8106       0.805801       2.59006
  46    0.1487        0.0047        0.0005        0.8018        0.8023       0.797567       3.00143
  45    0.1794        0.0045        0.0007        0.7889        0.7896       0.785013       3.44648
  44    0.2165        0.0044        0.0009        0.7720        0.7729       0.768507       3.75474
  43    0.2613        0.0042        0.0011        0.7500        0.7511       0.746955       4.06246
  42    0.3336        0.0039        0.0015        0.7106        0.7121       0.708267       4.51071
  41    0.4307        0.0035        0.0019        0.6566        0.6584       0.654972       4.63387
  40    0.5894        0.0029        0.0024        0.5680        0.5704       0.567464       4.65357
  39     1.339        0.0015        0.0030        0.2422        0.2452       0.243720       3.64476
  38     1.782        0.0010        0.0026        0.1493        0.1519       0.150889       1.76735
  37     2.292        0.0007        0.0022        0.0924        0.0946       0.093932       0.94336
  36     2.964        0.0005        0.0018        0.0539        0.0557       0.055224       0.48589
  35     3.853        0.0003        0.0013        0.0295        0.0308       0.030502       0.23462
  34     5.035        0.0002        0.0010        0.0154        0.0164       0.016181       0.10230
  33     6.613        0.0001        0.0007        0.0073        0.0080       0.007912       0.04420
  32     8.786        0.0000        0.0004        0.0030        0.0034       0.003390       0.01756
  31     11.80        0.0000        0.0003        0.0010        0.0012       0.001199       0.00613
  30     15.07        0.0000        0.0001        0.0003        0.0005       0.000463       0.00190
  29     18.79        0.0000        0.0001        0.0001        0.0002       0.000182       0.00064
  28     23.16        0.0000        0.0000        0.0000        0.0001       0.000071       0.00022
  27     28.12        0.0000        0.0000        0.0000        0.0000       0.000028       0.00007
  26     33.73        0.0000        0.0000        0.0000        0.0000       0.000011       0.00002
  25     40.54        0.0000        0.0000        0.0000        0.0000       0.000005       0.00001
  24     48.69        0.0000        0.0000        0.0000        0.0000       0.000002       0.00000
  23     57.69        0.0000        0.0000        0.0000        0.0000       0.000001       0.00000
  22     68.43        0.0000        0.0000        0.0000        0.0000       0.000000       0.00000
  21     81.20        0.0000        0.0000        0.0000        0.0000       0.000000       0.00000
  20     96.49        0.0000        0.0000        0.0000        0.0000       0.000000       0.00000
  19     114.6        0.0000        0.0000        0.0000        0.0000       0.000000       0.00000
  18     136.5        0.0000        0.0000        0.0000        0.0000       0.000000       0.00000
  17     162.9        0.0000        0.0000        0.0000        0.0000       0.000000       0.00000
  16     196.4        0.0000        0.0000        0.0000        0.0000       0.000000       0.00000
  15     218.7        0.0000        0.0000        0.0000        0.0000       0.000000       0.00000
  14     243.0        0.0000        0.0000        0.0000        0.0000       0.000000       0.00000
  13     269.0        0.0000        0.0000        0.0000        0.0000       0.000000       0.00000
  12     297.5        0.0000        0.0000        0.0000        0.0000       0.000000       0.00000
  11     328.5        0.0000        0.0000        0.0000        0.0000       0.000000       0.00000
  10     361.9        0.0000        0.0000        0.0000        0.0000       0.000000       0.00000
   9     398.1        0.0000        0.0000        0.0000        0.0000       0.000000       0.00000
   8     437.6        0.0000        0.0000        0.0000        0.0000       0.000000       0.00000
   7     480.5        0.0000        0.0000        0.0000        0.0000       0.000000       0.00000
   6     533.0        0.0000        0.0000        0.0000        0.0000       0.000000       0.00000
   5     589.8        0.0000        0.0000        0.0000        0.0000       0.000000       0.00000
   4     651.6        0.0000        0.0000        0.0000        0.0000       0.000000       0.00000
   3     718.7        0.0000        0.0000        0.0000        0.0000       0.000000       0.00000
   2     792.3        0.0000        0.0000        0.0000        0.0000       0.000000       0.00000
   1     891.5        0.0000        0.0000        0.0000        0.0000       0.000000       0.00000
   0    1013.0        0.0000        0.0000        0.0000        0.0000       0.000000       0.00000



 Wavenumbers:   820. -  2600. cm-1, ATM      1
 LEVEL PRESSURE   UPWARD FLUX   DIFDOWN FLUX  DIRDOWN FLUX  DOWNWARD FLUX   NET FLUX    HEATING RATE
          mb          W/m2          W/m2          W/m2        W/m2          W/m2       degree/day
  51    .06700        0.2421        0.0000        3.8670        3.8670       3.624910       0.00000
  50    .07753        0.2421        0.0000        3.8643        3.8643       3.622193       2.17770
  49    .09103        0.2421        0.0000        3.8635        3.8635       3.621382       0.50638
  48    0.1069        0.2421        0.0000        3.8626        3.8626       3.620492       0.47415
  47    0.1255        0.2421        0.0000        3.8616        3.8616       3.619531       0.43559
  46    0.1487        0.2421        0.0000        3.8605        3.8605       3.618422       0.40437
  45    0.1794        0.2421        0.0000        3.8592        3.8592       3.617087       0.36648
  44    0.2165        0.2421        0.0000        3.8578        3.8578       3.615709       0.31346
  43    0.2613        0.2421        0.0000        3.8564        3.8564       3.614249       0.27522
  42    0.3336        0.2421        0.0000        3.8541        3.8541       3.612017       0.26013
  41    0.4307        0.2421        0.0000        3.8512        3.8512       3.609135       0.25063
  40    0.5894        0.2421        0.0000        3.8465        3.8465       3.604409       0.25134
  39     1.339        0.2421        0.0000        3.8251        3.8251       3.583033       0.24065
  38     1.782        0.2421        0.0000        3.8133        3.8133       3.571220       0.22490
  37     2.292        0.2421        0.0000        3.8003        3.8003       3.558159       0.21633
  36     2.964        0.2421        0.0000        3.7841        3.7841       3.542030       0.20247
  35     3.853        0.2421        0.0000        3.7642        3.7642       3.522115       0.18899
  34     5.035        0.2421        0.0000        3.7395        3.7395       3.497424       0.17638
  33     6.613        0.2421        0.0000        3.7090        3.7090       3.466888       0.16325
  32     8.786        0.2421        0.0000        3.6726        3.6726       3.430457       0.14149
  31     11.80        0.2421        0.0000        3.6319        3.6319       3.389815       0.11379
  30     15.07        0.2421        0.0000        3.6015        3.6015       3.359359       0.07863
  29     18.79        0.2421        0.0000        3.5775        3.5775       3.335367       0.05440
  28     23.16        0.2421        0.0000        3.5560        3.5560       3.313890       0.04153
  27     28.12        0.2421        0.0000        3.5343        3.5343       3.292192       0.03688
  26     33.73        0.2421        0.0000        3.5111        3.5111       3.268959       0.03493
  25     40.54        0.2421        0.0000        3.4838        3.4838       3.241674       0.03385
  24     48.69        0.2421        0.0000        3.4520        3.4520       3.209889       0.03289
  23     57.69        0.2422        0.0000        3.4186        3.4186       3.176407       0.03138
  22     68.43        0.2422        0.0000        3.3808        3.3808       3.138608       0.02972
  21     81.20        0.2422        0.0000        3.3393        3.3394       3.097172       0.02738
  20     96.49        0.2422        0.0000        3.2948        3.2949       3.052656       0.02457
  19     114.6        0.2422        0.0000        3.2469        3.2469       3.004674       0.02240
  18     136.5        0.2422        0.0000        3.1960        3.1960       2.953756       0.01958
  17     162.9        0.2423        0.0000        3.1440        3.1440       2.901758       0.01662
  16     196.4        0.2423        0.0000        3.0876        3.0876       2.845348       0.01420
  15     218.7        0.2423        0.0000        3.0539        3.0539       2.811576       0.01282
  14     243.0        0.2423        0.0000        3.0101        3.0101       2.767808       0.01518
  13     269.0        0.2424        0.0000        2.9536        2.9537       2.711287       0.01833
  12     297.5        0.2424        0.0000        2.8762        2.8762       2.633810       0.02298
  11     328.5        0.2426        0.0000        2.7482        2.7482       2.505660       0.03484
  10     361.9        0.2428        0.0000        2.5602        2.5602       2.317392       0.04763
   9     398.1        0.2432        0.0000        2.3333        2.3334       2.090205       0.05293
   8     437.6        0.2437        0.0000        2.1353        2.1353       1.891609       0.04246
   7     480.5        0.2444        0.0000        2.0041        2.0041       1.759702       0.02591
   6     533.0        0.2457        0.0000        1.8904        1.8905       1.644802       0.01848
   5     589.8        0.2476        0.0000        1.7647        1.7647       1.517131       0.01895
   4     651.6        0.2506        0.0000        1.6296        1.6296       1.379069       0.01888
   3     718.7        0.2551        0.0000        1.4989        1.4990       1.243833       0.01700
   2     792.3        0.2621        0.0000        1.3754        1.3754       1.113337       0.01497
   1     891.5        0.2763        0.0000        1.2167        1.2167       0.940406       0.01472
   0    1013.0        0.3063        0.0000        1.0041        1.0041       0.697862       0.01684

  Modules and versions used in this calculation:

       rrtmg_sw.1col.f90:  $Revision$                    rrtmg_sw_init.f90:  $Revision$        
     rrtmgsw_cldprop.f90:  $Revision$                  rrtmgsw_cldprmc.f90:  NOT USED          
     rrtmg_sw_reftra.f90:  $Revision$                  rrtmg_sw_spcvrt.f90:  NOT USED          
     rrtmg_sw_spcvmc.f90:  NOT USED                    rrtmgsw_setcoef.f90:  NOT USED          
     rrtmg_sw_taumol.f90:  $Revision$                  rrtmg_sw_vrtqdr.f90:  NOT USED          
                rrtatm.f:  NOT USED                             util_xxx.f:  NOT USED          
                 extra.f:  NOT USED                       rrtmg_sw_k_g.f90:  $Revision$        

