

 Wavenumbers:   820. - 50000. cm-1, ATM      1
 LEVEL PRESSURE   UPWARD FLUX   DIFDOWN FLUX  DIRDOWN FLUX  DOWNWARD FLUX   NET FLUX    HEATING RATE
          mb          W/m2          W/m2          W/m2        W/m2          W/m2       degree/day
  51    .06700      172.3400        0.0000      397.8738      397.8738     225.533815       0.00000
  50    .07753      172.3393        0.0012      397.8577      397.8588     225.519492      11.47995
  49    .09103      172.3386        0.0026      397.8417      397.8443     225.505770       8.57668
  48    0.1069      172.3377        0.0043      397.8228      397.8271     225.489388       8.72017
  47    0.1255      172.3367        0.0062      397.7995      397.8057     225.468913       9.28233
  46    0.1487      172.3355        0.0086      397.7674      397.7760     225.440420      10.38615
  45    0.1794      172.3340        0.0119      397.7202      397.7320     225.398089      11.62086
  44    0.2165      172.3321        0.0158      397.6598      397.6756     225.343405      12.43968
  43    0.2613      172.3301        0.0203      397.5823      397.6027     225.272571      13.35195
  42    0.3336      172.3269        0.0279      397.4441      397.4719     225.145086      14.86345
  41    0.4307      172.3228        0.0377      397.2513      397.2890     224.966204      15.55336
  40    0.5894      172.3168        0.0536      396.9238      396.9774     224.660541      16.25478
  39     1.339      172.2989        0.1244      395.4223      395.5467     223.247753      15.90543
  38     1.782      172.2953        0.1641      394.7250      394.8891     222.593755      12.45107
  37     2.292      172.2972        0.2093      394.0527      394.2620     221.964828      10.41668
  36     2.964      172.3086        0.2679      393.2958      393.5637     221.255175       8.90829
  35     3.853      172.3360        0.3446      392.4268      392.7714     220.435427       7.77955
  34     5.035      172.3846        0.4454      391.4394      391.8847     219.500129       6.68138
  33     6.613      172.4564        0.5789      390.3226      390.9015     218.445085       5.64027
  32     8.786      172.5485        0.7575      389.0591      389.8166     217.268138       4.57084
  31     11.80      172.6597        1.0109      387.5485      388.5594     215.899649       3.83134
  30     15.07      172.7553        1.2807      386.1563      387.4370     214.681741       3.14440
  29     18.79      172.8419        1.5831      384.7539      386.3370     213.495147       2.69037
  28     23.16      172.9185        1.9333      383.2764      385.2098     212.291234       2.32798
  27     28.12      172.9775        2.3306      381.7455      384.0761     211.098637       2.02733
  26     33.73      173.0014        2.7719      380.2168      382.9886     209.987268       1.67097
  25     40.54      172.9814        3.3009      378.5644      381.8653     208.883978       1.36876
  24     48.69      172.9106        3.9331      376.7572      380.6903     207.779699       1.14276
  23     57.69      172.7883        4.6208      374.9411      379.5619     206.773685       0.94299
  22     68.43      172.5947        5.4314      372.9538      378.3852     205.790469       0.77294
  21     81.20      172.2981        6.3867      370.8117      377.1984     204.900289       0.58822
  20     96.49      171.8853        7.5102      368.4756      375.9858     204.100536       0.44141
  19     114.6      171.3769        8.8221      365.8339      374.6560     203.279097       0.38355
  18     136.5      170.7631       10.3452      362.8400      373.1853     202.422187       0.32950
  17     162.9      170.0275       12.1152      359.3892      371.5044     201.476985       0.30212
  16     196.4      169.0525       14.3458      355.0144      369.3602     200.307669       0.29433
  15     218.7      168.4105       15.7718      351.9594      367.7312     199.320701       0.37472
  14     243.0      167.7181       17.2880      348.2675      365.5555     197.837457       0.51444
  13     269.0      166.9747       18.8926      343.7550      362.6476     195.672888       0.70218
  12     297.5      166.1812       20.5833      338.5068      359.0901     192.908905       0.81977
  11     328.5      165.3395       22.3617      332.8831      355.2448     189.905253       0.81668
  10     361.9      164.4520       24.2226      326.8113      351.0339     186.581833       0.84086
   9     398.1      163.5188       26.1653      320.2372      346.4025     182.883671       0.86159
   8     437.6      162.5437       28.1843      313.1616      341.3459     178.802117       0.87266
   7     480.5      161.5291       30.2761      305.6964      335.9725     174.443369       0.85604
   6     533.0      160.3260       32.7521      296.6807      329.4328     169.106823       0.85848
   5     589.8      159.0912       35.3058      287.0555      322.3613     163.270142       0.86635
   4     651.6      157.8522       37.9253      276.4494      314.3747     156.522433       0.92277
   3     718.7      156.6387       40.5949      265.1657      305.7606     149.121927       0.93004
   2     792.3      155.5172       43.2962      252.9748      296.2709     140.753746       0.95974
   1     891.5      154.3958       46.6932      236.8133      283.5065     129.110721       0.99077
   0    1013.0      153.8415       50.4352      218.9853      269.4205     115.578946       0.93958



 Wavenumbers:  2600. -  3250. cm-1, ATM      1
 LEVEL PRESSURE   UPWARD FLUX   DIFDOWN FLUX  DIRDOWN FLUX  DOWNWARD FLUX   NET FLUX    HEATING RATE
          mb          W/m2          W/m2          W/m2        W/m2          W/m2       degree/day
  51    .06700        0.2185        0.0000        3.5066        3.5066       3.288118       0.00000
  50    .07753        0.2185        0.0000        3.5066        3.5066       3.288110       0.00640
  49    .09103        0.2185        0.0000        3.5066        3.5066       3.288100       0.00627
  48    0.1069        0.2185        0.0000        3.5066        3.5066       3.288088       0.00613
  47    0.1255        0.2185        0.0000        3.5066        3.5066       3.288075       0.00599
  46    0.1487        0.2185        0.0000        3.5066        3.5066       3.288059       0.00607
  45    0.1794        0.2185        0.0000        3.5065        3.5065       3.288036       0.00624
  44    0.2165        0.2185        0.0000        3.5065        3.5065       3.288009       0.00611
  43    0.2613        0.2185        0.0000        3.5065        3.5065       3.287977       0.00598
  42    0.3336        0.2185        0.0000        3.5064        3.5064       3.287924       0.00615
  41    0.4307        0.2185        0.0000        3.5064        3.5064       3.287853       0.00618
  40    0.5894        0.2185        0.0000        3.5062        3.5062       3.287734       0.00633
  39     1.339        0.2185        0.0000        3.5055        3.5055       3.287036       0.00787
  38     1.782        0.2185        0.0000        3.5050        3.5050       3.286505       0.01011
  37     2.292        0.2185        0.0000        3.5043        3.5043       3.285812       0.01147
  36     2.964        0.2185        0.0000        3.5033        3.5033       3.284821       0.01245
  35     3.853        0.2185        0.0000        3.5019        3.5019       3.283444       0.01307
  34     5.035        0.2185        0.0000        3.5001        3.5001       3.281583       0.01329
  33     6.613        0.2185        0.0000        3.4977        3.4977       3.279173       0.01288
  32     8.786        0.2185        0.0000        3.4947        3.4947       3.276202       0.01154
  31     11.80        0.2185        0.0000        3.4911        3.4911       3.272567       0.01018
  30     15.07        0.2185        0.0000        3.4878        3.4878       3.269346       0.00832
  29     18.79        0.2185        0.0000        3.4848        3.4848       3.266283       0.00695
  28     23.16        0.2185        0.0000        3.4816        3.4816       3.263063       0.00623
  27     28.12        0.2185        0.0000        3.4779        3.4779       3.259445       0.00615
  26     33.73        0.2185        0.0000        3.4735        3.4735       3.254979       0.00671
  25     40.54        0.2185        0.0000        3.4671        3.4671       3.248654       0.00785
  24     48.69        0.2185        0.0000        3.4582        3.4583       3.239760       0.00920
  23     57.69        0.2185        0.0000        3.4472        3.4472       3.228713       0.01035
  22     68.43        0.2185        0.0000        3.4329        3.4329       3.214455       0.01121
  21     81.20        0.2185        0.0000        3.4152        3.4152       3.196728       0.01171
  20     96.49        0.2185        0.0000        3.3940        3.3941       3.175586       0.01167
  19     114.6        0.2185        0.0000        3.3693        3.3694       3.150870       0.01154
  18     136.5        0.2185        0.0001        3.3424        3.3425       3.123980       0.01034
  17     162.9        0.2185        0.0001        3.3141        3.3142       3.095654       0.00905
  16     196.4        0.2185        0.0001        3.2825        3.2826       3.064037       0.00796
  15     218.7        0.2186        0.0001        3.2621        3.2622       3.043639       0.00774
  14     243.0        0.2186        0.0001        3.2371        3.2372       3.018575       0.00869
  13     269.0        0.2187        0.0001        3.2052        3.2053       2.986608       0.01037
  12     297.5        0.2189        0.0001        3.1631        3.1632       2.944286       0.01255
  11     328.5        0.2191        0.0001        3.1094        3.1095       2.890457       0.01464
  10     361.9        0.2194        0.0001        3.0408        3.0409       2.821585       0.01743
   9     398.1        0.2197        0.0001        2.9535        2.9536       2.733889       0.02043
   8     437.6        0.2203        0.0001        2.8452        2.8453       2.625048       0.02327
   7     480.5        0.2210        0.0002        2.7179        2.7180       2.497098       0.02513
   6     533.0        0.2220        0.0002        2.5566        2.5568       2.334712       0.02612
   5     589.8        0.2237        0.0002        2.3805        2.3807       2.157049       0.02637
   4     651.6        0.2262        0.0002        2.1827        2.1829       1.956651       0.02740
   3     718.7        0.2301        0.0002        1.9647        1.9649       1.734819       0.02788
   2     792.3        0.2364        0.0002        1.7211        1.7212       1.484828       0.02867
   1     891.5        0.2503        0.0002        1.4114        1.4116       1.161264       0.02753
   0    1013.0        0.2808        0.0002        1.1008        1.1009       0.820074       0.02369



 Wavenumbers:  3250. -  4000. cm-1, ATM      1
 LEVEL PRESSURE   UPWARD FLUX   DIFDOWN FLUX  DIRDOWN FLUX  DOWNWARD FLUX   NET FLUX    HEATING RATE
          mb          W/m2          W/m2          W/m2        W/m2          W/m2       degree/day
  51    .06700        0.0004        0.0000        5.9117        5.9117       5.911210       0.00000
  50    .07753        0.0004        0.0000        5.9074        5.9074       5.906998       3.37561
  49    .09103        0.0004        0.0000        5.9050        5.9050       5.904533       1.54074
  48    0.1069        0.0004        0.0000        5.9031        5.9031       5.902644       1.00535
  47    0.1255        0.0004        0.0000        5.9013        5.9013       5.900866       0.80634
  46    0.1487        0.0004        0.0000        5.8994        5.8994       5.898953       0.69708
  45    0.1794        0.0004        0.0000        5.8972        5.8972       5.896777       0.59741
  44    0.2165        0.0004        0.0000        5.8951        5.8951       5.894630       0.48841
  43    0.2613        0.0004        0.0000        5.8929        5.8929       5.892434       0.41398
  42    0.3336        0.0004        0.0000        5.8897        5.8897       5.889214       0.37536
  41    0.4307        0.0004        0.0000        5.8857        5.8857       5.885303       0.34011
  40    0.5894        0.0004        0.0000        5.8798        5.8798       5.879396       0.31410
  39     1.339        0.0004        0.0000        5.8590        5.8590       5.858594       0.23419
  38     1.782        0.0004        0.0000        5.8506        5.8506       5.850126       0.16123
  37     2.292        0.0004        0.0000        5.8424        5.8424       5.841921       0.13590
  36     2.964        0.0004        0.0000        5.8327        5.8327       5.832272       0.12112
  35     3.853        0.0004        0.0000        5.8206        5.8206       5.820125       0.11528
  34     5.035        0.0004        0.0000        5.8045        5.8045       5.804094       0.11452
  33     6.613        0.0004        0.0000        5.7828        5.7828       5.782357       0.11620
  32     8.786        0.0004        0.0000        5.7527        5.7527       5.752254       0.11691
  31     11.80        0.0004        0.0000        5.7088        5.7089       5.708432       0.12269
  30     15.07        0.0004        0.0000        5.6617        5.6618       5.661340       0.12158
  29     18.79        0.0004        0.0000        5.6101        5.6102       5.609756       0.11696
  28     23.16        0.0004        0.0000        5.5539        5.5539       5.553494       0.10879
  27     28.12        0.0004        0.0000        5.4957        5.4958       5.495345       0.09885
  26     33.73        0.0004        0.0000        5.4379        5.4379       5.437535       0.08692
  25     40.54        0.0004        0.0001        5.3749        5.3750       5.374575       0.07811
  24     48.69        0.0004        0.0001        5.3044        5.3045       5.304113       0.07292
  23     57.69        0.0004        0.0001        5.2294        5.2295       5.229110       0.07030
  22     68.43        0.0004        0.0001        5.1416        5.1417       5.141348       0.06899
  21     81.20        0.0003        0.0001        5.0402        5.0403       5.039935       0.06701
  20     96.49        0.0003        0.0001        4.9260        4.9261       4.925753       0.06302
  19     114.6        0.0003        0.0001        4.7954        4.7956       4.795278       0.06092
  18     136.5        0.0003        0.0002        4.6558        4.6560       4.655685       0.05368
  17     162.9        0.0002        0.0002        4.4963        4.4964       4.496194       0.05098
  16     196.4        0.0002        0.0002        4.2728        4.2731       4.272840       0.05622
  15     218.7        0.0002        0.0002        4.0724        4.0727       4.072471       0.07607
  14     243.0        0.0002        0.0002        3.8102        3.8105       3.810324       0.09092
  13     269.0        0.0001        0.0002        3.4720        3.4722       3.472074       0.10973
  12     297.5        0.0001        0.0002        3.0589        3.0591       3.058988       0.12252
  11     328.5        0.0001        0.0002        2.6499        2.6502       2.650067       0.11118
  10     361.9        0.0001        0.0002        2.2815        2.2817       2.281609       0.09322
   9     398.1        0.0001        0.0002        1.9524        1.9526       1.952507       0.07667
   8     437.6        0.0001        0.0002        1.6512        1.6515       1.651400       0.06438
   7     480.5        0.0000        0.0002        1.3776        1.3778       1.377755       0.05374
   6     533.0        0.0000        0.0002        1.0886        1.0888       1.088779       0.04649
   5     589.8        0.0000        0.0002        0.8105        0.8106       0.810585       0.04129
   4     651.6        0.0000        0.0001        0.5333        0.5334       0.533390       0.03791
   3     718.7        0.0000        0.0001        0.3032        0.3033       0.303274       0.02892
   2     792.3        0.0000        0.0001        0.1278        0.1279       0.127840       0.02012
   1     891.5        0.0000        0.0000        0.0187        0.0187       0.018700       0.00929
   0    1013.0        0.0004        0.0000        0.0004        0.0004       0.000020       0.00130



 Wavenumbers:  4000. -  4650. cm-1, ATM      1
 LEVEL PRESSURE   UPWARD FLUX   DIFDOWN FLUX  DIRDOWN FLUX  DOWNWARD FLUX   NET FLUX    HEATING RATE
          mb          W/m2          W/m2          W/m2        W/m2          W/m2       degree/day
  51    .06700        0.6086        0.0000        6.9421        6.9421       6.333462       0.00000
  50    .07753        0.6086        0.0000        6.9421        6.9421       6.333461       0.00080
  49    .09103        0.6086        0.0000        6.9421        6.9421       6.333460       0.00078
  48    0.1069        0.6086        0.0000        6.9421        6.9421       6.333459       0.00076
  47    0.1255        0.6086        0.0000        6.9421        6.9421       6.333457       0.00075
  46    0.1487        0.6086        0.0000        6.9421        6.9421       6.333455       0.00076
  45    0.1794        0.6086        0.0000        6.9421        6.9421       6.333452       0.00078
  44    0.2165        0.6086        0.0000        6.9421        6.9421       6.333449       0.00076
  43    0.2613        0.6086        0.0000        6.9420        6.9421       6.333445       0.00075
  42    0.3336        0.6086        0.0000        6.9420        6.9420       6.333438       0.00077
  41    0.4307        0.6086        0.0000        6.9420        6.9420       6.333429       0.00077
  40    0.5894        0.6086        0.0000        6.9420        6.9420       6.333414       0.00080
  39     1.339        0.6086        0.0000        6.9419        6.9419       6.333325       0.00101
  38     1.782        0.6086        0.0000        6.9418        6.9419       6.333255       0.00133
  37     2.292        0.6086        0.0000        6.9418        6.9418       6.333161       0.00156
  36     2.964        0.6086        0.0000        6.9416        6.9416       6.333021       0.00176
  35     3.853        0.6086        0.0000        6.9414        6.9414       6.332814       0.00197
  34     5.035        0.6086        0.0000        6.9411        6.9411       6.332508       0.00219
  33     6.613        0.6086        0.0000        6.9406        6.9406       6.332058       0.00241
  32     8.786        0.6086        0.0000        6.9399        6.9400       6.331394       0.00258
  31     11.80        0.6086        0.0000        6.9389        6.9389       6.330355       0.00291
  30     15.07        0.6086        0.0001        6.9376        6.9377       6.329139       0.00314
  29     18.79        0.6085        0.0001        6.9361        6.9362       6.327674       0.00332
  28     23.16        0.6085        0.0001        6.9343        6.9344       6.325862       0.00350
  27     28.12        0.6085        0.0001        6.9321        6.9322       6.323679       0.00371
  26     33.73        0.6085        0.0001        6.9294        6.9295       6.321000       0.00403
  25     40.54        0.6085        0.0001        6.9257        6.9259       6.317389       0.00448
  24     48.69        0.6085        0.0002        6.9209        6.9211       6.312609       0.00495
  23     57.69        0.6084        0.0002        6.9152        6.9154       6.306987       0.00527
  22     68.43        0.6084        0.0002        6.9081        6.9084       6.299999       0.00549
  21     81.20        0.6084        0.0003        6.8995        6.8998       6.291457       0.00564
  20     96.49        0.6083        0.0004        6.8891        6.8895       6.281144       0.00569
  19     114.6        0.6083        0.0004        6.8762        6.8767       6.268369       0.00597
  18     136.5        0.6082        0.0005        6.8608        6.8613       6.253090       0.00588
  17     162.9        0.6082        0.0006        6.8421        6.8427       6.234508       0.00594
  16     196.4        0.6082        0.0007        6.8166        6.8173       6.209127       0.00639
  15     218.7        0.6082        0.0008        6.7976        6.7983       6.190151       0.00720
  14     243.0        0.6082        0.0009        6.7731        6.7740       6.165778       0.00845
  13     269.0        0.6083        0.0010        6.7409        6.7419       6.133596       0.01044
  12     297.5        0.6085        0.0011        6.6982        6.6992       6.090759       0.01271
  11     328.5        0.6088        0.0012        6.6434        6.6446       6.035842       0.01493
  10     361.9        0.6091        0.0013        6.5741        6.5754       5.966270       0.01760
   9     398.1        0.6096        0.0014        6.4889        6.4903       5.880715       0.01993
   8     437.6        0.6102        0.0015        6.3876        6.3891       5.778939       0.02176
   7     480.5        0.6110        0.0016        6.2749        6.2765       5.665517       0.02228
   6     533.0        0.6121        0.0018        6.1332        6.1349       5.522817       0.02296
   5     589.8        0.6137        0.0019        5.9653        5.9672       5.353468       0.02514
   4     651.6        0.6162        0.0021        5.7389        5.7409       5.124694       0.03129
   3     718.7        0.6201        0.0022        5.4502        5.4524       4.832224       0.03676
   2     792.3        0.6265        0.0023        5.1134        5.1156       4.489095       0.03935
   1     891.5        0.6411        0.0024        4.6750        4.6774       4.036267       0.03853
   0    1013.0        0.6738        0.0025        4.1801        4.1825       3.508730       0.03663



 Wavenumbers:  4650. -  5150. cm-1, ATM      1
 LEVEL PRESSURE   UPWARD FLUX   DIFDOWN FLUX  DIRDOWN FLUX  DOWNWARD FLUX   NET FLUX    HEATING RATE
          mb          W/m2          W/m2          W/m2        W/m2          W/m2       degree/day
  51    .06700        0.4350        0.0000        6.5710        6.5710       6.136037       0.00000
  50    .07753        0.4350        0.0000        6.5708        6.5708       6.135802       0.18877
  49    .09103        0.4350        0.0000        6.5705        6.5705       6.135508       0.18352
  48    0.1069        0.4350        0.0000        6.5701        6.5701       6.135174       0.17796
  47    0.1255        0.4350        0.0000        6.5697        6.5697       6.134794       0.17229
  46    0.1487        0.4350        0.0000        6.5693        6.5693       6.134320       0.17259
  45    0.1794        0.4350        0.0000        6.5686        6.5686       6.133684       0.17464
  44    0.2165        0.4350        0.0000        6.5679        6.5679       6.132947       0.16778
  43    0.2613        0.4350        0.0000        6.5670        6.5670       6.132094       0.16069
  42    0.3336        0.4350        0.0000        6.5657        6.5657       6.130732       0.15885
  41    0.4307        0.4350        0.0000        6.5640        6.5640       6.129011       0.14962
  40    0.5894        0.4350        0.0000        6.5613        6.5613       6.126396       0.13905
  39     1.339        0.4349        0.0000        6.5516        6.5516       6.116624       0.11001
  38     1.782        0.4349        0.0000        6.5473        6.5474       6.112411       0.08021
  37     2.292        0.4349        0.0000        6.5435        6.5435       6.108527       0.06433
  36     2.964        0.4349        0.0000        6.5395        6.5395       6.104575       0.04960
  35     3.853        0.4349        0.0000        6.5356        6.5356       6.100636       0.03739
  34     5.035        0.4349        0.0000        6.5315        6.5316       6.096637       0.02856
  33     6.613        0.4349        0.0000        6.5271        6.5272       6.092248       0.02347
  32     8.786        0.4349        0.0000        6.5216        6.5217       6.086759       0.02132
  31     11.80        0.4349        0.0001        6.5135        6.5136       6.078690       0.02259
  30     15.07        0.4349        0.0001        6.5041        6.5042       6.069332       0.02416
  29     18.79        0.4349        0.0001        6.4926        6.4927       6.057831       0.02608
  28     23.16        0.4348        0.0001        6.4780        6.4781       6.043257       0.02818
  27     28.12        0.4348        0.0002        6.4600        6.4601       6.025305       0.03052
  26     33.73        0.4348        0.0002        6.4385        6.4387       6.003903       0.03218
  25     40.54        0.4348        0.0002        6.4114        6.4116       5.976815       0.03361
  24     48.69        0.4347        0.0003        6.3777        6.3780       5.943227       0.03476
  23     57.69        0.4347        0.0003        6.3406        6.3409       5.906192       0.03471
  22     68.43        0.4347        0.0004        6.2974        6.2978       5.863072       0.03390
  21     81.20        0.4346        0.0004        6.2485        6.2490       5.814344       0.03220
  20     96.49        0.4346        0.0005        6.1952        6.1957       5.761080       0.02940
  19     114.6        0.4346        0.0006        6.1386        6.1392       5.704597       0.02637
  18     136.5        0.4345        0.0007        6.0795        6.0803       5.645722       0.02264
  17     162.9        0.4345        0.0009        6.0168        6.0177       5.583147       0.02000
  16     196.4        0.4345        0.0010        5.9412        5.9423       5.507740       0.01898
  15     218.7        0.4345        0.0011        5.8915        5.8926       5.458047       0.01887
  14     243.0        0.4346        0.0012        5.8346        5.8359       5.401285       0.01969
  13     269.0        0.4347        0.0014        5.7676        5.7690       5.334257       0.02174
  12     297.5        0.4349        0.0015        5.6858        5.6873       5.252377       0.02428
  11     328.5        0.4352        0.0016        5.5899        5.5915       5.156370       0.02610
  10     361.9        0.4356        0.0018        5.4787        5.4805       5.044941       0.02819
   9     398.1        0.4361        0.0019        5.3502        5.3521       4.916037       0.03003
   8     437.6        0.4369        0.0020        5.2035        5.2055       4.768652       0.03151
   7     480.5        0.4378        0.0022        5.0390        5.0412       4.603330       0.03247
   6     533.0        0.4394        0.0024        4.8308        4.8331       4.393766       0.03371
   5     589.8        0.4416        0.0025        4.6030        4.6055       4.163962       0.03411
   4     651.6        0.4448        0.0026        4.3500        4.3527       3.907880       0.03502
   3     718.7        0.4495        0.0028        4.0793        4.0820       3.632474       0.03461
   2     792.3        0.4568        0.0029        3.7904        3.7932       3.336472       0.03395
   1     891.5        0.4715        0.0029        3.4079        3.4109       2.939339       0.03379
   0    1013.0        0.5001        0.0030        2.9969        2.9999       2.499817       0.03052



 Wavenumbers:  5150. -  6150. cm-1, ATM      1
 LEVEL PRESSURE   UPWARD FLUX   DIFDOWN FLUX  DIRDOWN FLUX  DOWNWARD FLUX   NET FLUX    HEATING RATE
          mb          W/m2          W/m2          W/m2        W/m2          W/m2       degree/day
  51    .06700        1.2205        0.0000       16.4735       16.4735      15.253045       0.00000
  50    .07753        1.2205        0.0000       16.4735       16.4735      15.253005       0.03156
  49    .09103        1.2205        0.0000       16.4734       16.4734      15.252954       0.03204
  48    0.1069        1.2205        0.0000       16.4734       16.4734      15.252893       0.03254
  47    0.1255        1.2205        0.0000       16.4733       16.4733      15.252820       0.03304
  46    0.1487        1.2205        0.0000       16.4732       16.4732      15.252725       0.03481
  45    0.1794        1.2205        0.0000       16.4730       16.4730      15.252590       0.03704
  44    0.2165        1.2205        0.0000       16.4729       16.4729      15.252424       0.03759
  43    0.2613        1.2205        0.0000       16.4727       16.4727      15.252222       0.03815
  42    0.3336        1.2205        0.0000       16.4723       16.4723      15.251876       0.04029
  41    0.4307        1.2205        0.0000       16.4719       16.4719      15.251407       0.04080
  40    0.5894        1.2205        0.0000       16.4711       16.4711      15.250622       0.04175
  39     1.339        1.2204        0.0000       16.4673       16.4673      15.246859       0.04237
  38     1.782        1.2204        0.0000       16.4651       16.4651      15.244682       0.04144
  37     2.292        1.2204        0.0001       16.4626       16.4626      15.242231       0.04059
  36     2.964        1.2204        0.0001       16.4595       16.4595      15.239137       0.03885
  35     3.853        1.2204        0.0001       16.4555       16.4556      15.235234       0.03704
  34     5.035        1.2203        0.0001       16.4505       16.4506      15.230258       0.03555
  33     6.613        1.2203        0.0002       16.4440       16.4442      15.223886       0.03407
  32     8.786        1.2203        0.0002       16.4358       16.4360      15.215766       0.03154
  31     11.80        1.2202        0.0003       16.4249       16.4252      15.205019       0.03009
  30     15.07        1.2201        0.0004       16.4143       16.4146      15.194511       0.02713
  29     18.79        1.2201        0.0005       16.4034       16.4039      15.183820       0.02424
  28     23.16        1.2200        0.0006       16.3920       16.3926      15.172596       0.02170
  27     28.12        1.2199        0.0007       16.3803       16.3810      15.161151       0.01945
  26     33.73        1.2197        0.0009       16.3687       16.3696      15.149839       0.01701
  25     40.54        1.2196        0.0010       16.3564       16.3574      15.137820       0.01491
  24     48.69        1.2195        0.0012       16.3435       16.3447      15.125281       0.01298
  23     57.69        1.2193        0.0015       16.3309       16.3324      15.113092       0.01142
  22     68.43        1.2191        0.0017       16.3174       16.3192      15.100077       0.01023
  21     81.20        1.2188        0.0021       16.3027       16.3047      15.085902       0.00937
  20     96.49        1.2186        0.0024       16.2861       16.2886      15.070021       0.00877
  19     114.6        1.2182        0.0029       16.2671       16.2700      15.051743       0.00853
  18     136.5        1.2179        0.0034       16.2445       16.2480      15.030136       0.00831
  17     162.9        1.2174        0.0041       16.2108       16.2149      14.997500       0.01043
  16     196.4        1.2168        0.0049       16.1360       16.1409      14.924091       0.01848
  15     218.7        1.2164        0.0055       16.0099       16.0154      14.798917       0.04752
  14     243.0        1.2161        0.0060       15.7396       15.7456      14.529580       0.09342
  13     269.0        1.2157        0.0065       15.3077       15.3142      14.098523       0.13983
  12     297.5        1.2153        0.0070       14.7951       14.8021      13.586764       0.15178
  11     328.5        1.2150        0.0075       14.2426       14.2501      13.035129       0.14999
  10     361.9        1.2147        0.0080       13.6155       13.6235      12.408767       0.15848
   9     398.1        1.2144        0.0084       12.9439       12.9523      11.737837       0.15631
   8     437.6        1.2143        0.0088       12.2429       12.2517      11.037405       0.14976
   7     480.5        1.2142        0.0092       11.5524       11.5616      10.347342       0.13553
   6     533.0        1.2144        0.0096       10.8188       10.8284       9.613998       0.11797
   5     589.8        1.2150        0.0100       10.1668       10.1768       8.961798       0.09681
   4     651.6        1.2164        0.0103        9.5867        9.5970       8.380640       0.07947
   3     718.7        1.2191        0.0108        9.1006        9.1114       7.892254       0.06138
   2     792.3        1.2245        0.0113        8.6172        8.6286       7.404097       0.05599
   1     891.5        1.2379        0.0119        7.9587        7.9706       6.732723       0.05713
   0    1013.0        1.2715        0.0126        7.3371        7.3497       6.078161       0.04545



 Wavenumbers:  6150. -  7700. cm-1, ATM      1
 LEVEL PRESSURE   UPWARD FLUX   DIFDOWN FLUX  DIRDOWN FLUX  DOWNWARD FLUX   NET FLUX    HEATING RATE
          mb          W/m2          W/m2          W/m2        W/m2          W/m2       degree/day
  51    .06700        1.8261        0.0000       30.4684       30.4684      28.642321       0.00000
  50    .07753        1.8261        0.0000       30.4683       30.4683      28.642265       0.04553
  49    .09103        1.8261        0.0000       30.4682       30.4683      28.642191       0.04582
  48    0.1069        1.8261        0.0000       30.4682       30.4682      28.642105       0.04613
  47    0.1255        1.8261        0.0000       30.4681       30.4681      28.642002       0.04643
  46    0.1487        1.8261        0.0000       30.4679       30.4679      28.641869       0.04850
  45    0.1794        1.8261        0.0000       30.4677       30.4677      28.641683       0.05124
  44    0.2165        1.8260        0.0000       30.4675       30.4675      28.641456       0.05163
  43    0.2613        1.8260        0.0000       30.4672       30.4672      28.641179       0.05205
  42    0.3336        1.8260        0.0000       30.4667       30.4667      28.640711       0.05464
  41    0.4307        1.8260        0.0000       30.4661       30.4661      28.640077       0.05511
  40    0.5894        1.8260        0.0001       30.4650       30.4650      28.639020       0.05619
  39     1.339        1.8259        0.0001       30.4598       30.4599      28.633956       0.05701
  38     1.782        1.8259        0.0002       30.4567       30.4569      28.631013       0.05603
  37     2.292        1.8258        0.0002       30.4533       30.4535      28.627679       0.05523
  36     2.964        1.8258        0.0003       30.4489       30.4492      28.623428       0.05335
  35     3.853        1.8257        0.0004       30.4433       30.4437      28.618006       0.05146
  34     5.035        1.8256        0.0005       30.4360       30.4366      28.611014       0.04995
  33     6.613        1.8254        0.0007       30.4266       30.4273      28.601944       0.04849
  32     8.786        1.8252        0.0009       30.4144       30.4154      28.590183       0.04567
  31     11.80        1.8249        0.0013       30.3978       30.3991      28.574243       0.04463
  30     15.07        1.8245        0.0016       30.3811       30.3827      28.558202       0.04142
  29     18.79        1.8242        0.0020       30.3635       30.3655      28.541339       0.03823
  28     23.16        1.8237        0.0025       30.3443       30.3468      28.523084       0.03530
  27     28.12        1.8232        0.0030       30.3239       30.3269      28.503731       0.03290
  26     33.73        1.8227        0.0036       30.3029       30.3066      28.483909       0.02980
  25     40.54        1.8220        0.0043       30.2799       30.2842      28.462225       0.02690
  24     48.69        1.8211        0.0052       30.2548       30.2600      28.438837       0.02420
  23     57.69        1.8202        0.0062       30.2296       30.2357      28.415501       0.02187
  22     68.43        1.8192        0.0073       30.2020       30.2093      28.390131       0.01994
  21     81.20        1.8179        0.0087       30.1714       30.1801      28.362200       0.01846
  20     96.49        1.8163        0.0103       30.1369       30.1471      28.330793       0.01733
  19     114.6        1.8145        0.0122       30.0970       30.1092      28.294699       0.01685
  18     136.5        1.8124        0.0145       30.0504       30.0649      28.252545       0.01621
  17     162.9        1.8098        0.0172       29.9842       30.0014      28.191608       0.01948
  16     196.4        1.8064        0.0207       29.8533       29.8740      28.067540       0.03123
  15     218.7        1.8043        0.0229       29.6742       29.6972      27.892918       0.06630
  14     243.0        1.8020        0.0253       29.3154       29.3407      27.538726       0.12285
  13     269.0        1.7996        0.0276       28.6682       28.6958      26.896225       0.20842
  12     297.5        1.7971        0.0298       27.7720       27.8018      26.004693       0.26442
  11     328.5        1.7946        0.0319       26.8285       26.8604      25.065809       0.25528
  10     361.9        1.7921        0.0341       25.7886       25.8227      24.030616       0.26191
   9     398.1        1.7897        0.0361       24.6047       24.6408      22.851134       0.27479
   8     437.6        1.7874        0.0379       23.3058       23.3437      21.556326       0.27684
   7     480.5        1.7854        0.0395       21.9700       22.0095      20.224063       0.26165
   6     533.0        1.7838        0.0411       20.4313       20.4725      18.688703       0.24699
   5     589.8        1.7832        0.0424       18.8913       18.9337      17.150519       0.22832
   4     651.6        1.7851        0.0433       17.2864       17.3297      15.544602       0.21961
   3     718.7        1.7910        0.0438       15.7330       15.7768      13.985738       0.19591
   2     792.3        1.8045        0.0440       14.2351       14.2791      12.474572       0.17331
   1     891.5        1.8412        0.0441       12.5248       12.5689      10.727713       0.14865
   0    1013.0        1.9345        0.0442       10.9349       10.9791       9.044601       0.11687



 Wavenumbers:  7700. -  8050. cm-1, ATM      1
 LEVEL PRESSURE   UPWARD FLUX   DIFDOWN FLUX  DIRDOWN FLUX  DOWNWARD FLUX   NET FLUX    HEATING RATE
          mb          W/m2          W/m2          W/m2        W/m2          W/m2       degree/day
  51    .06700        1.0157        0.0000        7.2006        7.2006       6.184911       0.00000
  50    .07753        1.0157        0.0000        7.2006        7.2006       6.184893       0.01473
  49    .09103        1.0157        0.0000        7.2005        7.2005       6.184870       0.01443
  48    0.1069        1.0157        0.0000        7.2005        7.2005       6.184843       0.01413
  47    0.1255        1.0157        0.0000        7.2005        7.2005       6.184813       0.01383
  46    0.1487        1.0157        0.0000        7.2004        7.2004       6.184774       0.01403
  45    0.1794        1.0157        0.0000        7.2004        7.2004       6.184722       0.01444
  44    0.2165        1.0157        0.0000        7.2003        7.2003       6.184660       0.01416
  43    0.2613        1.0157        0.0000        7.2003        7.2003       6.184586       0.01390
  42    0.3336        1.0157        0.0000        7.2001        7.2001       6.184464       0.01422
  41    0.4307        1.0157        0.0000        7.2000        7.2000       6.184302       0.01406
  40    0.5894        1.0157        0.0000        7.1997        7.1997       6.184038       0.01404
  39     1.339        1.0157        0.0001        7.1984        7.1985       6.182789       0.01406
  38     1.782        1.0157        0.0001        7.1977        7.1978       6.182056       0.01396
  37     2.292        1.0157        0.0001        7.1968        7.1969       6.181207       0.01406
  36     2.964        1.0157        0.0001        7.1957        7.1958       6.180093       0.01398
  35     3.853        1.0158        0.0002        7.1942        7.1944       6.178623       0.01395
  34     5.035        1.0158        0.0002        7.1922        7.1924       6.176671       0.01394
  33     6.613        1.0158        0.0003        7.1896        7.1899       6.174066       0.01392
  32     8.786        1.0159        0.0004        7.1860        7.1864       6.170562       0.01361
  31     11.80        1.0159        0.0005        7.1810        7.1815       6.165561       0.01400
  30     15.07        1.0160        0.0006        7.1755        7.1762       6.160207       0.01382
  29     18.79        1.0161        0.0008        7.1694        7.1702       6.154180       0.01367
  28     23.16        1.0162        0.0010        7.1623        7.1633       6.147168       0.01356
  27     28.12        1.0163        0.0012        7.1543        7.1555       6.139187       0.01357
  26     33.73        1.0164        0.0014        7.1453        7.1467       6.130304       0.01336
  25     40.54        1.0165        0.0017        7.1344        7.1362       6.119640       0.01323
  24     48.69        1.0167        0.0021        7.1215        7.1236       6.106883       0.01320
  23     57.69        1.0169        0.0025        7.1075        7.1099       6.092995       0.01302
  22     68.43        1.0172        0.0029        7.0909        7.0938       6.076623       0.01287
  21     81.20        1.0175        0.0034        7.0714        7.0748       6.057354       0.01273
  20     96.49        1.0178        0.0041        7.0484        7.0525       6.034721       0.01249
  19     114.6        1.0182        0.0048        7.0217        7.0265       6.008296       0.01234
  18     136.5        1.0188        0.0057        6.9906        6.9963       5.977580       0.01181
  17     162.9        1.0194        0.0068        6.9544        6.9612       5.941809       0.01143
  16     196.4        1.0203        0.0082        6.9088        6.9169       5.896662       0.01136
  15     218.7        1.0209        0.0091        6.8795        6.8885       5.867666       0.01101
  14     243.0        1.0215        0.0100        6.8482        6.8582       5.836682       0.01075
  13     269.0        1.0223        0.0111        6.8148        6.8259       5.803645       0.01072
  12     297.5        1.0231        0.0122        6.7794        6.7916       5.768461       0.01044
  11     328.5        1.0240        0.0134        6.7415        6.7550       5.730909       0.01021
  10     361.9        1.0251        0.0147        6.7014        6.7161       5.690994       0.01010
   9     398.1        1.0264        0.0161        6.6586        6.6747       5.648365       0.00993
   8     437.6        1.0278        0.0176        6.6128        6.6304       5.602645       0.00978
   7     480.5        1.0295        0.0192        6.5638        6.5830       5.553507       0.00965
   6     533.0        1.0317        0.0211        6.5031        6.5242       5.492471       0.00982
   5     589.8        1.0345        0.0232        6.4362        6.4594       5.424969       0.01002
   4     651.6        1.0380        0.0254        6.3609        6.3863       5.348316       0.01048
   3     718.7        1.0425        0.0278        6.2745        6.3022       5.259703       0.01114
   2     792.3        1.0486        0.0302        6.1727        6.2028       5.154248       0.01209
   1     891.5        1.0594        0.0334        6.0169        6.0502       4.990865       0.01390
   0    1013.0        1.0770        0.0370        5.8007        5.8377       4.760606       0.01599



 Wavenumbers:  8050. - 12850. cm-1, ATM      1
 LEVEL PRESSURE   UPWARD FLUX   DIFDOWN FLUX  DIRDOWN FLUX  DOWNWARD FLUX   NET FLUX    HEATING RATE
          mb          W/m2          W/m2          W/m2        W/m2          W/m2       degree/day
  51    .06700       20.8169        0.0000      100.8135      100.8135      79.996608       0.00000
  50    .07753       20.8169        0.0000      100.8135      100.8135      79.996608       0.00000
  49    .09103       20.8169        0.0001      100.8134      100.8135      79.996608       0.00000
  48    0.1069       20.8168        0.0001      100.8134      100.8134      79.996608      -0.00000
  47    0.1255       20.8168        0.0001      100.8133      100.8134      79.996608       0.00000
  46    0.1487       20.8168        0.0002      100.8132      100.8134      79.996608      -0.00000
  45    0.1794       20.8167        0.0002      100.8131      100.8133      79.996608       0.00000
  44    0.2165       20.8166        0.0003      100.8129      100.8132      79.996608      -0.00000
  43    0.2613       20.8166        0.0004      100.8127      100.8132      79.996608       0.00000
  42    0.3336       20.8164        0.0006      100.8125      100.8130      79.996608       0.00000
  41    0.4307       20.8163        0.0008      100.8121      100.8129      79.996608       0.00000
  40    0.5894       20.8160        0.0011      100.8115      100.8126      79.996608       0.00000
  39     1.339       20.8146        0.0028      100.8085      100.8113      79.996608      -0.00000
  38     1.782       20.8139        0.0037      100.8068      100.8105      79.996608       0.00000
  37     2.292       20.8130        0.0048      100.8047      100.8096      79.996608       0.00000
  36     2.964       20.8118        0.0063      100.8021      100.8084      79.996608      -0.00000
  35     3.853       20.8102        0.0082      100.7986      100.8068      79.996608       0.00000
  34     5.035       20.8081        0.0107      100.7940      100.8047      79.996608       0.00000
  33     6.613       20.8053        0.0141      100.7878      100.8019      79.996608       0.00000
  32     8.786       20.8015        0.0187      100.7794      100.7981      79.996608      -0.00000
  31     11.80       20.7961        0.0253      100.7674      100.7927      79.996608       0.00000
  30     15.07       20.7903        0.0324      100.7546      100.7869      79.996608       0.00000
  29     18.79       20.7837        0.0404      100.7400      100.7803      79.996608      -0.00000
  28     23.16       20.7761        0.0497      100.7230      100.7727      79.996608       0.00000
  27     28.12       20.7673        0.0604      100.7035      100.7639      79.996608       0.00000
  26     33.73       20.7574        0.0724      100.6817      100.7540      79.996608      -0.00000
  25     40.54       20.7455        0.0869      100.6552      100.7421      79.996608       0.00000
  24     48.69       20.7311        0.1043      100.6234      100.7277      79.996608       0.00000
  23     57.69       20.7153        0.1236      100.5883      100.7119      79.996608       0.00000
  22     68.43       20.6964        0.1465      100.5464      100.6930      79.996608      -0.00000
  21     81.20       20.6738        0.1739      100.4965      100.6704      79.996608       0.00000
  20     96.49       20.6469        0.2066      100.4370      100.6435      79.996608      -0.00000
  19     114.6       20.6150        0.2454      100.3601      100.6055      79.990551       0.00283
  18     136.5       20.5770        0.2915      100.2685      100.5600      79.983046       0.00289
  17     162.9       20.5316        0.3465      100.1557      100.5022      79.970592       0.00398
  16     196.4       20.4727        0.4180       99.9935      100.4115      79.938737       0.00802
  15     218.7       20.4340        0.4649       99.8490      100.3139      79.879938       0.02232
  14     243.0       20.3920        0.5159       99.6218      100.1377      79.745760       0.04654
  13     269.0       20.3466        0.5709       99.2701       99.8410      79.494354       0.08155
  12     297.5       20.2981        0.6299       98.7863       99.4162      79.118063       0.11160
  11     328.5       20.2463        0.6933       98.2127       98.9060      78.659775       0.12461
  10     361.9       20.1913        0.7612       97.5096       98.2708      78.079467       0.14682
   9     398.1       20.1335        0.8334       96.6249       97.4583      77.324829       0.17581
   8     437.6       20.0735        0.9097       95.5141       96.4238      76.350285       0.20836
   7     480.5       20.0121        0.9898       94.1664       95.1562      75.144121       0.23689
   6     533.0       19.9419        1.0856       92.2972       93.3829      73.440991       0.27398
   5     589.8       19.8759        1.1847       90.0044       91.1890      71.313170       0.31584
   4     651.6       19.8244        1.2842       87.0975       88.3817      68.557289       0.37687
   3     718.7       19.8004        1.3829       83.6639       85.0468      65.246397       0.41609
   2     792.3       19.8317        1.4777       79.5919       81.0696      61.237910       0.45973
   1     891.5       20.0182        1.5874       73.8807       75.4681      55.449903       0.49253
   0    1013.0       20.5840        1.6990       67.5841       69.2831      48.699103       0.46874



 Wavenumbers: 12850. - 16000. cm-1, ATM      1
 LEVEL PRESSURE   UPWARD FLUX   DIFDOWN FLUX  DIRDOWN FLUX  DOWNWARD FLUX   NET FLUX    HEATING RATE
          mb          W/m2          W/m2          W/m2        W/m2          W/m2       degree/day
  51    .06700       31.3755        0.0000       63.1686       63.1686      31.793072       0.00000
  50    .07753       31.3755        0.0001       63.1677       63.1678      31.792294       0.62406
  49    .09103       31.3754        0.0001       63.1666       63.1668      31.791324       0.60636
  48    0.1069       31.3754        0.0002       63.1654       63.1656      31.790219       0.58785
  47    0.1255       31.3754        0.0003       63.1640       63.1643      31.788964       0.56924
  46    0.1487       31.3753        0.0004       63.1623       63.1627      31.787398       0.57060
  45    0.1794       31.3752        0.0006       63.1600       63.1605      31.785300       0.57603
  44    0.2165       31.3752        0.0008       63.1573       63.1581      31.782875       0.55170
  43    0.2613       31.3751        0.0010       63.1542       63.1552      31.780079       0.52699
  42    0.3336       31.3750        0.0014       63.1493       63.1506      31.775628       0.51893
  41    0.4307       31.3749        0.0018       63.1431       63.1450      31.770067       0.48351
  40    0.5894       31.3748        0.0026       63.1338       63.1365      31.761657       0.44725
  39     1.339       31.3755        0.0064       63.0956       63.1020      31.726540       0.39535
  38     1.782       31.3767        0.0087       63.0740       63.0827      31.706003       0.39099
  37     2.292       31.3789        0.0112       63.0477       63.0589      31.680035       0.43009
  36     2.964       31.3829        0.0146       63.0095       63.0242      31.641228       0.48715
  35     3.853       31.3899        0.0191       62.9533       62.9723      31.582402       0.55827
  34     5.035       31.4009        0.0250       62.8725       62.8975      31.496603       0.61291
  33     6.613       31.4164        0.0329       62.7621       62.7950      31.378571       0.63100
  32     8.786       31.4364        0.0435       62.6182       62.6618      31.225384       0.59492
  31     11.80       31.4617        0.0587       62.4284       62.4870      31.025297       0.56018
  30     15.07       31.4852        0.0749       62.2426       62.3175      30.832336       0.49819
  29     18.79       31.5083        0.0932       62.0493       62.1425      30.634233       0.44916
  28     23.16       31.5313        0.1145       61.8425       61.9570      30.425650       0.40333
  27     28.12       31.5531        0.1388       61.6278       61.7666      30.213547       0.36056
  26     33.73       31.5709        0.1660       61.4177       61.5836      30.012715       0.30196
  25     40.54       31.5849        0.1987       61.1983       61.3970      29.812101       0.24889
  24     48.69       31.5944        0.2381       60.9680       61.2061      29.611677       0.20741
  23     57.69       31.5978        0.2814       60.7478       61.0292      29.431381       0.16900
  22     68.43       31.5941        0.3328       60.5202       60.8530      29.258922       0.13558
  21     81.20       31.5791        0.3940       60.2938       60.6878      29.108769       0.09922
  20     96.49       31.5515        0.4669       60.0643       60.5312      28.979725       0.07122
  19     114.6       31.5197        0.5540       59.8078       60.3618      28.842040       0.06429
  18     136.5       31.4776        0.6569       59.5158       60.1727      28.695129       0.05649
  17     162.9       31.4232        0.7792       59.1773       59.9565      28.533271       0.05174
  16     196.4       31.3439        0.9373       58.7611       59.6984      28.354497       0.04500
  15     218.7       31.2887        1.0408       58.4958       59.5367      28.247975       0.04044
  14     243.0       31.2273        1.1531       58.2104       59.3635      28.136272       0.03874
  13     269.0       31.1594        1.2745       57.9039       59.1784      28.019039       0.03803
  12     297.5       31.0849        1.4054       57.5736       58.9790      27.894046       0.03707
  11     328.5       31.0043        1.5464       57.2160       58.7624      27.758106       0.03696
  10     361.9       30.9176        1.6977       56.8288       58.5265      27.608908       0.03775
   9     398.1       30.8247        1.8600       56.4074       58.2674      27.442656       0.03873
   8     437.6       30.7264        2.0337       55.9445       57.9782      27.251763       0.04081
   7     480.5       30.6231        2.2188       55.4356       57.6544      27.031355       0.04329
   6     533.0       30.5001        2.4454       54.7850       57.2304      26.730251       0.04844
   5     589.8       30.3757        2.6874       54.0438       56.7313      26.355566       0.05562
   4     651.6       30.2587        2.9442       53.1687       56.1129      25.854212       0.06856
   3     718.7       30.1548        3.2140       52.1625       55.3765      25.221711       0.07949
   2     792.3       30.0834        3.4934       50.9845       54.4779      24.394577       0.09486
   1     891.5       30.0789        3.8521       49.2385       53.0907      23.011782       0.11767
   0    1013.0       30.2456        4.2552       47.0085       51.2637      21.018113       0.13843



 Wavenumbers: 16000. - 22650. cm-1, ATM      1
 LEVEL PRESSURE   UPWARD FLUX   DIFDOWN FLUX  DIRDOWN FLUX  DOWNWARD FLUX   NET FLUX    HEATING RATE
          mb          W/m2          W/m2          W/m2        W/m2          W/m2       degree/day
  51    .06700       75.1342        0.0000      100.7153      100.7153      25.581146       0.00000
  50    .07753       75.1340        0.0003      100.7147      100.7151      25.581029       0.09361
  49    .09103       75.1339        0.0007      100.7140      100.7147      25.580859       0.10617
  48    0.1069       75.1337        0.0012      100.7131      100.7143      25.580632       0.12107
  47    0.1255       75.1335        0.0017      100.7121      100.7139      25.580327       0.13800
  46    0.1487       75.1333        0.0024      100.7108      100.7132      25.579879       0.16353
  45    0.1794       75.1331        0.0034      100.7089      100.7122      25.579177       0.19254
  44    0.2165       75.1328        0.0045      100.7066      100.7110      25.578226       0.21639
  43    0.2613       75.1325        0.0058      100.7037      100.7094      25.576935       0.24328
  42    0.3336       75.1321        0.0079      100.6987      100.7066      25.574482       0.28609
  41    0.4307       75.1318        0.0108      100.6918      100.7026      25.570783       0.32158
  40    0.5894       75.1315        0.0155      100.6797      100.6952      25.563729       0.37510
  39     1.339       75.1355        0.0377      100.6095      100.6472      25.511628       0.58657
  38     1.782       75.1419        0.0507      100.5585      100.6091      25.467258       0.84474
  37     2.292       75.1529        0.0657      100.4903      100.5560      25.403051       1.06342
  36     2.964       75.1732        0.0855      100.3868      100.4722      25.299086       1.30508
  35     3.853       75.2079        0.1116      100.2306      100.3422      25.134241       1.56442
  34     5.035       75.2620        0.1461      100.0045      100.1506      24.888575       1.75493
  33     6.613       75.3384        0.1922       99.6939       99.8861      24.547705       1.82229
  32     8.786       75.4371        0.2542       99.2881       99.5422      24.105081       1.71899
  31     11.80       75.5630        0.3425       98.7496       99.0921      23.529155       1.61241
  30     15.07       75.6800        0.4370       98.2198       98.6568      22.976836       1.42598
  29     18.79       75.7960        0.5434       97.6651       98.2085      22.412514       1.27949
  28     23.16       75.9129        0.6672       97.0671       97.7344      21.821490       1.14285
  27     28.12       76.0247        0.8083       96.4406       97.2488      21.224147       1.01544
  26     33.73       76.1185        0.9655       95.8179       96.7834      20.664991       0.84071
  25     40.54       76.1955        1.1549       95.1548       96.3098      20.114250       0.68326
  24     48.69       76.2534        1.3824       94.4420       95.8243      19.570966       0.56221
  23     57.69       76.2831        1.6312       93.7416       95.3728      19.089660       0.45115
  22     68.43       76.2822        1.9262       92.9954       94.9216      18.639436       0.35394
  21     81.20       76.2312        2.2764       92.2231       94.4995      18.268311       0.24523
  20     96.49       76.1246        2.6917       91.4110       94.1027      17.978079       0.16019
  19     114.6       75.9756        3.1814       90.5070       93.6884      17.712867       0.12384
  18     136.5       75.7842        3.7569       89.4803       93.2372      17.452971       0.09994
  17     162.9       75.5439        4.4354       88.3023       92.7376      17.193761       0.08285
  16     196.4       75.2039        5.3050       86.8607       92.1657      16.961814       0.05838
  15     218.7       74.9711        5.8698       85.9494       91.8192      16.848058       0.04319
  14     243.0       74.7146        6.4782       84.9792       91.4574      16.742778       0.03651
  13     269.0       74.4331        7.1310       83.9498       91.0808      16.647706       0.03084
  12     297.5       74.1260        7.8290       82.8601       90.6891      16.563055       0.02511
  11     328.5       73.7945        8.5746       81.7009       90.2755      16.481008       0.02231
  10     361.9       73.4383        9.3675       80.4725       89.8400      16.401666       0.02007
   9     398.1       73.0566       10.2096       79.1714       89.3810      16.324381       0.01801
   8     437.6       72.6495       11.1011       77.7953       88.8964      16.246897       0.01657
   7     480.5       72.2165       12.0422       76.3434       88.3856      16.169042       0.01529
   6     533.0       71.6895       13.1804       74.5859       87.7663      16.076842       0.01483
   5     589.8       71.1301       14.3830       72.7227       87.1057      15.975599       0.01503
   4     651.6       70.5413       15.6480       70.7478       86.3958      15.854502       0.01656
   3     718.7       69.9258       16.9736       68.6568       85.6304      15.704535       0.01885
   2     792.3       69.2921       18.3544       66.4416       84.7959      15.503871       0.02301
   1     891.5       68.4895       20.1526       63.4790       83.6315      15.142051       0.03079
   0    1013.0       67.6079       22.2158       59.9822       82.1981      14.590156       0.03832



 Wavenumbers: 22650. - 29000. cm-1, ATM      1
 LEVEL PRESSURE   UPWARD FLUX   DIFDOWN FLUX  DIRDOWN FLUX  DOWNWARD FLUX   NET FLUX    HEATING RATE
          mb          W/m2          W/m2          W/m2        W/m2          W/m2       degree/day
  51    .06700       34.6315        0.0000       38.0063       38.0063       3.374760       0.00000
  50    .07753       34.6314        0.0004       38.0057       38.0061       3.374760       0.00000
  49    .09103       34.6312        0.0009       38.0050       38.0059       3.374760      -0.00000
  48    0.1069       34.6309        0.0014       38.0042       38.0057       3.374760      -0.00000
  47    0.1255       34.6306        0.0021       38.0033       38.0054       3.374760       0.00000
  46    0.1487       34.6303        0.0029       38.0022       38.0051       3.374760       0.00000
  45    0.1794       34.6298        0.0040       38.0006       38.0046       3.374760       0.00000
  44    0.2165       34.6293        0.0053       37.9987       38.0040       3.374760      -0.00000
  43    0.2613       34.6286        0.0068       37.9965       38.0034       3.374760       0.00000
  42    0.3336       34.6275        0.0094       37.9928       38.0023       3.374760      -0.00000
  41    0.4307       34.6260        0.0128       37.9880       38.0008       3.374760       0.00000
  40    0.5894       34.6237        0.0184       37.9800       37.9984       3.374760      -0.00000
  39     1.339       34.6124        0.0447       37.9425       37.9871       3.374760       0.00000
  38     1.782       34.6058        0.0601       37.9204       37.9805       3.374760       0.00000
  37     2.292       34.5981        0.0780       37.8949       37.9729       3.374760       0.00000
  36     2.964       34.5881        0.1014       37.8614       37.9628       3.374760       0.00000
  35     3.853       34.5748        0.1323       37.8172       37.9496       3.374760      -0.00000
  34     5.035       34.5572        0.1734       37.7586       37.9320       3.374760      -0.00000
  33     6.613       34.5337        0.2282       37.6803       37.9085       3.374760       0.00000
  32     8.786       34.5021        0.3018       37.5750       37.8769       3.374760      -0.00000
  31     11.80       34.4570        0.4069       37.4249       37.8318       3.374760      -0.00000
  30     15.07       34.4088        0.5194       37.2642       37.7835       3.374760       0.00000
  29     18.79       34.3544        0.6459       37.0833       37.7292       3.374760       0.00000
  28     23.16       34.2912        0.7930       36.8730       37.6660       3.374760       0.00000
  27     28.12       34.2193        0.9603       36.6338       37.5941       3.374760      -0.00000
  26     33.73       34.1393        1.1463       36.3677       37.5140       3.374760      -0.00000
  25     40.54       34.0432        1.3694       36.0486       37.4180       3.374760       0.00000
  24     48.69       33.9284        1.6359       35.6672       37.3031       3.374760      -0.00000
  23     57.69       33.8034        1.9255       35.2527       37.1782       3.374760       0.00000
  22     68.43       33.6562        2.2661       34.7649       37.0310       3.374760       0.00000
  21     81.20       33.4832        2.6657       34.1922       36.8580       3.374760      -0.00000
  20     96.49       33.2804        3.1334       33.5217       36.6551       3.374760       0.00000
  19     114.6       33.0442        3.6766       32.7424       36.4189       3.374760       0.00000
  18     136.5       32.7706        4.3038       31.8416       36.1454       3.374760       0.00000
  17     162.9       32.4538        5.0277       30.8008       35.8285       3.374760       0.00000
  16     196.4       32.0567        5.9307       29.5007       35.4314       3.374760      -0.00000
  15     218.7       31.8042        6.5022       28.6767       35.1789       3.374760      -0.00000
  14     243.0       31.5369        7.1048       27.8068       34.9116       3.374760       0.00000
  13     269.0       31.2553        7.7367       26.8934       34.6301       3.374760      -0.00000
  12     297.5       30.9603        8.3956       25.9394       34.3350       3.374760       0.00000
  11     328.5       30.6517        9.0810       24.9454       34.0264       3.374760       0.00000
  10     361.9       30.3309        9.7891       23.9166       33.7057       3.374760       0.00000
   9     398.1       29.9983       10.5180       22.8551       33.3731       3.374760       0.00000
   8     437.6       29.6554       11.2636       21.7666       33.0302       3.374760      -0.00000
   7     480.5       29.3031       12.0228       20.6551       32.6779       3.374760      -0.00000
   6     533.0       28.8903       12.9026       19.3625       32.2651       3.374760       0.00000
   5     589.8       28.4692       13.7882       18.0557       31.8439       3.374760       0.00000
   4     651.6       28.0412       14.6746       16.7414       31.4160       3.374760       0.00000
   3     718.7       27.6099       15.5517       15.4330       30.9847       3.374760      -0.00000
   2     792.3       27.1771       16.4137       14.1382       30.5519       3.374760       0.00000
   1     891.5       26.6371       17.4590       12.5529       30.0119       3.374760       0.00000
   0    1013.0       26.0477       18.5551       10.8674       29.4225       3.374760      -0.00000



 Wavenumbers: 29000. - 38000. cm-1, ATM      1
 LEVEL PRESSURE   UPWARD FLUX   DIFDOWN FLUX  DIRDOWN FLUX  DOWNWARD FLUX   NET FLUX    HEATING RATE
          mb          W/m2          W/m2          W/m2        W/m2          W/m2       degree/day
  51    .06700        4.9420        0.0000       13.4026       13.4026       8.460632       0.00000
  50    .07753        4.9417        0.0003       13.3983       13.3986       8.456833       3.04443
  49    .09103        4.9415        0.0007       13.3921       13.3928       8.451314       3.44972
  48    0.1069        4.9412        0.0011       13.3840       13.3851       8.443937       3.92683
  47    0.1255        4.9408        0.0016       13.3733       13.3749       8.434092       4.46325
  46    0.1487        4.9404        0.0022       13.3579       13.3600       8.419649       5.26447
  45    0.1794        4.9398        0.0030       13.3340       13.3371       8.397249       6.14937
  44    0.2165        4.9392        0.0040       13.3024       13.3064       8.367230       6.82889
  43    0.2613        4.9384        0.0052       13.2604       13.2656       8.327175       7.55024
  42    0.3336        4.9372        0.0070       13.1833       13.1903       8.253167       8.62859
  41    0.4307        4.9356        0.0095       13.0729       13.0824       8.146793       9.24899
  40    0.5894        4.9333        0.0134       12.8796       12.8930       7.959746       9.94693
  39     1.339        4.9248        0.0297       11.9165       11.9462       7.021377      10.56433
  38     1.782        4.9216        0.0380       11.4399       11.4779       6.556371       8.85297
  37     2.292        4.9191        0.0469       10.9796       11.0265       6.107402       7.43610
  36     2.964        4.9178        0.0578       10.4786       10.5365       5.618711       6.13455
  35     3.853        4.9185        0.0713        9.9429       10.0142       5.095756       4.96294
  34     5.035        4.9220        0.0882        9.4007        9.4889       4.566876       3.77810
  33     6.613        4.9285        0.1096        8.8752        8.9848       4.056275       2.72967
  32     8.786        4.9375        0.1371        8.3786        8.5157       3.578266       1.85641
  31     11.80        4.9484        0.1750        7.8897        8.0647       3.116245       1.29351
  30     15.07        4.9579        0.2141        7.5108        7.7249       2.766970       0.90176
  29     18.79        4.9667        0.2566        7.1776        7.4342       2.467512       0.67896
  28     23.16        4.9749        0.3046        6.8664        7.1710       2.196136       0.52475
  27     28.12        4.9815        0.3576        6.5780        6.9356       1.954081       0.41148
  26     33.73        4.9842        0.4153        6.3195        6.7348       1.750561       0.30600
  25     40.54        4.9819        0.4835        6.0663        6.5497       1.567846       0.22668
  24     48.69        4.9739        0.5633        5.8128        6.3761       1.402243       0.17137
  23     57.69        4.9602        0.6485        5.5777        6.2262       1.266017       0.12769
  22     68.43        4.9385        0.7471        5.3379        6.0850       1.146476       0.09398
  21     81.20        4.9047        0.8616        5.0965        5.9581       1.053385       0.06151
  20     96.49        4.8574        0.9938        4.8476        5.8414       0.984032       0.03828
  19     114.6        4.7998        1.1436        4.5799        5.7234       0.923634       0.02820
  18     136.5        4.7330        1.3109        4.2891        5.6000       0.866993       0.02178
  17     162.9        4.6568        1.4966        3.9732        5.4698       0.812963       0.01727
  16     196.4        4.5602        1.7190        3.6080        5.3270       0.766744       0.01163
  15     218.7        4.4994        1.8543        3.3898        5.2441       0.744725       0.00836
  14     243.0        4.4361        1.9923        3.1686        5.1608       0.724742       0.00693
  13     269.0        4.3707        2.1318        2.9461        5.0779       0.707106       0.00572
  12     297.5        4.3037        2.2716        2.7239        4.9955       0.691838       0.00453
  11     328.5        4.2358        2.4104        2.5029        4.9132       0.677487       0.00390
  10     361.9        4.1674        2.5469        2.2846        4.8315       0.664076       0.00339
   9     398.1        4.0991        2.6799        2.0708        4.7507       0.651598       0.00291
   8     437.6        4.0313        2.8080        1.8631        4.6711       0.639788       0.00252
   7     480.5        3.9643        2.9305        1.6626        4.5931       0.628773       0.00216
   6     533.0        3.8893        3.0618        1.4445        4.5063       0.616987       0.00190
   5     589.8        3.8165        3.1821        1.2402        4.4223       0.605795       0.00166
   4     651.6        3.7466        3.2902        1.0514        4.3417       0.595044       0.00147
   3     718.7        3.6798        3.3851        0.8794        4.2645       0.584697       0.00130
   2     792.3        3.6163        3.4660        0.7250        4.1910       0.574733       0.00114
   1     891.5        3.5414        3.5472        0.5569        4.1041       0.562647       0.00103
   0    1013.0        3.4648        3.6107        0.4037        4.0143       0.549559       0.00091



 Wavenumbers: 38000. - 50000. cm-1, ATM      1
 LEVEL PRESSURE   UPWARD FLUX   DIFDOWN FLUX  DIRDOWN FLUX  DOWNWARD FLUX   NET FLUX    HEATING RATE
          mb          W/m2          W/m2          W/m2        W/m2          W/m2       degree/day
  51    .06700        0.0051        0.0000        0.8267        0.8267       0.821528       0.00000
  50    .07753        0.0051        0.0001        0.8242        0.8243       0.819196       1.86936
  49    .09103        0.0050        0.0002        0.8207        0.8209       0.815872       2.07705
  48    0.1069        0.0049        0.0002        0.8162        0.8164       0.811514       2.31984
  47    0.1255        0.0048        0.0004        0.8103        0.8106       0.805801       2.59006
  46    0.1487        0.0047        0.0005        0.8018        0.8023       0.797567       3.00143
  45    0.1794        0.0045        0.0007        0.7889        0.7896       0.785013       3.44648
  44    0.2165        0.0044        0.0009        0.7720        0.7729       0.768507       3.75474
  43    0.2613        0.0042        0.0011        0.7500        0.7511       0.746955       4.06246
  42    0.3336        0.0039        0.0015        0.7106        0.7121       0.708267       4.51071
  41    0.4307        0.0035        0.0019        0.6566        0.6584       0.654972       4.63387
  40    0.5894        0.0029        0.0024        0.5680        0.5704       0.567464       4.65357
  39     1.339        0.0015        0.0030        0.2422        0.2452       0.243720       3.64476
  38     1.782        0.0010        0.0026        0.1493        0.1519       0.150889       1.76735
  37     2.292        0.0007        0.0022        0.0924        0.0946       0.093932       0.94336
  36     2.964        0.0005        0.0018        0.0539        0.0557       0.055224       0.48589
  35     3.853        0.0003        0.0013        0.0295        0.0308       0.030502       0.23462
  34     5.035        0.0002        0.0010        0.0154        0.0164       0.016181       0.10230
  33     6.613        0.0001        0.0007        0.0073        0.0080       0.007912       0.04420
  32     8.786        0.0000        0.0004        0.0030        0.0034       0.003390       0.01756
  31     11.80        0.0000        0.0003        0.0010        0.0012       0.001199       0.00613
  30     15.07        0.0000        0.0001        0.0003        0.0005       0.000463       0.00190
  29     18.79        0.0000        0.0001        0.0001        0.0002       0.000182       0.00064
  28     23.16        0.0000        0.0000        0.0000        0.0001       0.000071       0.00022
  27     28.12        0.0000        0.0000        0.0000        0.0000       0.000028       0.00007
  26     33.73        0.0000        0.0000        0.0000        0.0000       0.000011       0.00002
  25     40.54        0.0000        0.0000        0.0000        0.0000       0.000005       0.00001
  24     48.69        0.0000        0.0000        0.0000        0.0000       0.000002       0.00000
  23     57.69        0.0000        0.0000        0.0000        0.0000       0.000001       0.00000
  22     68.43        0.0000        0.0000        0.0000        0.0000       0.000000       0.00000
  21     81.20        0.0000        0.0000        0.0000        0.0000       0.000000       0.00000
  20     96.49        0.0000        0.0000        0.0000        0.0000       0.000000       0.00000
  19     114.6        0.0000        0.0000        0.0000        0.0000       0.000000       0.00000
  18     136.5        0.0000        0.0000        0.0000        0.0000       0.000000       0.00000
  17     162.9        0.0000        0.0000        0.0000        0.0000       0.000000       0.00000
  16     196.4        0.0000        0.0000        0.0000        0.0000       0.000000       0.00000
  15     218.7        0.0000        0.0000        0.0000        0.0000       0.000000       0.00000
  14     243.0        0.0000        0.0000        0.0000        0.0000       0.000000       0.00000
  13     269.0        0.0000        0.0000        0.0000        0.0000       0.000000       0.00000
  12     297.5        0.0000        0.0000        0.0000        0.0000       0.000000       0.00000
  11     328.5        0.0000        0.0000        0.0000        0.0000       0.000000       0.00000
  10     361.9        0.0000        0.0000        0.0000        0.0000       0.000000       0.00000
   9     398.1        0.0000        0.0000        0.0000        0.0000       0.000000       0.00000
   8     437.6        0.0000        0.0000        0.0000        0.0000       0.000000       0.00000
   7     480.5        0.0000        0.0000        0.0000        0.0000       0.000000       0.00000
   6     533.0        0.0000        0.0000        0.0000        0.0000       0.000000       0.00000
   5     589.8        0.0000        0.0000        0.0000        0.0000       0.000000       0.00000
   4     651.6        0.0000        0.0000        0.0000        0.0000       0.000000       0.00000
   3     718.7        0.0000        0.0000        0.0000        0.0000       0.000000       0.00000
   2     792.3        0.0000        0.0000        0.0000        0.0000       0.000000       0.00000
   1     891.5        0.0000        0.0000        0.0000        0.0000       0.000000       0.00000
   0    1013.0        0.0000        0.0000        0.0000        0.0000       0.000000       0.00000



 Wavenumbers:   820. -  2600. cm-1, ATM      1
 LEVEL PRESSURE   UPWARD FLUX   DIFDOWN FLUX  DIRDOWN FLUX  DOWNWARD FLUX   NET FLUX    HEATING RATE
          mb          W/m2          W/m2          W/m2        W/m2          W/m2       degree/day
  51    .06700        0.1101        0.0000        3.8670        3.8670       3.756965       0.00000
  50    .07753        0.1101        0.0000        3.8643        3.8643       3.754239       2.18510
  49    .09103        0.1101        0.0000        3.8635        3.8635       3.753417       0.51376
  48    0.1069        0.1101        0.0000        3.8626        3.8626       3.752512       0.48157
  47    0.1255        0.1101        0.0000        3.8616        3.8616       3.751535       0.44311
  46    0.1487        0.1101        0.0000        3.8605        3.8605       3.750404       0.41229
  45    0.1794        0.1101        0.0000        3.8591        3.8591       3.749039       0.37466
  44    0.2165        0.1101        0.0000        3.8577        3.8577       3.747626       0.32151
  43    0.2613        0.1101        0.0000        3.8562        3.8562       3.746122       0.28348
  42    0.3336        0.1101        0.0000        3.8539        3.8539       3.743816       0.26886
  41    0.4307        0.1101        0.0000        3.8509        3.8509       3.740839       0.25878
  40    0.5894        0.1101        0.0000        3.8460        3.8460       3.735956       0.25968
  39     1.339        0.1101        0.0000        3.8240        3.8240       3.713936       0.24790
  38     1.782        0.1101        0.0000        3.8119        3.8119       3.701818       0.23071
  37     2.292        0.1101        0.0000        3.7986        3.7986       3.688501       0.22057
  36     2.964        0.1101        0.0000        3.7823        3.7823       3.672209       0.20451
  35     3.853        0.1101        0.0000        3.7623        3.7623       3.652279       0.18914
  34     5.035        0.1101        0.0000        3.7378        3.7378       3.627763       0.17513
  33     6.613        0.1101        0.0000        3.7076        3.7076       3.597523       0.16167
  32     8.786        0.1101        0.0000        3.6716        3.6716       3.561529       0.13979
  31     11.80        0.1101        0.0000        3.6316        3.6316       3.521517       0.11202
  30     15.07        0.1101        0.0000        3.6017        3.6017       3.491689       0.07701
  29     18.79        0.1101        0.0000        3.5785        3.5785       3.468456       0.05268
  28     23.16        0.1101        0.0000        3.5580        3.5581       3.447995       0.03956
  27     28.12        0.1101        0.0000        3.5377        3.5377       3.427623       0.03463
  26     33.73        0.1101        0.0000        3.5162        3.5162       3.406152       0.03228
  25     40.54        0.1101        0.0000        3.4913        3.4914       3.381291       0.03084
  24     48.69        0.1101        0.0000        3.4628        3.4628       3.352733       0.02955
  23     57.69        0.1101        0.0000        3.4327        3.4327       3.322667       0.02818
  22     68.43        0.1101        0.0000        3.3986        3.3986       3.288562       0.02681
  21     81.20        0.1101        0.0000        3.3606        3.3606       3.250536       0.02513
  20     96.49        0.1101        0.0000        3.3183        3.3183       3.208234       0.02335
  19     114.6        0.1101        0.0000        3.2715        3.2715       3.161393       0.02187
  18     136.5        0.1101        0.0000        3.2206        3.2206       3.110549       0.01955
  17     162.9        0.1101        0.0000        3.1613        3.1613       3.051217       0.01896
  16     196.4        0.1101        0.0000        3.0792        3.0792       2.969079       0.02068
  15     218.7        0.1101        0.0000        3.0115        3.0115       2.901435       0.02568
  14     243.0        0.1101        0.0000        2.9223        2.9223       2.812194       0.03095
  13     269.0        0.1102        0.0000        2.8151        2.8152       2.704995       0.03477
  12     297.5        0.1102        0.0000        2.6710        2.6710       2.560814       0.04276
  11     328.5        0.1103        0.0000        2.4998        2.4998       2.389533       0.04657
  10     361.9        0.1104        0.0000        2.3186        2.3186       2.208172       0.04589
   9     398.1        0.1106        0.0000        2.1555        2.1556       2.044964       0.03802
   8     437.6        0.1108        0.0000        2.0290        2.0290       1.918208       0.02710
   7     480.5        0.1111        0.0000        1.9377        1.9378       1.826705       0.01797
   6     533.0        0.1115        0.0000        1.8432        1.8432       1.731746       0.01528
   5     589.8        0.1121        0.0000        1.7350        1.7350       1.622901       0.01616
   4     651.6        0.1133        0.0000        1.6037        1.6038       1.490452       0.01811
   3     718.7        0.1154        0.0000        1.4647        1.4648       1.349340       0.01773
   2     792.3        0.1193        0.0000        1.3161        1.3161       1.196742       0.01750
   1     891.5        0.1293        0.0000        1.0919        1.0920       0.962705       0.01992
   0    1013.0        0.1534        0.0000        0.7886        0.7886       0.635246       0.02274

  Modules and versions used in this calculation:

       rrtmg_sw.1col.f90:  $Revision$                    rrtmg_sw_init.f90:  $Revision$        
     rrtmgsw_cldprop.f90:  $Revision$                  rrtmgsw_cldprmc.f90:  NOT USED          
     rrtmg_sw_reftra.f90:  $Revision$                  rrtmg_sw_spcvrt.f90:  NOT USED          
     rrtmg_sw_spcvmc.f90:  NOT USED                    rrtmgsw_setcoef.f90:  NOT USED          
     rrtmg_sw_taumol.f90:  $Revision$                  rrtmg_sw_vrtqdr.f90:  NOT USED          
                rrtatm.f:  NOT USED                             util_xxx.f:  NOT USED          
                 extra.f:  NOT USED                       rrtmg_sw_k_g.f90:  $Revision$        

