

 Wavenumbers:   820. - 50000. cm-1, ATM      1
 LEVEL PRESSURE   UPWARD FLUX   DIFDOWN FLUX  DIRDOWN FLUX  DOWNWARD FLUX   NET FLUX    HEATING RATE
          mb          W/m2          W/m2          W/m2        W/m2          W/m2       degree/day
  51    .06700      637.4302        0.0000     1042.4709     1042.4709     405.040704       0.00000
  50    .07753      637.4302        0.0016     1042.4505     1042.4522     405.021944      15.03614
  49    .09103      637.4303        0.0037     1042.4320     1042.4357     405.005486      10.28700
  48    0.1069      637.4303        0.0061     1042.4110     1042.4171     404.986786       9.95431
  47    0.1255      637.4305        0.0088     1042.3858     1042.3946     404.964101      10.28431
  46    0.1487      637.4308        0.0123     1042.3515     1042.3637     404.932900      11.37285
  45    0.1794      637.4314        0.0170     1042.3009     1042.3179     404.886506      12.73643
  44    0.2165      637.4323        0.0225     1042.2360     1042.2585     404.826234      13.71078
  43    0.2613      637.4336        0.0291     1042.1521     1042.1812     404.747590      14.82402
  42    0.3336      637.4363        0.0399     1042.0005     1042.0405     404.604207      16.71702
  41    0.4307      637.4405        0.0542     1041.7840     1041.8382     404.397706      17.95477
  40    0.5894      637.4491        0.0774     1041.3977     1041.4751     404.026050      19.76421
  39     1.339      637.5195        0.1834     1039.1756     1039.3590     401.839543      24.61610
  38     1.782      637.5821        0.2434     1037.8231     1038.0665     400.484413      25.79950
  37     2.292      637.6740        0.3118     1036.3812     1036.6931     399.019104      24.26934
  36     2.964      637.8242        0.4009     1034.7656     1035.1664     397.342219      21.04997
  35     3.853      638.0641        0.5178     1033.0468     1033.5646     395.500486      17.47839
  34     5.035      638.4237        0.6725     1031.2499     1031.9223     393.498640      14.30036
  33     6.613      638.9256        0.8784     1029.3665     1030.2448     391.319227      11.65115
  32     8.786      639.5823        1.1550     1027.3830     1028.5380     388.955667       9.17921
  31     11.80      640.4460        1.5495     1025.1486     1026.6981     386.252095       7.56915
  30     15.07      641.2854        1.9720     1023.1785     1025.1506     383.865184       6.16254
  29     18.79      642.1550        2.4481     1021.2576     1023.7056     381.550583       5.24791
  28     23.16      643.0805        3.0028     1019.2885     1022.2913     379.210878       4.52423
  27     28.12      644.0327        3.6360     1017.2956     1020.9316     376.898959       3.93011
  26     33.73      644.9418        4.3442     1015.3444     1019.6886     374.746875       3.23572
  25     40.54      645.8565        5.1992     1013.2678     1018.4670     372.610479       2.65044
  24     48.69      646.7807        6.2289     1011.0235     1017.2524     370.471718       2.21328
  23     57.69      647.6210        7.3585     1008.7896     1016.1481     368.527058       1.82283
  22     68.43      648.4303        8.7021     1006.3599     1015.0620     366.631652       1.49004
  21     81.20      649.1253       10.3023     1003.7502     1014.0525     364.927144       1.12631
  20     96.49      649.7002       12.2067     1000.8952     1013.1019     363.401702       0.84193
  19     114.6      650.2742       14.4594      997.6356     1012.0950     361.820859       0.73814
  18     136.5      650.8625       17.1127      993.8942     1011.0069     360.144321       0.64467
  17     162.9      651.4802       20.2564      989.5120     1009.7683     358.288145       0.59331
  16     196.4      652.0929       24.2892      983.8102     1008.0993     356.006399       0.57434
  15     218.7      652.4266       26.9167      979.6563     1006.5730     354.146411       0.70617
  14     243.0      652.7581       29.7528      974.5156     1004.2684     351.510242       0.91431
  13     269.0      653.0862       32.8033      968.0356     1000.8388     347.752680       1.21894
  12     297.5      653.4135       36.0731      960.0381      996.1112     342.697709       1.49925
  11     328.5      653.7585       39.5752      951.2558      990.8310     337.072518       1.52947
  10     361.9      654.1256       43.3102      941.7786      985.0888     330.963180       1.54572
   9     398.1      654.5241       47.2898      931.3462      978.6360     324.111906       1.59619
   8     437.6      654.9709       51.5166      919.6553      971.1719     316.201017       1.69140
   7     480.5      655.4816       55.9961      906.8347      962.8308     307.349211       1.73846
   6     533.0      656.1812       61.4383      890.8800      952.3184     296.137208       1.80365
   5     589.8      657.0814       67.2182      873.3127      940.5310     283.449564       1.88326
   4     651.6      658.3696       73.3328      853.1997      926.5324     268.162830       2.09050
   3     718.7      660.2532       79.7798      831.2008      910.9806     250.727341       2.19116
   2     792.3      663.2342       86.5445      807.2067      893.7512     230.516984       2.31790
   1     891.5      669.8543       95.4451      774.8393      870.2844     200.430121       2.56025
   0    1013.0      685.0241      105.8020      737.3868      843.1888     158.164687       2.93471



 Wavenumbers:  2600. -  3250. cm-1, ATM      1
 LEVEL PRESSURE   UPWARD FLUX   DIFDOWN FLUX  DIRDOWN FLUX  DOWNWARD FLUX   NET FLUX    HEATING RATE
          mb          W/m2          W/m2          W/m2        W/m2          W/m2       degree/day
  51    .06700        0.0199        0.0000        9.1877        9.1877       9.167798       0.00000
  50    .07753        0.0199        0.0000        9.1877        9.1877       9.167790       0.00640
  49    .09103        0.0199        0.0000        9.1877        9.1877       9.167780       0.00627
  48    0.1069        0.0199        0.0000        9.1877        9.1877       9.167769       0.00613
  47    0.1255        0.0199        0.0000        9.1877        9.1877       9.167756       0.00600
  46    0.1487        0.0199        0.0000        9.1877        9.1877       9.167739       0.00608
  45    0.1794        0.0199        0.0000        9.1876        9.1876       9.167716       0.00625
  44    0.2165        0.0199        0.0000        9.1876        9.1876       9.167689       0.00613
  43    0.2613        0.0199        0.0000        9.1876        9.1876       9.167657       0.00601
  42    0.3336        0.0199        0.0000        9.1875        9.1875       9.167604       0.00618
  41    0.4307        0.0199        0.0000        9.1875        9.1875       9.167533       0.00622
  40    0.5894        0.0199        0.0000        9.1873        9.1873       9.167413       0.00639
  39     1.339        0.0199        0.0000        9.1866        9.1866       9.166699       0.00804
  38     1.782        0.0199        0.0000        9.1861        9.1861       9.166146       0.01051
  37     2.292        0.0199        0.0000        9.1853        9.1853       9.165413       0.01215
  36     2.964        0.0199        0.0000        9.1843        9.1843       9.164336       0.01351
  35     3.853        0.0199        0.0000        9.1827        9.1827       9.162780       0.01477
  34     5.035        0.0199        0.0000        9.1805        9.1805       9.160564       0.01582
  33     6.613        0.0199        0.0000        9.1774        9.1774       9.157465       0.01657
  32     8.786        0.0199        0.0000        9.1731        9.1731       9.153218       0.01649
  31     11.80        0.0199        0.0000        9.1672        9.1672       9.147248       0.01672
  30     15.07        0.0199        0.0000        9.1611        9.1611       9.141154       0.01573
  29     18.79        0.0199        0.0000        9.1547        9.1547       9.134813       0.01438
  28     23.16        0.0199        0.0000        9.1480        9.1480       9.128116       0.01295
  27     28.12        0.0199        0.0000        9.1411        9.1411       9.121209       0.01174
  26     33.73        0.0199        0.0000        9.1337        9.1337       9.113824       0.01110
  25     40.54        0.0199        0.0000        9.1248        9.1248       9.104876       0.01110
  24     48.69        0.0199        0.0000        9.1136        9.1136       9.093739       0.01152
  23     57.69        0.0199        0.0000        9.1006        9.1006       9.080691       0.01223
  22     68.43        0.0199        0.0000        9.0838        9.0838       9.063892       0.01321
  21     81.20        0.0199        0.0000        9.0621        9.0622       9.042258       0.01430
  20     96.49        0.0199        0.0000        9.0346        9.0347       9.014785       0.01516
  19     114.6        0.0199        0.0000        8.9995        8.9995       8.979640       0.01641
  18     136.5        0.0199        0.0000        8.9568        8.9569       8.936989       0.01640
  17     162.9        0.0199        0.0001        8.9057        8.9058       8.885931       0.01632
  16     196.4        0.0199        0.0001        8.8401        8.8402       8.820325       0.01651
  15     218.7        0.0199        0.0001        8.7947        8.7948       8.774892       0.01725
  14     243.0        0.0199        0.0001        8.7394        8.7395       8.719604       0.01918
  13     269.0        0.0199        0.0001        8.6703        8.6704       8.650566       0.02240
  12     297.5        0.0199        0.0001        8.5859        8.5860       8.566172       0.02503
  11     328.5        0.0199        0.0001        8.4910        8.4911       8.471238       0.02581
  10     361.9        0.0199        0.0001        8.3843        8.3844       8.364485       0.02701
   9     398.1        0.0199        0.0001        8.2588        8.2590       8.239036       0.02923
   8     437.6        0.0200        0.0001        8.1038        8.1039       8.083954       0.03316
   7     480.5        0.0201        0.0001        7.9095        7.9097       7.889606       0.03817
   6     533.0        0.0202        0.0002        7.6309        7.6311       7.610899       0.04484
   5     589.8        0.0203        0.0002        7.2805        7.2806       7.260269       0.05205
   4     651.6        0.0206        0.0002        6.8468        6.8469       6.826291       0.05935
   3     718.7        0.0211        0.0002        6.3689        6.3690       6.347922       0.06012
   2     792.3        0.0219        0.0002        5.8473        5.8475       5.825604       0.05990
   1     891.5        0.0237        0.0002        5.1244        5.1245       5.100773       0.06168
   0    1013.0        0.0287        0.0002        4.2873        4.2874       4.258722       0.05847



 Wavenumbers:  3250. -  4000. cm-1, ATM      1
 LEVEL PRESSURE   UPWARD FLUX   DIFDOWN FLUX  DIRDOWN FLUX  DOWNWARD FLUX   NET FLUX    HEATING RATE
          mb          W/m2          W/m2          W/m2        W/m2          W/m2       degree/day
  51    .06700        0.0005        0.0000       15.4892       15.4892      15.488653       0.00000
  50    .07753        0.0005        0.0000       15.4837       15.4837      15.483216       4.35817
  49    .09103        0.0005        0.0000       15.4791       15.4791      15.478588       2.89263
  48    0.1069        0.0005        0.0000       15.4754       15.4754      15.474887       1.97004
  47    0.1255        0.0005        0.0000       15.4722       15.4722      15.471688       1.45012
  46    0.1487        0.0005        0.0000       15.4689       15.4689      15.468409       1.19534
  45    0.1794        0.0005        0.0000       15.4651       15.4651      15.464591       1.04800
  44    0.2165        0.0005        0.0000       15.4611       15.4611      15.460623       0.90271
  43    0.2613        0.0005        0.0000       15.4569       15.4569      15.456449       0.78685
  42    0.3336        0.0005        0.0000       15.4510       15.4510      15.450494       0.69420
  41    0.4307        0.0005        0.0000       15.4444       15.4444      15.443889       0.57437
  40    0.5894        0.0005        0.0000       15.4353       15.4353      15.434828       0.48183
  39     1.339        0.0005        0.0000       15.4018       15.4018      15.401330       0.37713
  38     1.782        0.0005        0.0000       15.3860       15.3860      15.385551       0.30041
  37     2.292        0.0005        0.0000       15.3704       15.3704      15.369939       0.25856
  36     2.964        0.0005        0.0000       15.3528       15.3528      15.352290       0.22156
  35     3.853        0.0005        0.0000       15.3324       15.3324      15.331899       0.19351
  34     5.035        0.0005        0.0000       15.3079       15.3079      15.307437       0.17475
  33     6.613        0.0005        0.0000       15.2771       15.2771      15.276579       0.16497
  32     8.786        0.0005        0.0000       15.2356       15.2356      15.235096       0.16111
  31     11.80        0.0005        0.0000       15.1742       15.1743      15.173777       0.17167
  30     15.07        0.0005        0.0000       15.1057       15.1057      15.105262       0.17689
  29     18.79        0.0005        0.0000       15.0256       15.0257      15.025198       0.18153
  28     23.16        0.0005        0.0000       14.9302       14.9302      14.929779       0.18451
  27     28.12        0.0005        0.0000       14.8209       14.8210      14.820493       0.18578
  26     33.73        0.0005        0.0000       14.7017       14.7017      14.701289       0.17923
  25     40.54        0.0004        0.0001       14.5654       14.5654      14.564963       0.16913
  24     48.69        0.0004        0.0001       14.4154       14.4154      14.414995       0.15519
  23     57.69        0.0004        0.0001       14.2673       14.2674      14.266971       0.13875
  22     68.43        0.0004        0.0001       14.1078       14.1079      14.107486       0.12538
  21     81.20        0.0004        0.0001       13.9319       13.9320      13.931610       0.11622
  20     96.49        0.0004        0.0001       13.7310       13.7311      13.730763       0.11085
  19     114.6        0.0004        0.0001       13.4881       13.4883      13.487933       0.11338
  18     136.5        0.0003        0.0002       13.2079       13.2081      13.207732       0.10774
  17     162.9        0.0003        0.0002       12.8729       12.8731      12.872786       0.10706
  16     196.4        0.0003        0.0002       12.3889       12.3891      12.388849       0.12181
  15     218.7        0.0002        0.0002       11.9392       11.9395      11.939218       0.17071
  14     243.0        0.0002        0.0003       11.3153       11.3156      11.315375       0.21637
  13     269.0        0.0002        0.0003       10.4992       10.4995      10.499278       0.26474
  12     297.5        0.0002        0.0003        9.5500        9.5502       9.550068       0.28153
  11     328.5        0.0001        0.0003        8.6130        8.6133       8.613136       0.25475
  10     361.9        0.0001        0.0002        7.6889        7.6891       7.688986       0.23382
   9     398.1        0.0001        0.0002        6.7745        6.7747       6.774588       0.21303
   8     437.6        0.0001        0.0002        5.8978        5.8980       5.897936       0.18743
   7     480.5        0.0001        0.0002        5.1057        5.1060       5.105874       0.15556
   6     533.0        0.0001        0.0002        4.2702        4.2704       4.270334       0.13441
   5     589.8        0.0000        0.0002        3.4736        3.4738       3.473754       0.11824
   4     651.6        0.0000        0.0001        2.6654        2.6656       2.665515       0.11053
   3     718.7        0.0000        0.0001        1.8917        1.8918       1.891727       0.09724
   2     792.3        0.0000        0.0001        1.1914        1.1915       1.191456       0.08031
   1     891.5        0.0001        0.0000        0.5303        0.5303       0.530177       0.05627
   0    1013.0        0.0012        0.0000        0.1198        0.1198       0.118594       0.02858



 Wavenumbers:  4000. -  4650. cm-1, ATM      1
 LEVEL PRESSURE   UPWARD FLUX   DIFDOWN FLUX  DIRDOWN FLUX  DOWNWARD FLUX   NET FLUX    HEATING RATE
          mb          W/m2          W/m2          W/m2        W/m2          W/m2       degree/day
  51    .06700        0.5141        0.0000       18.1889       18.1889      17.674806       0.00000
  50    .07753        0.5141        0.0000       18.1889       18.1889      17.674805       0.00080
  49    .09103        0.5141        0.0000       18.1889       18.1889      17.674803       0.00078
  48    0.1069        0.5141        0.0000       18.1889       18.1889      17.674802       0.00076
  47    0.1255        0.5141        0.0000       18.1889       18.1889      17.674800       0.00075
  46    0.1487        0.5141        0.0000       18.1889       18.1889      17.674798       0.00076
  45    0.1794        0.5141        0.0000       18.1889       18.1889      17.674795       0.00078
  44    0.2165        0.5141        0.0000       18.1889       18.1889      17.674792       0.00076
  43    0.2613        0.5141        0.0000       18.1889       18.1889      17.674788       0.00075
  42    0.3336        0.5141        0.0000       18.1889       18.1889      17.674781       0.00077
  41    0.4307        0.5141        0.0000       18.1889       18.1889      17.674773       0.00077
  40    0.5894        0.5141        0.0000       18.1889       18.1889      17.674758       0.00080
  39     1.339        0.5141        0.0000       18.1888       18.1888      17.674668       0.00101
  38     1.782        0.5141        0.0000       18.1887       18.1887      17.674598       0.00133
  37     2.292        0.5141        0.0000       18.1886       18.1886      17.674504       0.00156
  36     2.964        0.5141        0.0000       18.1885       18.1885      17.674364       0.00176
  35     3.853        0.5141        0.0000       18.1883       18.1883      17.674156       0.00197
  34     5.035        0.5141        0.0000       18.1880       18.1880      17.673849       0.00219
  33     6.613        0.5141        0.0000       18.1875       18.1875      17.673397       0.00242
  32     8.786        0.5141        0.0000       18.1868       18.1868      17.672729       0.00259
  31     11.80        0.5141        0.0000       18.1857       18.1858      17.671678       0.00294
  30     15.07        0.5141        0.0001       18.1845       18.1845      17.670444       0.00319
  29     18.79        0.5141        0.0001       18.1830       18.1830      17.668948       0.00339
  28     23.16        0.5141        0.0001       18.1811       18.1812      17.667088       0.00360
  27     28.12        0.5140        0.0001       18.1788       18.1789      17.664830       0.00384
  26     33.73        0.5140        0.0001       18.1759       18.1761      17.662039       0.00420
  25     40.54        0.5140        0.0001       18.1721       18.1723      17.658241       0.00471
  24     48.69        0.5140        0.0002       18.1670       18.1671      17.653161       0.00526
  23     57.69        0.5140        0.0002       18.1609       18.1611      17.647113       0.00567
  22     68.43        0.5139        0.0002       18.1532       18.1534      17.639504       0.00598
  21     81.20        0.5139        0.0003       18.1437       18.1440      17.630090       0.00622
  20     96.49        0.5139        0.0003       18.1321       18.1325      17.618591       0.00635
  19     114.6        0.5138        0.0004       18.1176       18.1180      17.604166       0.00674
  18     136.5        0.5138        0.0005       18.1000       18.1005      17.586722       0.00671
  17     162.9        0.5138        0.0006       18.0785       18.0791      17.565311       0.00684
  16     196.4        0.5137        0.0007       18.0488       18.0495      17.535761       0.00744
  15     218.7        0.5138        0.0008       18.0260       18.0268      17.513075       0.00861
  14     243.0        0.5138        0.0009       17.9954       17.9962      17.482444       0.01062
  13     269.0        0.5139        0.0010       17.9523       17.9532      17.439322       0.01399
  12     297.5        0.5141        0.0011       17.8934       17.8945      17.380381       0.01748
  11     328.5        0.5144        0.0012       17.8208       17.8220      17.307610       0.01979
  10     361.9        0.5148        0.0013       17.7294       17.7307      17.215924       0.02320
   9     398.1        0.5153        0.0014       17.6100       17.6114      17.096133       0.02791
   8     437.6        0.5159        0.0015       17.4516       17.4531      16.937198       0.03398
   7     480.5        0.5168        0.0016       17.2523       17.2539      16.737159       0.03929
   6     533.0        0.5181        0.0018       16.9774       16.9791      16.461078       0.04441
   5     589.8        0.5199        0.0019       16.6573       16.6592      16.139299       0.04776
   4     651.6        0.5228        0.0021       16.2727       16.2748      15.751944       0.05297
   3     718.7        0.5275        0.0022       15.7999       15.8021      15.274598       0.05999
   2     792.3        0.5353        0.0023       15.1649       15.1672      14.631846       0.07372
   1     891.5        0.5540        0.0024       14.1612       14.1636      13.609624       0.08699
   0    1013.0        0.6020        0.0025       12.9994       13.0019      12.399951       0.08399



 Wavenumbers:  4650. -  5150. cm-1, ATM      1
 LEVEL PRESSURE   UPWARD FLUX   DIFDOWN FLUX  DIRDOWN FLUX  DOWNWARD FLUX   NET FLUX    HEATING RATE
          mb          W/m2          W/m2          W/m2        W/m2          W/m2       degree/day
  51    .06700        0.0859        0.0000       17.2167       17.2167      17.130765       0.00000
  50    .07753        0.0859        0.0000       17.2165       17.2165      17.130529       0.18919
  49    .09103        0.0859        0.0000       17.2162       17.2162      17.130233       0.18484
  48    0.1069        0.0859        0.0000       17.2158       17.2158      17.129894       0.18030
  47    0.1255        0.0859        0.0000       17.2154       17.2154      17.129507       0.17572
  46    0.1487        0.0859        0.0000       17.2149       17.2149      17.129020       0.17743
  45    0.1794        0.0859        0.0000       17.2143       17.2143      17.128359       0.18141
  44    0.2165        0.0859        0.0000       17.2135       17.2135      17.127583       0.17655
  43    0.2613        0.0859        0.0000       17.2126       17.2126      17.126672       0.17164
  42    0.3336        0.0859        0.0000       17.2111       17.2111      17.125186       0.17332
  41    0.4307        0.0859        0.0000       17.2092       17.2092      17.123251       0.16822
  40    0.5894        0.0859        0.0000       17.2061       17.2061      17.120178       0.16341
  39     1.339        0.0859        0.0000       17.1929       17.1929      17.106961       0.14880
  38     1.782        0.0859        0.0000       17.1860       17.1860      17.100118       0.13029
  37     2.292        0.0859        0.0000       17.1789       17.1789      17.092958       0.11859
  36     2.964        0.0859        0.0000       17.1705       17.1705      17.084629       0.10455
  35     3.853        0.0859        0.0000       17.1611       17.1611      17.075197       0.08950
  34     5.035        0.0859        0.0000       17.1507       17.1507      17.064841       0.07398
  33     6.613        0.0859        0.0000       17.1397       17.1397      17.053837       0.05882
  32     8.786        0.0859        0.0000       17.1281       17.1282      17.042291       0.04484
  31     11.80        0.0859        0.0001       17.1150       17.1151      17.029251       0.03651
  30     15.07        0.0858        0.0001       17.1028       17.1029      17.017069       0.03145
  29     18.79        0.0858        0.0001       17.0894       17.0895      17.003659       0.03040
  28     23.16        0.0858        0.0001       17.0730       17.0731      16.987324       0.03159
  27     28.12        0.0858        0.0002       17.0528       17.0530      16.967185       0.03423
  26     33.73        0.0858        0.0002       17.0283       17.0285      16.942706       0.03680
  25     40.54        0.0857        0.0002       16.9961       16.9963      16.910572       0.03987
  24     48.69        0.0857        0.0003       16.9542       16.9545      16.868776       0.04325
  23     57.69        0.0856        0.0003       16.9052       16.9055      16.819842       0.04587
  22     68.43        0.0856        0.0004       16.8439       16.8442      16.758628       0.04812
  21     81.20        0.0855        0.0004       16.7684       16.7688      16.683307       0.04977
  20     96.49        0.0855        0.0005       16.6773       16.6778      16.592369       0.05019
  19     114.6        0.0854        0.0006       16.5705       16.5711      16.485710       0.04980
  18     136.5        0.0853        0.0007       16.4485       16.4492      16.363918       0.04683
  17     162.9        0.0852        0.0008       16.3121       16.3130      16.227749       0.04352
  16     196.4        0.0851        0.0010       16.1505       16.1515      16.066371       0.04062
  15     218.7        0.0850        0.0011       16.0516       16.0527      15.967673       0.03747
  14     243.0        0.0850        0.0012       15.9476       15.9489      15.863874       0.03600
  13     269.0        0.0849        0.0013       15.8352       15.8365      15.751609       0.03642
  12     297.5        0.0849        0.0015       15.7086       15.7101      15.625189       0.03749
  11     328.5        0.0849        0.0016       15.5670       15.5686      15.483701       0.03847
  10     361.9        0.0849        0.0018       15.4062       15.4080      15.323091       0.04064
   9     398.1        0.0849        0.0019       15.2201       15.2220      15.137088       0.04333
   8     437.6        0.0850        0.0021       15.0017       15.0037      14.918713       0.04669
   7     480.5        0.0852        0.0022       14.7447       14.7469      14.661720       0.05047
   6     533.0        0.0855        0.0024       14.3963       14.3987      14.313166       0.05607
   5     589.8        0.0860        0.0025       13.9772       13.9798      13.893774       0.06225
   4     651.6        0.0868        0.0027       13.4621       13.4648      13.377997       0.07053
   3     718.7        0.0881        0.0028       12.8570       12.8599      12.771731       0.07619
   2     792.3        0.0902        0.0029       12.1737       12.1766      12.086315       0.07861
   1     891.5        0.0950        0.0030       11.2525       11.2555      11.160478       0.07878
   0    1013.0        0.1055        0.0031       10.2382       10.2413      10.135817       0.07115



 Wavenumbers:  5150. -  6150. cm-1, ATM      1
 LEVEL PRESSURE   UPWARD FLUX   DIFDOWN FLUX  DIRDOWN FLUX  DOWNWARD FLUX   NET FLUX    HEATING RATE
          mb          W/m2          W/m2          W/m2        W/m2          W/m2       degree/day
  51    .06700        1.2246        0.0000       43.1623       43.1623      41.937668       0.00000
  50    .07753        1.2246        0.0000       43.1623       43.1623      41.937629       0.03156
  49    .09103        1.2246        0.0000       43.1622       43.1622      41.937577       0.03205
  48    0.1069        1.2246        0.0000       43.1622       43.1622      41.937516       0.03256
  47    0.1255        1.2246        0.0000       43.1621       43.1621      41.937443       0.03307
  46    0.1487        1.2246        0.0000       43.1620       43.1620      41.937348       0.03484
  45    0.1794        1.2246        0.0000       43.1619       43.1619      41.937213       0.03709
  44    0.2165        1.2246        0.0000       43.1617       43.1617      41.937047       0.03766
  43    0.2613        1.2246        0.0000       43.1615       43.1615      41.936844       0.03825
  42    0.3336        1.2246        0.0000       43.1611       43.1611      41.936497       0.04043
  41    0.4307        1.2246        0.0000       43.1607       43.1607      41.936026       0.04100
  40    0.5894        1.2246        0.0000       43.1599       43.1599      41.935235       0.04205
  39     1.339        1.2246        0.0000       43.1560       43.1560      41.931413       0.04303
  38     1.782        1.2246        0.0000       43.1537       43.1538      41.929178       0.04254
  37     2.292        1.2246        0.0001       43.1512       43.1512      41.926641       0.04203
  36     2.964        1.2246        0.0001       43.1479       43.1480      41.923404       0.04063
  35     3.853        1.2246        0.0001       43.1437       43.1438      41.919269       0.03924
  34     5.035        1.2245        0.0001       43.1383       43.1384      41.913907       0.03830
  33     6.613        1.2245        0.0002       43.1312       43.1314      41.906889       0.03752
  32     8.786        1.2245        0.0002       43.1219       43.1221      41.897687       0.03574
  31     11.80        1.2244        0.0003       43.1091       43.1094      41.885043       0.03540
  30     15.07        1.2243        0.0004       43.0961       43.0964      41.872130       0.03334
  29     18.79        1.2242        0.0005       43.0821       43.0826      41.858371       0.03119
  28     23.16        1.2242        0.0006       43.0668       43.0674      41.843240       0.02926
  27     28.12        1.2241        0.0007       43.0503       43.0510      41.826970       0.02766
  26     33.73        1.2239        0.0009       43.0332       43.0340      41.810096       0.02537
  25     40.54        1.2238        0.0010       43.0141       43.0151      41.791308       0.02331
  24     48.69        1.2237        0.0012       42.9932       42.9945      41.770801       0.02122
  23     57.69        1.2235        0.0015       42.9721       42.9736      41.750061       0.01944
  22     68.43        1.2233        0.0017       42.9488       42.9505      41.727196       0.01797
  21     81.20        1.2231        0.0021       42.9226       42.9246      41.701576       0.01693
  20     96.49        1.2228        0.0025       42.8927       42.8951      41.672321       0.01615
  19     114.6        1.2225        0.0029       42.8579       42.8608      41.638328       0.01587
  18     136.5        1.2221        0.0035       42.8170       42.8204      41.598334       0.01538
  17     162.9        1.2217        0.0041       42.7556       42.7597      41.538061       0.01927
  16     196.4        1.2211        0.0049       42.6255       42.6304      41.409315       0.03241
  15     218.7        1.2208        0.0055       42.4373       42.4428      41.221998       0.07112
  14     243.0        1.2204        0.0060       42.0772       42.0832      40.862799       0.12458
  13     269.0        1.2200        0.0065       41.4080       41.4146      40.194541       0.21678
  12     297.5        1.2197        0.0070       40.4153       40.4224      39.202640       0.29419
  11     328.5        1.2194        0.0075       39.3711       39.3787      38.159265       0.28369
  10     361.9        1.2192        0.0081       38.2712       38.2793      37.060062       0.27811
   9     398.1        1.2190        0.0085       36.9936       37.0021      35.783079       0.29751
   8     437.6        1.2190        0.0089       35.5013       35.5102      34.291198       0.31897
   7     480.5        1.2192        0.0093       33.8979       33.9072      32.688072       0.31485
   6     533.0        1.2197        0.0098       31.9949       32.0046      30.784970       0.30615
   5     589.8        1.2209        0.0102       30.0510       30.0612      28.840322       0.28865
   4     651.6        1.2235        0.0106       28.0832       28.0937      26.870241       0.26941
   3     718.7        1.2286        0.0110       26.3547       26.3657      25.137132       0.21780
   2     792.3        1.2387        0.0115       24.9127       24.9243      23.685517       0.16648
   1     891.5        1.2669        0.0122       23.3962       23.4084      22.141438       0.13139
   0    1013.0        1.3564        0.0128       21.7246       21.7374      20.381019       0.12223



 Wavenumbers:  6150. -  7700. cm-1, ATM      1
 LEVEL PRESSURE   UPWARD FLUX   DIFDOWN FLUX  DIRDOWN FLUX  DOWNWARD FLUX   NET FLUX    HEATING RATE
          mb          W/m2          W/m2          W/m2        W/m2          W/m2       degree/day
  51    .06700        3.2964        0.0000       79.8304       79.8304      76.533974       0.00000
  50    .07753        3.2964        0.0000       79.8303       79.8303      76.533917       0.04553
  49    .09103        3.2964        0.0000       79.8302       79.8302      76.533844       0.04583
  48    0.1069        3.2964        0.0000       79.8301       79.8301      76.533757       0.04615
  47    0.1255        3.2964        0.0000       79.8300       79.8300      76.533654       0.04646
  46    0.1487        3.2964        0.0000       79.8299       79.8299      76.533521       0.04853
  45    0.1794        3.2964        0.0000       79.8297       79.8297      76.533334       0.05129
  44    0.2165        3.2964        0.0000       79.8295       79.8295      76.533107       0.05170
  43    0.2613        3.2964        0.0000       79.8292       79.8292      76.532831       0.05214
  42    0.3336        3.2964        0.0000       79.8287       79.8287      76.532361       0.05476
  41    0.4307        3.2963        0.0000       79.8280       79.8281      76.531725       0.05528
  40    0.5894        3.2963        0.0001       79.8269       79.8270      76.530664       0.05644
  39     1.339        3.2963        0.0001       79.8217       79.8218      76.525551       0.05756
  38     1.782        3.2962        0.0002       79.8186       79.8188      76.522560       0.05693
  37     2.292        3.2962        0.0002       79.8151       79.8153      76.519154       0.05642
  36     2.964        3.2961        0.0003       79.8106       79.8109      76.514785       0.05484
  35     3.853        3.2960        0.0004       79.8047       79.8052      76.509166       0.05332
  34     5.035        3.2959        0.0005       79.7972       79.7977      76.501844       0.05231
  33     6.613        3.2957        0.0007       79.7872       79.7879      76.492215       0.05148
  32     8.786        3.2955        0.0010       79.7741       79.7750      76.479502       0.04937
  31     11.80        3.2952        0.0013       79.7558       79.7571      76.461850       0.04942
  30     15.07        3.2949        0.0017       79.7368       79.7385      76.443578       0.04717
  29     18.79        3.2945        0.0021       79.7163       79.7183      76.423800       0.04484
  28     23.16        3.2941        0.0025       79.6932       79.6958      76.401680       0.04277
  27     28.12        3.2936        0.0031       79.6680       79.6711      76.377472       0.04115
  26     33.73        3.2930        0.0037       79.6412       79.6449      76.351859       0.03851
  25     40.54        3.2924        0.0044       79.6107       79.6151      76.322755       0.03611
  24     48.69        3.2916        0.0053       79.5765       79.5818      76.290205       0.03368
  23     57.69        3.2907        0.0063       79.5410       79.5473      76.256610       0.03149
  22     68.43        3.2896        0.0075       79.5010       79.5084      76.218808       0.02972
  21     81.20        3.2884        0.0089       79.4553       79.4642      76.175836       0.02840
  20     96.49        3.2869        0.0105       79.4024       79.4129      76.126077       0.02746
  19     114.6        3.2851        0.0125       79.3405       79.3530      76.067896       0.02717
  18     136.5        3.2830        0.0148       79.2670       79.2818      75.998875       0.02654
  17     162.9        3.2804        0.0176       79.1609       79.1786      75.898140       0.03220
  16     196.4        3.2772        0.0212       78.9444       78.9656      75.688470       0.05278
  15     218.7        3.2751        0.0235       78.6410       78.6645      75.389413       0.11354
  14     243.0        3.2728        0.0259       78.0979       78.1238      74.850932       0.18676
  13     269.0        3.2706        0.0283       77.1949       77.2232      73.952647       0.29140
  12     297.5        3.2683        0.0306       75.7395       75.7701      72.501791       0.43031
  11     328.5        3.2661        0.0329       73.9445       73.9774      70.711275       0.48684
  10     361.9        3.2641        0.0352       71.9728       72.0080      68.743895       0.49777
   9     398.1        3.2625        0.0374       69.8133       69.8507      66.588292       0.50221
   8     437.6        3.2613        0.0395       67.3063       67.3457      64.084406       0.53535
   7     480.5        3.2611        0.0413       64.4603       64.5016      61.240477       0.55854
   6     533.0        3.2625        0.0432       60.9165       60.9597      57.697110       0.57002
   5     589.8        3.2674        0.0448       57.1055       57.1503      53.882890       0.56616
   4     651.6        3.2794        0.0458       52.8761       52.9219      49.642536       0.57988
   3     718.7        3.3038        0.0466       48.6308       48.6774      45.373618       0.53648
   2     792.3        3.3524        0.0470       44.4516       44.4986      41.146180       0.48484
   1     891.5        3.4846        0.0473       39.5699       39.6172      36.132639       0.42663
   0    1013.0        3.8871        0.0477       34.9086       34.9563      31.069163       0.35158



 Wavenumbers:  7700. -  8050. cm-1, ATM      1
 LEVEL PRESSURE   UPWARD FLUX   DIFDOWN FLUX  DIRDOWN FLUX  DOWNWARD FLUX   NET FLUX    HEATING RATE
          mb          W/m2          W/m2          W/m2        W/m2          W/m2       degree/day
  51    .06700        6.1918        0.0000       18.8663       18.8663      12.674455       0.00000
  50    .07753        6.1918        0.0000       18.8663       18.8663      12.674433       0.01767
  49    .09103        6.1918        0.0000       18.8662       18.8662      12.674406       0.01732
  48    0.1069        6.1918        0.0000       18.8662       18.8662      12.674374       0.01695
  47    0.1255        6.1919        0.0000       18.8662       18.8662      12.674337       0.01659
  46    0.1487        6.1919        0.0000       18.8661       18.8662      12.674291       0.01683
  45    0.1794        6.1919        0.0000       18.8661       18.8661      12.674228       0.01732
  44    0.2165        6.1919        0.0000       18.8660       18.8660      12.674153       0.01699
  43    0.2613        6.1919        0.0000       18.8660       18.8660      12.674065       0.01667
  42    0.3336        6.1919        0.0000       18.8658       18.8658      12.673918       0.01706
  41    0.4307        6.1920        0.0000       18.8657       18.8657      12.673724       0.01688
  40    0.5894        6.1920        0.0000       18.8654       18.8654      12.673407       0.01686
  39     1.339        6.1923        0.0001       18.8641       18.8642      12.671907       0.01689
  38     1.782        6.1925        0.0001       18.8634       18.8635      12.671026       0.01678
  37     2.292        6.1926        0.0001       18.8625       18.8627      12.670006       0.01690
  36     2.964        6.1929        0.0002       18.8614       18.8616      12.668666       0.01682
  35     3.853        6.1932        0.0002       18.8599       18.8601      12.666896       0.01680
  34     5.035        6.1937        0.0003       18.8579       18.8582      12.664543       0.01680
  33     6.613        6.1942        0.0004       18.8553       18.8556      12.661400       0.01680
  32     8.786        6.1950        0.0005       18.8517       18.8522      12.657163       0.01645
  31     11.80        6.1961        0.0007       18.8466       18.8472      12.651101       0.01697
  30     15.07        6.1973        0.0008       18.8411       18.8419      12.644591       0.01681
  29     18.79        6.1987        0.0010       18.8349       18.8359      12.637238       0.01667
  28     23.16        6.2003        0.0013       18.8277       18.8290      12.628648       0.01661
  27     28.12        6.2022        0.0016       18.8194       18.8210      12.618828       0.01669
  26     33.73        6.2042        0.0019       18.8102       18.8121      12.607842       0.01652
  25     40.54        6.2067        0.0023       18.7991       18.8013      12.594575       0.01646
  24     48.69        6.2098        0.0027       18.7857       18.7884      12.578593       0.01654
  23     57.69        6.2131        0.0032       18.7710       18.7742      12.561054       0.01644
  22     68.43        6.2172        0.0038       18.7536       18.7574      12.540191       0.01640
  21     81.20        6.2220        0.0045       18.7329       18.7374      12.515374       0.01640
  20     96.49        6.2278        0.0053       18.7083       18.7137      12.485860       0.01629
  19     114.6        6.2348        0.0063       18.6794       18.6857      12.450902       0.01632
  18     136.5        6.2432        0.0075       18.6452       18.6528      12.409585       0.01589
  17     162.9        6.2533        0.0089       18.6049       18.6138      12.360543       0.01568
  16     196.4        6.2667        0.0108       18.5531       18.5638      12.297185       0.01595
  15     218.7        6.2756        0.0120       18.5193       18.5313      12.255688       0.01575
  14     243.0        6.2855        0.0133       18.4828       18.4961      12.210626       0.01563
  13     269.0        6.2963        0.0147       18.4434       18.4581      12.161771       0.01585
  12     297.5        6.3084        0.0162       18.4010       18.4172      12.108824       0.01570
  11     328.5        6.3217        0.0178       18.3553       18.3731      12.051386       0.01562
  10     361.9        6.3365        0.0196       18.3061       18.3257      11.989150       0.01575
   9     398.1        6.3530        0.0215       18.2530       18.2745      11.921509       0.01576
   8     437.6        6.3715        0.0236       18.1957       18.2192      11.847723       0.01578
   7     480.5        6.3923        0.0258       18.1336       18.1594      11.767068       0.01584
   6     533.0        6.4194        0.0285       18.0559       18.0844      11.664983       0.01642
   5     589.8        6.4511        0.0314       17.9696       18.0010      11.549942       0.01708
   4     651.6        6.4891        0.0345       17.8712       17.9057      11.416636       0.01823
   3     718.7        6.5358        0.0378       17.7571       17.7950      11.259157       0.01979
   2     792.3        6.5953        0.0414       17.6210       17.6624      11.067094       0.02203
   1     891.5        6.6964        0.0460       17.4089       17.4549      10.758538       0.02626
   0    1013.0        6.8592        0.0514       17.1096       17.1610      10.301722       0.03172



 Wavenumbers:  8050. - 12850. cm-1, ATM      1
 LEVEL PRESSURE   UPWARD FLUX   DIFDOWN FLUX  DIRDOWN FLUX  DOWNWARD FLUX   NET FLUX    HEATING RATE
          mb          W/m2          W/m2          W/m2        W/m2          W/m2       degree/day
  51    .06700      140.3686        0.0000      264.1420      264.1420     123.773359       0.00000
  50    .07753      140.3686        0.0000      264.1419      264.1419     123.773359       0.00000
  49    .09103      140.3686        0.0001      264.1419      264.1419     123.773359      -0.00000
  48    0.1069      140.3686        0.0001      264.1418      264.1419     123.773359       0.00000
  47    0.1255      140.3686        0.0002      264.1417      264.1419     123.773359      -0.00000
  46    0.1487      140.3685        0.0003      264.1416      264.1419     123.773359       0.00000
  45    0.1794      140.3685        0.0004      264.1415      264.1419     123.773359      -0.00000
  44    0.2165      140.3685        0.0005      264.1414      264.1419     123.773359       0.00000
  43    0.2613      140.3685        0.0006      264.1412      264.1418     123.773359       0.00000
  42    0.3336      140.3684        0.0009      264.1409      264.1418     123.773359      -0.00000
  41    0.4307      140.3683        0.0012      264.1405      264.1417     123.773359       0.00000
  40    0.5894      140.3682        0.0017      264.1399      264.1416     123.773359       0.00000
  39     1.339      140.3677        0.0042      264.1369      264.1411     123.773359       0.00000
  38     1.782      140.3674        0.0056      264.1352      264.1408     123.773359       0.00000
  37     2.292      140.3671        0.0073      264.1332      264.1404     123.773359      -0.00000
  36     2.964      140.3666        0.0094      264.1305      264.1400     123.773359      -0.00000
  35     3.853      140.3660        0.0123      264.1271      264.1394     123.773359      -0.00000
  34     5.035      140.3652        0.0162      264.1224      264.1386     123.773359       0.00000
  33     6.613      140.3642        0.0213      264.1162      264.1375     123.773359       0.00000
  32     8.786      140.3627        0.0282      264.1078      264.1361     123.773359      -0.00000
  31     11.80      140.3607        0.0382      264.0959      264.1340     123.773359       0.00000
  30     15.07      140.3584        0.0488      264.0830      264.1318     123.773359       0.00000
  29     18.79      140.3559        0.0609      264.0684      264.1293     123.773359      -0.00000
  28     23.16      140.3530        0.0750      264.0514      264.1264     123.773359       0.00000
  27     28.12      140.3497        0.0911      264.0319      264.1230     123.773359       0.00000
  26     33.73      140.3459        0.1092      264.0100      264.1193     123.773359      -0.00000
  25     40.54      140.3413        0.1311      263.9836      264.1147     123.773359       0.00000
  24     48.69      140.3358        0.1575      263.9517      264.1092     123.773359      -0.00000
  23     57.69      140.3298        0.1866      263.9166      264.1032     123.773359       0.00000
  22     68.43      140.3226        0.2213      263.8747      264.0959     123.773359      -0.00000
  21     81.20      140.3140        0.2627      263.8247      264.0873     123.773359       0.00000
  20     96.49      140.3037        0.3121      263.7649      264.0770     123.773359       0.00000
  19     114.6      140.2917        0.3709      263.6879      264.0587     123.767035       0.00295
  18     136.5      140.2775        0.4407      263.5960      264.0367     123.759184       0.00302
  17     162.9      140.2605        0.5241      263.4826      264.0067     123.746150       0.00417
  16     196.4      140.2387        0.6325      263.3188      263.9514     123.712680       0.00842
  15     218.7      140.2246        0.7039      263.1704      263.8743     123.649698       0.02391
  14     243.0      140.2102        0.7815      262.9261      263.7076     123.497480       0.05279
  13     269.0      140.1965        0.8655      262.5105      263.3760     123.179569       0.10313
  12     297.5      140.1857        0.9561      261.8632      262.8193     122.633595       0.16193
  11     328.5      140.1792        1.0539      261.0460      262.0999     121.920720       0.19383
  10     361.9      140.1797        1.1590      260.0673      261.2263     121.046523       0.22118
   9     398.1      140.1919        1.2717      258.8719      260.1436     119.951648       0.25508
   8     437.6      140.2237        1.3918      257.3477      258.7395     118.515799       0.30699
   7     480.5      140.2844        1.5194      255.4214      256.9408     116.656403       0.36518
   6     533.0      140.4096        1.6743      252.6365      254.3108     113.901240       0.44322
   5     589.8      140.6370        1.8378      249.0286      250.8664     110.229378       0.54502
   4     651.6      141.0762        2.0068      244.0899      246.0967     105.020486       0.71233
   3     718.7      141.8719        2.1801      237.8338      240.0139      98.142062       0.86443
   2     792.3      143.3488        2.3541      230.1592      232.5133      89.164447       1.02963
   1     891.5      147.0879        2.5688      218.8196      221.3884      74.300445       1.26486
   0    1013.0      156.8853        2.8028      205.0199      207.8226      50.937331       1.62222



 Wavenumbers: 12850. - 16000. cm-1, ATM      1
 LEVEL PRESSURE   UPWARD FLUX   DIFDOWN FLUX  DIRDOWN FLUX  DOWNWARD FLUX   NET FLUX    HEATING RATE
          mb          W/m2          W/m2          W/m2        W/m2          W/m2       degree/day
  51    .06700      132.8991        0.0000      165.5083      165.5083      32.609221       0.00000
  50    .07753      132.8991        0.0001      165.5074      165.5075      32.608416       0.64593
  49    .09103      132.8991        0.0002      165.5063      165.5065      32.607397       0.63679
  48    0.1069      132.8992        0.0003      165.5051      165.5054      32.606217       0.62796
  47    0.1255      132.8992        0.0005      165.5036      165.5041      32.604850       0.61983
  46    0.1487      132.8994        0.0007      165.5018      165.5025      32.603107       0.63534
  45    0.1794      132.8995        0.0009      165.4993      165.5002      32.600708       0.65867
  44    0.2165      132.8998        0.0012      165.4964      165.4976      32.597845       0.65107
  43    0.2613      132.9001        0.0015      165.4930      165.4945      32.594427       0.64441
  42    0.3336      132.9007        0.0021      165.4873      165.4894      32.588735       0.66366
  41    0.4307      132.9016        0.0029      165.4799      165.4828      32.581191       0.65591
  40    0.5894      132.9034        0.0042      165.4681      165.4723      32.568875       0.65492
  39     1.339      132.9169        0.0101      165.4152      165.4253      32.508433       0.68047
  38     1.782      132.9284        0.0136      165.3851      165.3987      32.470339       0.72526
  37     2.292      132.9451        0.0176      165.3502      165.3678      32.422704       0.78895
  36     2.964      132.9723        0.0229      165.3031      165.3261      32.353737       0.86575
  35     3.853      133.0156        0.0300      165.2385      165.2685      32.252844       0.95749
  34     5.035      133.0803        0.0393      165.1507      165.1900      32.109688       1.02265
  33     6.613      133.1704        0.0517      165.0348      165.0865      31.916059       1.03514
  32     8.786      133.2880        0.0685      164.8862      164.9547      31.666702       0.96841
  31     11.80      133.4418        0.0924      164.6904      164.7829      31.341031       0.91178
  30     15.07      133.5903        0.1182      164.4977      164.6158      31.025478       0.81469
  29     18.79      133.7431        0.1472      164.2951      164.4424      30.699260       0.73964
  28     23.16      133.9043        0.1812      164.0759      164.2571      30.352824       0.66989
  27     28.12      134.0683        0.2201      163.8451      164.0651      29.996837       0.60515
  26     33.73      134.2230        0.2636      163.6149      163.8785      29.655524       0.51317
  25     40.54      134.3764        0.3162      163.3695      163.6857      29.309365       0.42945
  24     48.69      134.5287        0.3798      163.1058      163.4856      28.956811       0.36484
  23     57.69      134.6646        0.4497      162.8478      163.2975      28.632926       0.30359
  22     68.43      134.7921        0.5331      162.5754      163.1085      28.316370       0.24886
  21     81.20      134.8972        0.6326      162.2987      162.9313      28.034036       0.18656
  20     96.49      134.9791        0.7516      162.0150      162.7665      27.787385       0.13613
  19     114.6      135.0763        0.8947      161.7046      162.5992      27.522902       0.12349
  18     136.5      135.1723        1.0646      161.3598      162.4243      27.252049       0.10415
  17     162.9      135.2688        1.2671      160.9693      162.2365      26.967677       0.09090
  16     196.4      135.3564        1.5304      160.4940      162.0243      26.667921       0.07545
  15     218.7      135.4005        1.7035      160.1900      161.8935      26.493025       0.06640
  14     243.0      135.4428        1.8919      159.8598      161.7517      26.308888       0.06386
  13     269.0      135.4834        2.0964      159.5003      161.5967      26.113294       0.06345
  12     297.5      135.5236        2.3177      159.1063      161.4240      25.900395       0.06314
  11     328.5      135.5673        2.5573      158.6728      161.2301      25.662780       0.06461
  10     361.9      135.6162        2.8156      158.1964      161.0120      25.395790       0.06755
   9     398.1      135.6734        3.0941      157.6716      160.7658      25.092383       0.07069
   8     437.6      135.7442        3.3938      157.0903      160.4841      24.739894       0.07536
   7     480.5      135.8340        3.7155      156.4456      160.1611      24.327115       0.08107
   6     533.0      135.9718        4.1121      155.6153      159.7274      23.755626       0.09193
   5     589.8      136.1712        4.5401      154.6574      159.1975      23.026295       0.10826
   4     651.6      136.4901        4.9996      153.5017      158.5013      22.011138       0.13883
   3     718.7      136.9689        5.4889      152.1246      157.6135      20.644624       0.17173
   2     792.3      137.7334        6.0042      150.4363      156.4404      18.707019       0.22222
   1     891.5      139.3778        6.6809      147.7896      154.4704      15.092624       0.30757
   0    1013.0      142.6759        7.4657      144.2043      151.6699       8.994027       0.42346



 Wavenumbers: 16000. - 22650. cm-1, ATM      1
 LEVEL PRESSURE   UPWARD FLUX   DIFDOWN FLUX  DIRDOWN FLUX  DOWNWARD FLUX   NET FLUX    HEATING RATE
          mb          W/m2          W/m2          W/m2        W/m2          W/m2       degree/day
  51    .06700      239.0632        0.0000      263.8846      263.8846      24.821443       0.00000
  50    .07753      239.0633        0.0005      263.8841      263.8846      24.821249       0.15500
  49    .09103      239.0635        0.0011      263.8833      263.8845      24.820968       0.17581
  48    0.1069      239.0637        0.0019      263.8825      263.8843      24.820592       0.20048
  47    0.1255      239.0640        0.0027      263.8814      263.8841      24.820088       0.22852
  46    0.1487      239.0645        0.0037      263.8801      263.8838      24.819345       0.27079
  45    0.1794      239.0652        0.0052      263.8782      263.8834      24.818183       0.31884
  44    0.2165      239.0661        0.0069      263.8759      263.8828      24.816608       0.35834
  43    0.2613      239.0674        0.0089      263.8730      263.8819      24.814471       0.40286
  42    0.3336      239.0698        0.0122      263.8680      263.8802      24.810407       0.47376
  41    0.4307      239.0735        0.0166      263.8611      263.8777      24.804282       0.53257
  40    0.5894      239.0803        0.0239      263.8491      263.8729      24.792600       0.62124
  39     1.339      239.1305        0.0580      263.7788      263.8368      24.706281       0.97180
  38     1.782      239.1731        0.0781      263.7277      263.8058      24.632733       1.40023
  37     2.292      239.2345        0.1013      263.6594      263.7607      24.526250       1.76363
  36     2.964      239.3338        0.1318      263.5557      263.6875      24.353695       2.16609
  35     3.853      239.4914        0.1721      263.3991      263.5712      24.079765       2.59965
  34     5.035      239.7267        0.2255      263.1720      263.3975      23.670798       2.92149
  33     6.613      240.0544        0.2969      262.8594      263.1563      23.101894       3.04136
  32     8.786      240.4823        0.3931      262.4498      262.8429      22.360645       2.87874
  31     11.80      241.0433        0.5306      261.9045      262.4351      21.391836       2.71236
  30     15.07      241.5860        0.6782      261.3658      262.0440      20.458068       2.41081
  29     18.79      242.1454        0.8449      260.7996      261.6446      19.499178       2.17410
  28     23.16      242.7368        1.0397      260.1867      261.2264      18.489567       1.95226
  27     28.12      243.3407        1.2624      259.5418      260.8042      17.463451       1.74433
  26     33.73      243.9125        1.5117      258.8983      260.4100      16.497546       1.45226
  25     40.54      244.4828        1.8133      258.2104      260.0236      15.540825       1.18692
  24     48.69      245.0533        2.1771      257.4677      259.6448      14.591534       0.98237
  23     57.69      245.5665        2.5770      256.7352      259.3122      13.745640       0.79290
  22     68.43      246.0554        3.0537      255.9515      259.0052      12.949826       0.62562
  21     81.20      246.4701        3.6226      255.1376      258.7602      12.290064       0.43596
  20     96.49      246.8083        4.3013      254.2781      258.5795      11.771211       0.28637
  19     114.6      247.1286        5.1070      253.3171      258.4241      11.295551       0.22210
  18     136.5      247.4532        6.0612      252.2185      258.2797      10.826521       0.18035
  17     162.9      247.7890        7.1962      250.9482      258.1444      10.355438       0.15058
  16     196.4      248.1156        8.6667      249.3794      258.0461       9.930430       0.10698
  15     218.7      248.2897        9.6314      248.3788      258.0102       9.720481       0.07971
  14     243.0      248.4597       10.6789      247.3059      257.9848       9.525071       0.06777
  13     269.0      248.6238       11.8127      246.1586      257.9714       9.347584       0.05758
  12     297.5      248.7817       13.0366      244.9337      257.9703       9.188624       0.04715
  11     328.5      248.9424       14.3572      243.6187      257.9760       9.033596       0.04215
  10     361.9      249.1058       15.7771      242.2114      257.9885       8.882702       0.03818
   9     398.1      249.2729       17.3029      240.7048      258.0076       8.734730       0.03447
   8     437.6      249.4464       18.9388      239.0929      258.0317       8.585333       0.03194
   7     480.5      249.6267       20.6897      237.3711      258.0607       8.434085       0.02970
   6     533.0      249.8446       22.8412      235.2567      258.0979       8.253324       0.02908
   5     589.8      250.0818       25.1564      232.9779      258.1343       8.052508       0.02981
   4     651.6      250.3511       27.6413      230.5185      258.1597       7.808628       0.03335
   3     718.7      250.6653       30.3025      227.8628      258.1653       7.500018       0.03878
   2     792.3      251.0556       33.1422      224.9872      258.1294       7.073764       0.04889
   1     891.5      251.7186       36.9556      221.0308      257.9864       6.267784       0.06859
   0    1013.0      252.7414       41.5043      216.1848      257.6890       4.947629       0.09167



 Wavenumbers: 22650. - 29000. cm-1, ATM      1
 LEVEL PRESSURE   UPWARD FLUX   DIFDOWN FLUX  DIRDOWN FLUX  DOWNWARD FLUX   NET FLUX    HEATING RATE
          mb          W/m2          W/m2          W/m2        W/m2          W/m2       degree/day
  51    .06700       98.4060        0.0000       99.5805       99.5805       1.174502       0.00000
  50    .07753       98.4060        0.0006       99.5799       99.5805       1.174502      -0.00000
  49    .09103       98.4060        0.0013       99.5792       99.5805       1.174502      -0.00000
  48    0.1069       98.4061        0.0022       99.5784       99.5806       1.174502       0.00000
  47    0.1255       98.4062        0.0032       99.5775       99.5807       1.174502       0.00000
  46    0.1487       98.4062        0.0044       99.5763       99.5807       1.174502      -0.00000
  45    0.1794       98.4063        0.0061       99.5748       99.5808       1.174502       0.00000
  44    0.2165       98.4065        0.0081       99.5729       99.5810       1.174502       0.00000
  43    0.2613       98.4066        0.0104       99.5707       99.5811       1.174502       0.00000
  42    0.3336       98.4069        0.0144       99.5670       99.5814       1.174502       0.00000
  41    0.4307       98.4072        0.0196       99.5621       99.5817       1.174502       0.00000
  40    0.5894       98.4077        0.0280       99.5542       99.5822       1.174502      -0.00000
  39     1.339       98.4103        0.0682       99.5166       99.5848       1.174502       0.00000
  38     1.782       98.4118        0.0917       99.4945       99.5863       1.174502      -0.00000
  37     2.292       98.4135        0.1190       99.4690       99.5880       1.174502       0.00000
  36     2.964       98.4158        0.1549       99.4354       99.5903       1.174502      -0.00000
  35     3.853       98.4188        0.2022       99.3911       99.5933       1.174502       0.00000
  34     5.035       98.4228        0.2651       99.3322       99.5973       1.174502       0.00000
  33     6.613       98.4281        0.3491       99.2535       99.6026       1.174502      -0.00000
  32     8.786       98.4353        0.4622       99.1476       99.6098       1.174502       0.00000
  31     11.80       98.4455        0.6240       98.9960       99.6200       1.174502      -0.00000
  30     15.07       98.4565        0.7976       98.8334       99.6310       1.174502       0.00000
  29     18.79       98.4690        0.9936       98.6498       99.6435       1.174502       0.00000
  28     23.16       98.4835        1.2224       98.4356       99.6580       1.174502       0.00000
  27     28.12       98.5000        1.4836       98.1909       99.6745       1.174502      -0.00000
  26     33.73       98.5185        1.7755       97.9175       99.6930       1.174502       0.00000
  25     40.54       98.5408        2.1275       97.5878       99.7153       1.174502       0.00000
  24     48.69       98.5676        2.5508       97.1913       99.7421       1.174502      -0.00000
  23     57.69       98.5969        3.0145       96.7570       99.7714       1.174502      -0.00000
  22     68.43       98.6317        3.5647       96.2415       99.8062       1.174502       0.00000
  21     81.20       98.6730        4.2174       95.6301       99.8475       1.174502       0.00000
  20     96.49       98.7218        4.9909       94.9054       99.8963       1.174502      -0.00000
  19     114.6       98.7794        5.9031       94.0508       99.9539       1.174502       0.00000
  18     136.5       98.8470        6.9756       93.0459      100.0215       1.174502      -0.00000
  17     162.9       98.9266        8.2404       91.8607      100.1011       1.174502       0.00000
  16     196.4       99.0284        9.8603       90.3426      100.2029       1.174502      -0.00000
  15     218.7       99.0944       10.9118       89.3570      100.2689       1.174502      -0.00000
  14     243.0       99.1653       12.0440       88.2958      100.3398       1.174502       0.00000
  13     269.0       99.2413       13.2583       87.1575      100.4158       1.174502      -0.00000
  12     297.5       99.3224       14.5560       85.9409      100.4969       1.174502      -0.00000
  11     328.5       99.4088       15.9416       84.6416      100.5833       1.174502      -0.00000
  10     361.9       99.5004       17.4146       83.2604      100.6749       1.174502       0.00000
   9     398.1       99.5975       18.9781       81.7939      100.7720       1.174502       0.00000
   8     437.6       99.7000       20.6327       80.2418      100.8745       1.174502       0.00000
   7     480.5       99.8079       22.3786       78.6038      100.9824       1.174502       0.00000
   6     533.0       99.9379       24.4894       76.6230      101.1124       1.174502       0.00000
   5     589.8      100.0747       26.7188       74.5303      101.2492       1.174502      -0.00000
   4     651.6      100.2180       29.0648       72.3277      101.3925       1.174502       0.00000
   3     718.7      100.3676       31.5249       70.0173      101.5421       1.174502       0.00000
   2     792.3      100.5230       34.0929       67.6046      101.6975       1.174502      -0.00000
   1     891.5      100.7250       37.4554       64.4441      101.8995       1.174502       0.00000
   0    1013.0      100.9561       41.3374       60.7932      102.1306       1.174502      -0.00000



 Wavenumbers: 29000. - 38000. cm-1, ATM      1
 LEVEL PRESSURE   UPWARD FLUX   DIFDOWN FLUX  DIRDOWN FLUX  DOWNWARD FLUX   NET FLUX    HEATING RATE
          mb          W/m2          W/m2          W/m2        W/m2          W/m2       degree/day
  51    .06700       15.3427        0.0000       35.1162       35.1162      19.773528       0.00000
  50    .07753       15.3426        0.0004       35.1119       35.1123      19.769706       3.06356
  49    .09103       15.3424        0.0008       35.1057       35.1065      19.764143       3.47680
  48    0.1069       15.3422        0.0013       35.0976       35.0989      19.756692       3.96611
  47    0.1255       15.3421        0.0019       35.0868       35.0888      19.746721       4.52066
  46    0.1487       15.3419        0.0027       35.0712       35.0739      19.732034       5.35338
  45    0.1794       15.3416        0.0037       35.0470       35.0507      19.709119       6.29080
  44    0.2165       15.3414        0.0050       35.0146       35.0195      19.678146       7.04577
  43    0.2613       15.3411        0.0064       34.9711       34.9775      19.636343       7.87975
  42    0.3336       15.3408        0.0088       34.8897       34.8985      19.557636       9.17647
  41    0.4307       15.3406        0.0119       34.7698       34.7816      19.441020      10.13948
  40    0.5894       15.3406        0.0168       34.5489       34.5658      19.225155      11.47940
  39     1.339       15.3470        0.0387       33.1853       33.2240      17.877028      15.17746
  38     1.782       15.3549        0.0503       32.3007       32.3509      16.996002      16.77332
  37     2.292       15.3677        0.0628       31.3187       31.3815      16.013839      16.26718
  36     2.964       15.3899        0.0785       30.1831       30.2616      14.871691      14.33742
  35     3.853       15.4267        0.0983       28.9695       29.0678      13.641020      11.67929
  34     5.035       15.4831        0.1237       27.7467       27.8703      12.387231       8.95655
  33     6.613       15.5628        0.1567       26.5565       26.7131      11.150333       6.61246
  32     8.786       15.6681        0.2002       25.4315       25.6316       9.963548       4.60904
  31     11.80       15.8081        0.2611       24.3279       24.5890       8.780846       3.31119
  30     15.07       15.9468        0.3255       23.4834       23.8090       7.862185       2.37180
  29     18.79       16.0935        0.3971       22.7549       23.1520       7.058483       1.82224
  28     23.16       16.2538        0.4797       22.0882       22.5678       6.314015       1.43956
  27     28.12       16.4237        0.5730       21.4824       22.0554       5.631721       1.15985
  26     33.73       16.5903        0.6772       20.9522       21.6294       5.039118       0.89099
  25     40.54       16.7620        0.8029       20.4458       21.2487       4.486717       0.68532
  24     48.69       16.9400        0.9538       19.9504       20.9042       3.964182       0.54074
  23     57.69       17.1058        1.1191       19.5016       20.6207       3.514960       0.42108
  22     68.43       17.2683        1.3155       19.0552       20.3708       3.102432       0.32430
  21     81.20       17.4077        1.5507       18.6237       20.1744       2.766736       0.22182
  20     96.49       17.5200        1.8315       18.1945       20.0260       2.506012       0.14390
  19     114.6       17.6261        2.1607       17.7341       19.8949       2.268741       0.11079
  18     136.5       17.7349        2.5433       17.2273       19.7706       2.035665       0.08962
  17     162.9       17.8506        2.9963       16.6629       19.6591       1.808578       0.07259
  16     196.4       17.9597        3.5603       15.9953       19.5557       1.595976       0.05351
  15     218.7       18.0169        3.9229       15.5842       19.5071       1.490251       0.04014
  14     243.0       18.0724        4.3089       15.1546       19.4635       1.391060       0.03440
  13     269.0       18.1252        4.7181       14.7076       19.4257       1.300566       0.02936
  12     297.5       18.1745        5.1500       14.2440       19.3940       1.219517       0.02404
  11     328.5       18.2241        5.6037       13.7610       19.3648       1.140667       0.02144
  10     361.9       18.2737        6.0777       13.2605       19.3382       1.064443       0.01929
   9     398.1       18.3233        6.5718       12.7426       19.3144       0.991085       0.01709
   8     437.6       18.3735        7.0835       12.2091       19.2926       0.919161       0.01538
   7     480.5       18.4237        7.6123       11.6612       19.2735       0.849818       0.01362
   6     533.0       18.4816        8.2353       11.0192       19.2545       0.772880       0.01238
   5     589.8       18.5406        8.8738       10.3638       19.2376       0.696999       0.01126
   4     651.6       18.6013        9.5244        9.6984       19.2228       0.621434       0.01033
   3     718.7       18.6638       10.1827        9.0272       19.2099       0.546115       0.00947
   2     792.3       18.7281       10.8457        8.3535       19.1992       0.471119       0.00860
   1     891.5       18.8118       11.6734        7.5152       19.1886       0.376794       0.00803
   0    1013.0       18.9099       12.5742        6.6061       19.1803       0.270443       0.00738



 Wavenumbers: 38000. - 50000. cm-1, ATM      1
 LEVEL PRESSURE   UPWARD FLUX   DIFDOWN FLUX  DIRDOWN FLUX  DOWNWARD FLUX   NET FLUX    HEATING RATE
          mb          W/m2          W/m2          W/m2        W/m2          W/m2       degree/day
  51    .06700        0.0072        0.0000        2.1659        2.1659       2.158735       0.00000
  50    .07753        0.0072        0.0001        2.1635        2.1635       2.156398       1.87347
  49    .09103        0.0071        0.0002        2.1600        2.1601       2.153059       2.08688
  48    0.1069        0.0070        0.0002        2.1554        2.1557       2.148665       2.33901
  47    0.1255        0.0069        0.0004        2.1494        2.1498       2.142878       2.62370
  46    0.1487        0.0068        0.0005        2.1408        2.1413       2.134481       3.06055
  45    0.1794        0.0067        0.0007        2.1275        2.1282       2.121551       3.54978
  44    0.2165        0.0065        0.0009        2.1099        2.1108       2.104305       3.92317
  43    0.2613        0.0063        0.0011        2.0865        2.0876       2.081345       4.32773
  42    0.3336        0.0060        0.0015        2.0433        2.0448       2.038825       4.95740
  41    0.4307        0.0056        0.0020        1.9807        1.9827       1.977108       5.36616
  40    0.5894        0.0051        0.0027        1.8688        1.8715       1.866443       5.88502
  39     1.339        0.0033        0.0040        1.2620        1.2660       1.262726       6.79676
  38     1.782        0.0026        0.0038        0.9454        0.9492       0.946622       6.01811
  37     2.292        0.0020        0.0033        0.6659        0.6692       0.667180       4.62829
  36     2.964        0.0015        0.0027        0.4331        0.4359       0.434336       2.92289
  35     3.853        0.0011        0.0022        0.2712        0.2734       0.272217       1.53854
  34     5.035        0.0009        0.0017        0.1671        0.1689       0.168005       0.74445
  33     6.613        0.0006        0.0013        0.1018        0.1032       0.102517       0.35010
  32     8.786        0.0005        0.0011        0.0621        0.0631       0.062658       0.15480
  31     11.80        0.0003        0.0008        0.0361        0.0369       0.036601       0.07295
  30     15.07        0.0002        0.0006        0.0222        0.0227       0.022535       0.03632
  29     18.79        0.0001        0.0004        0.0135        0.0139       0.013785       0.01984
  28     23.16        0.0001        0.0003        0.0080        0.0083       0.008179       0.01084
  27     28.12        0.0001        0.0002        0.0046        0.0048       0.004749       0.00583
  26     33.73        0.0000        0.0001        0.0027        0.0028       0.002762       0.00299
  25     40.54        0.0000        0.0001        0.0015        0.0016       0.001538       0.00152
  24     48.69        0.0000        0.0000        0.0008        0.0008       0.000809       0.00075
  23     57.69        0.0000        0.0000        0.0004        0.0004       0.000422       0.00036
  22     68.43        0.0000        0.0000        0.0002        0.0002       0.000206       0.00017
  21     81.20        0.0000        0.0000        0.0001        0.0001       0.000094       0.00007
  20     96.49        0.0000        0.0000        0.0000        0.0000       0.000039       0.00003
  19     114.6        0.0000        0.0000        0.0000        0.0000       0.000014       0.00001
  18     136.5        0.0000        0.0000        0.0000        0.0000       0.000004       0.00000
  17     162.9        0.0000        0.0000        0.0000        0.0000       0.000001       0.00000
  16     196.4        0.0000        0.0000        0.0000        0.0000       0.000000       0.00000
  15     218.7        0.0000        0.0000        0.0000        0.0000       0.000000       0.00000
  14     243.0        0.0000        0.0000        0.0000        0.0000       0.000000       0.00000
  13     269.0        0.0000        0.0000        0.0000        0.0000       0.000000       0.00000
  12     297.5        0.0000        0.0000        0.0000        0.0000       0.000000       0.00000
  11     328.5        0.0000        0.0000        0.0000        0.0000       0.000000       0.00000
  10     361.9        0.0000        0.0000        0.0000        0.0000       0.000000       0.00000
   9     398.1        0.0000        0.0000        0.0000        0.0000       0.000000       0.00000
   8     437.6        0.0000        0.0000        0.0000        0.0000       0.000000       0.00000
   7     480.5        0.0000        0.0000        0.0000        0.0000       0.000000       0.00000
   6     533.0        0.0000        0.0000        0.0000        0.0000       0.000000       0.00000
   5     589.8        0.0000        0.0000        0.0000        0.0000       0.000000       0.00000
   4     651.6        0.0000        0.0000        0.0000        0.0000       0.000000       0.00000
   3     718.7        0.0000        0.0000        0.0000        0.0000       0.000000       0.00000
   2     792.3        0.0000        0.0000        0.0000        0.0000       0.000000       0.00000
   1     891.5        0.0000        0.0000        0.0000        0.0000       0.000000       0.00000
   0    1013.0        0.0000        0.0000        0.0000        0.0000       0.000000       0.00000



 Wavenumbers:   820. -  2600. cm-1, ATM      1
 LEVEL PRESSURE   UPWARD FLUX   DIFDOWN FLUX  DIRDOWN FLUX  DOWNWARD FLUX   NET FLUX    HEATING RATE
          mb          W/m2          W/m2          W/m2        W/m2          W/m2       degree/day
  51    .06700        0.0102        0.0000       10.1320       10.1320      10.121797       0.00000
  50    .07753        0.0102        0.0000       10.1262       10.1262      10.115996       4.64887
  49    .09103        0.0102        0.0000       10.1250       10.1250      10.114827       0.73099
  48    0.1069        0.0102        0.0000       10.1240       10.1240      10.113760       0.56786
  47    0.1255        0.0102        0.0000       10.1227       10.1227      10.112518       0.56290
  46    0.1487        0.0102        0.0000       10.1211       10.1211      10.110947       0.57299
  45    0.1794        0.0102        0.0000       10.1190       10.1190      10.108848       0.57620
  44    0.2165        0.0102        0.0000       10.1167       10.1167      10.106474       0.53994
  43    0.2613        0.0102        0.0000       10.1140       10.1140      10.103838       0.49696
  42    0.3336        0.0102        0.0000       10.1101       10.1101      10.099901       0.45901
  41    0.4307        0.0102        0.0000       10.1055       10.1055      10.095324       0.39790
  40    0.5894        0.0102        0.0000       10.0988       10.0988      10.088633       0.35585
  39     1.339        0.0102        0.0000       10.0689       10.0689      10.058685       0.33716
  38     1.782        0.0102        0.0000       10.0519       10.0519      10.041678       0.32378
  37     2.292        0.0102        0.0000       10.0329       10.0329      10.022655       0.31507
  36     2.964        0.0102        0.0000       10.0086       10.0086       9.998426       0.30415
  35     3.853        0.0102        0.0000        9.9776        9.9776       9.967416       0.29430
  34     5.035        0.0102        0.0000        9.9383        9.9383       9.928072       0.28106
  33     6.613        0.0102        0.0000        9.8890        9.8890       9.878781       0.26351
  32     8.786        0.0102        0.0000        9.8268        9.8268       9.816567       0.24162
  31     11.80        0.0102        0.0000        9.7442        9.7442       9.733972       0.23124
  30     15.07        0.0102        0.0000        9.6650        9.6650       9.654828       0.20433
  29     18.79        0.0102        0.0000        9.5902        9.5902       9.579989       0.16968
  28     23.16        0.0102        0.0000        9.5227        9.5228       9.512557       0.13039
  27     28.12        0.0102        0.0000        9.4675        9.4675       9.457352       0.09385
  26     33.73        0.0102        0.0000        9.4246        9.4246       9.414409       0.06457
  25     40.54        0.0102        0.0000        9.3871        9.3871       9.376883       0.04655
  24     48.69        0.0102        0.0000        9.3504        9.3504       9.340253       0.03791
  23     57.69        0.0102        0.0000        9.3131        9.3131       9.302907       0.03501
  22     68.43        0.0102        0.0000        9.2694        9.2694       9.259252       0.03432
  21     81.20        0.0102        0.0000        9.2185        9.2185       9.208302       0.03367
  20     96.49        0.0102        0.0000        9.1586        9.1586       9.148427       0.03305
  19     114.6        0.0102        0.0000        9.0877        9.0877       9.077537       0.03310
  18     136.5        0.0102        0.0000        9.0044        9.0044       8.994242       0.03203
  17     162.9        0.0102        0.0000        8.8974        8.8975       8.887278       0.03419
  16     196.4        0.0102        0.0000        8.7288        8.7288       8.718615       0.04245
  15     218.7        0.0102        0.0000        8.5667        8.5667       8.556497       0.06155
  14     243.0        0.0102        0.0000        8.3177        8.3178       8.307585       0.08633
  13     269.0        0.0102        0.0000        7.9976        7.9976       7.987429       0.10386
  12     297.5        0.0102        0.0000        7.6562        7.6562       7.646012       0.10126
  11     328.5        0.0102        0.0000        7.3528        7.3528       7.342642       0.08249
  10     361.9        0.0102        0.0000        7.0238        7.0238       7.013626       0.08324
   9     398.1        0.0102        0.0000        6.6380        6.6381       6.627833       0.08988
   8     437.6        0.0103        0.0000        6.2154        6.2155       6.205200       0.09036
   7     480.5        0.0103        0.0000        5.8276        5.8276       5.817311       0.07618
   6     533.0        0.0103        0.0000        5.4874        5.4874       5.477096       0.05473
   5     589.8        0.0104        0.0000        5.2400        5.2401       5.229634       0.03673
   4     651.6        0.0106        0.0000        4.9860        4.9860       4.975481       0.03476
   3     718.7        0.0108        0.0000        4.6749        4.6749       4.664136       0.03913
   2     792.3        0.0112        0.0000        4.3033        4.3034       4.292121       0.04267
   1     891.5        0.0124        0.0000        3.7966        3.7967       3.784304       0.04321
   0    1013.0        0.0153        0.0000        3.1910        3.1911       3.175767       0.04225

  Modules and versions used in this calculation:

       rrtmg_sw.1col.f90:  $Revision$                    rrtmg_sw_init.f90:  $Revision$        
     rrtmgsw_cldprop.f90:  $Revision$                  rrtmgsw_cldprmc.f90:  NOT USED          
     rrtmg_sw_reftra.f90:  $Revision$                  rrtmg_sw_spcvrt.f90:  NOT USED          
     rrtmg_sw_spcvmc.f90:  NOT USED                    rrtmgsw_setcoef.f90:  NOT USED          
     rrtmg_sw_taumol.f90:  $Revision$                  rrtmg_sw_vrtqdr.f90:  NOT USED          
                rrtatm.f:  NOT USED                             util_xxx.f:  NOT USED          
                 extra.f:  NOT USED                       rrtmg_sw_k_g.f90:  $Revision$        

