

 Wavenumbers:   820. - 50000. cm-1, ATM      1
 LEVEL PRESSURE   UPWARD FLUX   DIFDOWN FLUX  DIRDOWN FLUX  DOWNWARD FLUX   NET FLUX    HEATING RATE
          mb          W/m2          W/m2          W/m2        W/m2          W/m2       degree/day
  51    .06700      153.1259        0.0000     1360.8491     1360.8491    1207.723264       0.00000
  50    .07753      153.1253        0.0012     1360.8273     1360.8285    1207.703168      16.10742
  49    .09103      153.1246        0.0026     1360.8078     1360.8104    1207.685868      10.81328
  48    0.1069      153.1237        0.0043     1360.7860     1360.7903    1207.666600      10.25655
  47    0.1255      153.1228        0.0063     1360.7600     1360.7663    1207.643462      10.48941
  46    0.1487      153.1217        0.0087     1360.7249     1360.7336    1207.611924      11.49597
  45    0.1794      153.1202        0.0121     1360.6734     1360.6855    1207.565312      12.79617
  44    0.2165      153.1185        0.0161     1360.6074     1360.6234    1207.504889      13.74517
  43    0.2613      153.1166        0.0207     1360.5219     1360.5427    1207.426037      14.86323
  42    0.3336      153.1137        0.0284     1360.3673     1360.3958    1207.282066      16.78560
  41    0.4307      153.1100        0.0386     1360.1456     1360.1842    1207.074170      18.07612
  40    0.5894      153.1047        0.0550     1359.7482     1359.8032    1206.698531      19.97598
  39     1.339      153.0899        0.1291     1357.3733     1357.5024    1204.412471      25.73689
  38     1.782      153.0885        0.1704     1355.8375     1356.0078    1202.919323      28.42713
  37     2.292      153.0934        0.2170     1354.1208     1354.3379    1201.244480      27.73977
  36     2.964      153.1096        0.2774     1352.1205     1352.3979    1199.288345      24.55540
  35     3.853      153.1446        0.3565     1349.9734     1350.3299    1197.185292      19.95836
  34     5.035      153.2046        0.4608     1347.7761     1348.2369    1195.032329      15.37988
  33     6.613      153.2924        0.5996     1345.5290     1346.1286    1192.836175      11.74064
  32     8.786      153.4056        0.7858     1343.2079     1343.9936    1190.588065       8.73085
  31     11.80      153.5454        1.0509     1340.6494     1341.7003    1188.154956       6.81194
  30     15.07      153.6699        1.3344     1338.4304     1339.7648    1186.094980       5.31846
  29     18.79      153.7878        1.6531     1336.2864     1337.9396    1184.151812       4.40576
  28     23.16      153.8994        2.0240     1334.1057     1336.1296    1182.230211       3.71576
  27     28.12      153.9961        2.4465     1331.9136     1334.3600    1180.363903       3.17260
  26     33.73      154.0566        2.9185     1329.7853     1332.7038    1178.647257       2.58102
  25     40.54      154.0722        3.4877     1327.5375     1331.0251    1176.952896       2.10205
  24     48.69      154.0349        4.1720     1325.1261     1329.2982    1175.263248       1.74852
  23     57.69      153.9378        4.9215     1322.7388     1327.6603    1173.722447       1.44427
  22     68.43      153.7592        5.8114     1320.1544     1325.9658    1172.206575       1.19168
  21     81.20      153.4550        6.8695     1317.3916     1324.2612    1170.806236       0.92532
  20     96.49      153.0040        8.1263     1314.3811     1322.5075    1169.503448       0.71905
  19     114.6      152.4231        9.6074     1310.9471     1320.5545    1168.131362       0.64067
  18     136.5      151.6987       11.3444     1306.9977     1318.3421    1166.643370       0.57217
  17     162.9      150.8008       13.3875     1302.3518     1315.7393    1164.938555       0.54493
  16     196.4      149.5616       16.0019     1296.2678     1312.2697    1162.708085       0.56144
  15     218.7      148.7166       17.6942     1291.7724     1309.4667    1160.750095       0.74338
  14     243.0      147.7801       19.5117     1286.1481     1305.6597    1157.879677       0.99556
  13     269.0      146.7454       21.4555     1279.0245     1300.4801    1153.734662       1.34462
  12     297.5      145.6068       23.5263     1270.1087     1293.6350    1148.028197       1.69248
  11     328.5      144.3594       25.7287     1260.1713     1285.9000    1141.540553       1.76397
  10     361.9      142.9979       28.0593     1249.4297     1277.4890    1134.491099       1.78358
   9     398.1      141.5129       30.5209     1237.6382     1268.1591    1126.646178       1.82769
   8     437.6      139.8984       33.1102     1224.3920     1257.5022    1117.603808       1.93331
   7     480.5      138.1464       35.8244     1209.7358     1245.5603    1107.413847       2.00127
   6     533.0      135.9637       39.0794     1191.2571     1230.3366    1094.372924       2.09787
   5     589.8      133.5874       42.4809     1170.7333     1213.2142    1079.626875       2.18880
   4     651.6      131.0288       46.0128     1147.0297     1193.0426    1062.013803       2.40864
   3     718.7      128.2994       49.6592     1120.8952     1170.5544    1042.254997       2.48313
   2     792.3      125.4601       53.3906     1092.1619     1145.5525    1020.092442       2.54180
   1     891.5      121.9425       58.1434     1053.3991     1111.5425     989.599944       2.59477
   0    1013.0      119.0279       63.4255     1008.4859     1071.9114     952.883543       2.54941



 Wavenumbers:  2600. -  3250. cm-1, ATM      1
 LEVEL PRESSURE   UPWARD FLUX   DIFDOWN FLUX  DIRDOWN FLUX  DOWNWARD FLUX   NET FLUX    HEATING RATE
          mb          W/m2          W/m2          W/m2        W/m2          W/m2       degree/day
  51    .06700        0.3395        0.0000       11.9937       11.9937      11.654204       0.00000
  50    .07753        0.3395        0.0000       11.9937       11.9937      11.654196       0.00640
  49    .09103        0.3395        0.0000       11.9937       11.9937      11.654186       0.00627
  48    0.1069        0.3395        0.0000       11.9937       11.9937      11.654175       0.00613
  47    0.1255        0.3395        0.0000       11.9937       11.9937      11.654161       0.00600
  46    0.1487        0.3395        0.0000       11.9937       11.9937      11.654145       0.00608
  45    0.1794        0.3395        0.0000       11.9936       11.9936      11.654122       0.00625
  44    0.2165        0.3395        0.0000       11.9936       11.9936      11.654095       0.00613
  43    0.2613        0.3395        0.0000       11.9936       11.9936      11.654063       0.00601
  42    0.3336        0.3395        0.0000       11.9935       11.9935      11.654010       0.00619
  41    0.4307        0.3395        0.0000       11.9935       11.9935      11.653939       0.00622
  40    0.5894        0.3395        0.0000       11.9933       11.9933      11.653818       0.00640
  39     1.339        0.3395        0.0000       11.9926       11.9926      11.653102       0.00806
  38     1.782        0.3395        0.0000       11.9921       11.9921      11.652547       0.01057
  37     2.292        0.3395        0.0000       11.9913       11.9913      11.651806       0.01226
  36     2.964        0.3395        0.0000       11.9902       11.9902      11.650717       0.01368
  35     3.853        0.3395        0.0000       11.9886       11.9886      11.649132       0.01504
  34     5.035        0.3395        0.0000       11.9864       11.9864      11.646858       0.01624
  33     6.613        0.3395        0.0000       11.9832       11.9832      11.643643       0.01719
  32     8.786        0.3395        0.0000       11.9787       11.9787      11.639159       0.01741
  31     11.80        0.3395        0.0000       11.9722       11.9722      11.632687       0.01812
  30     15.07        0.3395        0.0000       11.9654       11.9654      11.625880       0.01757
  29     18.79        0.3395        0.0000       11.9581       11.9581      11.618591       0.01652
  28     23.16        0.3395        0.0000       11.9502       11.9502      11.610670       0.01532
  27     28.12        0.3395        0.0000       11.9418       11.9418      11.602334       0.01417
  26     33.73        0.3395        0.0000       11.9329       11.9329      11.593372       0.01347
  25     40.54        0.3395        0.0000       11.9222       11.9222      11.582676       0.01327
  24     48.69        0.3395        0.0000       11.9093       11.9093      11.569840       0.01328
  23     57.69        0.3395        0.0000       11.8949       11.8950      11.555449       0.01349
  22     68.43        0.3395        0.0000       11.8770       11.8771      11.537541       0.01408
  21     81.20        0.3395        0.0000       11.8544       11.8544      11.514870       0.01498
  20     96.49        0.3395        0.0000       11.8256       11.8257      11.486124       0.01587
  19     114.6        0.3395        0.0000       11.7886       11.7887      11.449109       0.01728
  18     136.5        0.3396        0.0001       11.7429       11.7430      11.403412       0.01757
  17     162.9        0.3396        0.0001       11.6869       11.6870      11.347380       0.01791
  16     196.4        0.3397        0.0001       11.6129       11.6130      11.273291       0.01865
  15     218.7        0.3397        0.0001       11.5605       11.5606      11.220808       0.01993
  14     243.0        0.3399        0.0001       11.4957       11.4958      11.155887       0.02252
  13     269.0        0.3401        0.0001       11.4130       11.4131      11.073046       0.02687
  12     297.5        0.3404        0.0001       11.3101       11.3102      10.969875       0.03060
  11     328.5        0.3408        0.0001       11.1933       11.1934      10.852601       0.03189
  10     361.9        0.3413        0.0001       11.0632       11.0633      10.721969       0.03305
   9     398.1        0.3421        0.0001       10.9149       10.9151      10.572945       0.03472
   8     437.6        0.3432        0.0001       10.7385       10.7387      10.395507       0.03794
   7     480.5        0.3446        0.0002       10.5233       10.5234      10.178785       0.04256
   6     533.0        0.3470        0.0002       10.2141       10.2142       9.867274       0.05011
   5     589.8        0.3504        0.0002        9.8147        9.8149       9.464418       0.05980
   4     651.6        0.3560        0.0002        9.2987        9.2989       8.942896       0.07132
   3     718.7        0.3648        0.0002        8.7065        8.7067       8.341877       0.07553
   2     792.3        0.3796        0.0002        8.0516        8.0518       7.672136       0.07681
   1     891.5        0.4154        0.0002        7.1628        7.1630       6.747611       0.07867
   0    1013.0        0.5170        0.0002        6.1112        6.1114       5.594332       0.08008



 Wavenumbers:  3250. -  4000. cm-1, ATM      1
 LEVEL PRESSURE   UPWARD FLUX   DIFDOWN FLUX  DIRDOWN FLUX  DOWNWARD FLUX   NET FLUX    HEATING RATE
          mb          W/m2          W/m2          W/m2        W/m2          W/m2       degree/day
  51    .06700        0.0034        0.0000       20.2197       20.2197      20.216262       0.00000
  50    .07753        0.0034        0.0000       20.2140       20.2140      20.210593       4.54406
  49    .09103        0.0034        0.0000       20.2088       20.2088      20.205362       3.26932
  48    0.1069        0.0034        0.0000       20.2043       20.2043      20.200938       2.35506
  47    0.1255        0.0034        0.0000       20.2005       20.2005      20.197058       1.75884
  46    0.1487        0.0034        0.0000       20.1965       20.1965      20.193136       1.42967
  45    0.1794        0.0034        0.0000       20.1921       20.1921      20.188693       1.21962
  44    0.2165        0.0034        0.0000       20.1875       20.1875      20.184127       1.03878
  43    0.2613        0.0034        0.0000       20.1827       20.1827      20.179287       0.91222
  42    0.3336        0.0034        0.0000       20.1757       20.1757      20.172265       0.81870
  41    0.4307        0.0034        0.0000       20.1678       20.1678      20.164371       0.68638
  40    0.5894        0.0034        0.0000       20.1571       20.1571      20.153677       0.56870
  39     1.339        0.0034        0.0000       20.1195       20.1195      20.116144       0.42255
  38     1.782        0.0034        0.0000       20.1017       20.1017      20.098313       0.33948
  37     2.292        0.0034        0.0000       20.0837       20.0837      20.080286       0.29857
  36     2.964        0.0034        0.0000       20.0629       20.0629      20.059536       0.26048
  35     3.853        0.0034        0.0000       20.0387       20.0387      20.035336       0.22966
  34     5.035        0.0034        0.0000       20.0099       20.0099      20.006494       0.20604
  33     6.613        0.0034        0.0000       19.9743       19.9743      19.970944       0.19005
  32     8.786        0.0034        0.0000       19.9279       19.9279      19.924541       0.18021
  31     11.80        0.0034        0.0000       19.8609       19.8609      19.857503       0.18768
  30     15.07        0.0034        0.0000       19.7861       19.7861      19.782710       0.19310
  29     18.79        0.0034        0.0000       19.6981       19.6981      19.694783       0.19936
  28     23.16        0.0034        0.0000       19.5924       19.5924      19.589062       0.20443
  27     28.12        0.0034        0.0000       19.4692       19.4692      19.465850       0.20945
  26     33.73        0.0033        0.0000       19.3318       19.3319      19.328525       0.20647
  25     40.54        0.0033        0.0001       19.1703       19.1704      19.167047       0.20033
  24     48.69        0.0033        0.0001       18.9874       18.9875      18.984158       0.18926
  23     57.69        0.0033        0.0001       18.8032       18.8032      18.799934       0.17268
  22     68.43        0.0033        0.0001       18.6047       18.6048      18.601526       0.15598
  21     81.20        0.0033        0.0001       18.3903       18.3904      18.387161       0.14165
  20     96.49        0.0033        0.0001       18.1531       18.1532      18.149919       0.13094
  19     114.6        0.0032        0.0001       17.8720       17.8722      17.868923       0.13121
  18     136.5        0.0032        0.0002       17.5464       17.5465      17.543321       0.12520
  17     162.9        0.0032        0.0002       17.1484       17.1486      17.145439       0.12718
  16     196.4        0.0032        0.0002       16.5656       16.5658      16.562673       0.14669
  15     218.7        0.0031        0.0002       16.0235       16.0238      16.020652       0.20579
  14     243.0        0.0031        0.0003       15.2654       15.2657      15.262554       0.26293
  13     269.0        0.0031        0.0003       14.2510       14.2513      14.248173       0.32906
  12     297.5        0.0031        0.0003       13.0349       13.0352      13.032084       0.36068
  11     328.5        0.0031        0.0003       11.8274       11.8277      11.824603       0.32831
  10     361.9        0.0031        0.0002       10.6546       10.6548      10.651744       0.29674
   9     398.1        0.0031        0.0002        9.4801        9.4803       9.477236       0.27363
   8     437.6        0.0031        0.0002        8.3186        8.3188       8.315716       0.24834
   7     480.5        0.0032        0.0002        7.2534        7.2537       7.250490       0.20921
   6     533.0        0.0033        0.0002        6.1288        6.1290       6.125685       0.18095
   5     589.8        0.0036        0.0002        5.0588        5.0590       5.055420       0.15886
   4     651.6        0.0042        0.0001        3.9729        3.9731       3.968905       0.14858
   3     718.7        0.0055        0.0001        2.9378        2.9379       2.932398       0.13026
   2     792.3        0.0089        0.0001        1.9615        1.9616       1.952698       0.11236
   1     891.5        0.0273        0.0000        0.9920        0.9920       0.964689       0.08407
   0    1013.0        0.2633        0.0000        0.3116        0.3117       0.048306       0.06363



 Wavenumbers:  4000. -  4650. cm-1, ATM      1
 LEVEL PRESSURE   UPWARD FLUX   DIFDOWN FLUX  DIRDOWN FLUX  DOWNWARD FLUX   NET FLUX    HEATING RATE
          mb          W/m2          W/m2          W/m2        W/m2          W/m2       degree/day
  51    .06700        0.6588        0.0000       23.7440       23.7440      23.085155       0.00000
  50    .07753        0.6588        0.0000       23.7440       23.7440      23.085154       0.00080
  49    .09103        0.6588        0.0000       23.7440       23.7440      23.085153       0.00078
  48    0.1069        0.6588        0.0000       23.7440       23.7440      23.085151       0.00076
  47    0.1255        0.6588        0.0000       23.7440       23.7440      23.085150       0.00075
  46    0.1487        0.6588        0.0000       23.7440       23.7440      23.085148       0.00076
  45    0.1794        0.6588        0.0000       23.7440       23.7440      23.085145       0.00078
  44    0.2165        0.6588        0.0000       23.7440       23.7440      23.085142       0.00076
  43    0.2613        0.6588        0.0000       23.7440       23.7440      23.085138       0.00075
  42    0.3336        0.6588        0.0000       23.7440       23.7440      23.085131       0.00077
  41    0.4307        0.6588        0.0000       23.7439       23.7439      23.085122       0.00077
  40    0.5894        0.6588        0.0000       23.7439       23.7439      23.085107       0.00080
  39     1.339        0.6588        0.0000       23.7438       23.7438      23.085018       0.00101
  38     1.782        0.6588        0.0000       23.7438       23.7438      23.084948       0.00133
  37     2.292        0.6588        0.0000       23.7437       23.7437      23.084854       0.00156
  36     2.964        0.6588        0.0000       23.7435       23.7435      23.084714       0.00176
  35     3.853        0.6588        0.0000       23.7433       23.7433      23.084505       0.00198
  34     5.035        0.6588        0.0000       23.7430       23.7430      23.084198       0.00219
  33     6.613        0.6588        0.0000       23.7425       23.7426      23.083746       0.00242
  32     8.786        0.6588        0.0000       23.7418       23.7419      23.083077       0.00260
  31     11.80        0.6588        0.0000       23.7408       23.7408      23.082025       0.00295
  30     15.07        0.6588        0.0001       23.7395       23.7396      23.080787       0.00319
  29     18.79        0.6588        0.0001       23.7380       23.7381      23.079287       0.00340
  28     23.16        0.6588        0.0001       23.7361       23.7362      23.077419       0.00361
  27     28.12        0.6587        0.0001       23.7338       23.7339      23.075150       0.00386
  26     33.73        0.6587        0.0001       23.7309       23.7311      23.072342       0.00422
  25     40.54        0.6587        0.0001       23.7271       23.7272      23.068514       0.00475
  24     48.69        0.6587        0.0002       23.7219       23.7221      23.063385       0.00531
  23     57.69        0.6587        0.0002       23.7157       23.7159      23.057266       0.00574
  22     68.43        0.6586        0.0003       23.7079       23.7082      23.049554       0.00606
  21     81.20        0.6586        0.0003       23.6983       23.6986      23.039988       0.00632
  20     96.49        0.6586        0.0004       23.6865       23.6869      23.028279       0.00646
  19     114.6        0.6586        0.0004       23.6717       23.6721      23.013551       0.00688
  18     136.5        0.6585        0.0005       23.6537       23.6542      22.995705       0.00686
  17     162.9        0.6585        0.0006       23.6317       23.6323      22.973748       0.00702
  16     196.4        0.6585        0.0007       23.6012       23.6019      22.943368       0.00765
  15     218.7        0.6586        0.0008       23.5777       23.5785      22.919897       0.00891
  14     243.0        0.6587        0.0009       23.5456       23.5465      22.887802       0.01113
  13     269.0        0.6588        0.0010       23.4995       23.5004      22.841619       0.01498
  12     297.5        0.6591        0.0011       23.4351       23.4362      22.777047       0.01915
  11     328.5        0.6595        0.0012       23.3555       23.3567      22.697159       0.02172
  10     361.9        0.6601        0.0013       23.2571       23.2584      22.598338       0.02500
   9     398.1        0.6608        0.0014       23.1295       23.1309      22.470151       0.02986
   8     437.6        0.6617        0.0015       22.9586       22.9601      22.298437       0.03671
   7     480.5        0.6629        0.0017       22.7369       22.7386      22.075701       0.04374
   6     533.0        0.6647        0.0018       22.4191       22.4209      21.756176       0.05140
   5     589.8        0.6672        0.0020       22.0335       22.0355      21.368260       0.05758
   4     651.6        0.6712        0.0021       21.5654       21.5675      20.896277       0.06454
   3     718.7        0.6776        0.0022       21.0164       21.0186      20.340983       0.06979
   2     792.3        0.6885        0.0024       20.2979       20.3002      19.611726       0.08364
   1     891.5        0.7146        0.0025       19.1088       19.1112      18.396646       0.10340
   0    1013.0        0.7867        0.0026       17.6373       17.6398      16.853083       0.10718



 Wavenumbers:  4650. -  5150. cm-1, ATM      1
 LEVEL PRESSURE   UPWARD FLUX   DIFDOWN FLUX  DIRDOWN FLUX  DOWNWARD FLUX   NET FLUX    HEATING RATE
          mb          W/m2          W/m2          W/m2        W/m2          W/m2       degree/day
  51    .06700        0.5136        0.0000       22.4748       22.4748      21.961203       0.00000
  50    .07753        0.5136        0.0000       22.4746       22.4746      21.960967       0.18925
  49    .09103        0.5136        0.0000       22.4743       22.4743      21.960671       0.18504
  48    0.1069        0.5136        0.0000       22.4739       22.4739      21.960331       0.18064
  47    0.1255        0.5136        0.0000       22.4735       22.4735      21.959943       0.17622
  46    0.1487        0.5136        0.0000       22.4730       22.4730      21.959454       0.17814
  45    0.1794        0.5136        0.0000       22.4724       22.4724      21.958789       0.18241
  44    0.2165        0.5136        0.0000       22.4716       22.4716      21.958008       0.17785
  43    0.2613        0.5136        0.0000       22.4707       22.4707      21.957088       0.17328
  42    0.3336        0.5136        0.0000       22.4692       22.4692      21.955583       0.17553
  41    0.4307        0.5136        0.0000       22.4672       22.4672      21.953615       0.17112
  40    0.5894        0.5136        0.0000       22.4641       22.4641      21.950469       0.16731
  39     1.339        0.5136        0.0000       22.4502       22.4502      21.936636       0.15573
  38     1.782        0.5136        0.0000       22.4428       22.4428      21.929264       0.14034
  37     2.292        0.5136        0.0000       22.4349       22.4350      21.921378       0.13062
  36     2.964        0.5136        0.0000       22.4255       22.4255      21.911949       0.11836
  35     3.853        0.5136        0.0000       22.4145       22.4145      21.900933       0.10454
  34     5.035        0.5136        0.0000       22.4019       22.4019      21.888384       0.08965
  33     6.613        0.5136        0.0000       22.3880       22.3881      21.874524       0.07410
  32     8.786        0.5135        0.0000       22.3731       22.3731      21.859571       0.05807
  31     11.80        0.5135        0.0001       22.3562       22.3563      21.842771       0.04703
  30     15.07        0.5135        0.0001       22.3413       22.3414      21.827850       0.03853
  29     18.79        0.5135        0.0001       22.3259       22.3260      21.812488       0.03483
  28     23.16        0.5135        0.0001       22.3082       22.3083      21.794789       0.03422
  27     28.12        0.5135        0.0002       22.2870       22.2872      21.773684       0.03588
  26     33.73        0.5135        0.0002       22.2617       22.2619      21.748392       0.03803
  25     40.54        0.5134        0.0002       22.2285       22.2287      21.715275       0.04109
  24     48.69        0.5134        0.0003       22.1852       22.1854      21.672019       0.04476
  23     57.69        0.5134        0.0003       22.1340       22.1344      21.620956       0.04786
  22     68.43        0.5134        0.0004       22.0694       22.0698      21.556388       0.05076
  21     81.20        0.5134        0.0004       21.9886       21.9891      21.475671       0.05334
  20     96.49        0.5134        0.0005       21.8895       21.8900      21.376627       0.05467
  19     114.6        0.5134        0.0006       21.7708       21.7715      21.258020       0.05538
  18     136.5        0.5135        0.0007       21.6320       21.6328      21.119275       0.05335
  17     162.9        0.5136        0.0009       21.4726       21.4734      20.959845       0.05096
  16     196.4        0.5138        0.0010       21.2786       21.2796      20.765866       0.04883
  15     218.7        0.5139        0.0011       21.1582       21.1594      20.645448       0.04572
  14     243.0        0.5141        0.0013       21.0313       21.0325      20.518388       0.04407
  13     269.0        0.5145        0.0014       20.8948       20.8961      20.381670       0.04435
  12     297.5        0.5150        0.0015       20.7434       20.7449      20.229936       0.04500
  11     328.5        0.5157        0.0017       20.5767       20.5783      20.062647       0.04549
  10     361.9        0.5166        0.0018       20.3907       20.3926      19.875963       0.04723
   9     398.1        0.5178        0.0020       20.1791       20.1811      19.663232       0.04956
   8     437.6        0.5195        0.0021       19.9341       19.9363      19.416816       0.05269
   7     480.5        0.5216        0.0023       19.6480       19.6503      19.128695       0.05659
   6     533.0        0.5249        0.0025       19.2600       19.2624      18.737520       0.06293
   5     589.8        0.5296        0.0026       18.7890       18.7916      18.262055       0.07057
   4     651.6        0.5365        0.0028       18.1977       18.2005      17.664036       0.08178
   3     718.7        0.5468        0.0029       17.4829       17.4858      16.938945       0.09112
   2     792.3        0.5630        0.0031       16.6464       16.6495      16.086534       0.09776
   1     891.5        0.5979        0.0032       15.4816       15.4848      14.886836       0.10209
   0    1013.0        0.6768        0.0033       14.1857       14.1890      13.512170       0.09545



 Wavenumbers:  5150. -  6150. cm-1, ATM      1
 LEVEL PRESSURE   UPWARD FLUX   DIFDOWN FLUX  DIRDOWN FLUX  DOWNWARD FLUX   NET FLUX    HEATING RATE
          mb          W/m2          W/m2          W/m2        W/m2          W/m2       degree/day
  51    .06700        1.3131        0.0000       56.3444       56.3444      55.031330       0.00000
  50    .07753        1.3131        0.0000       56.3444       56.3444      55.031291       0.03156
  49    .09103        1.3131        0.0000       56.3443       56.3443      55.031239       0.03205
  48    0.1069        1.3131        0.0000       56.3442       56.3442      55.031178       0.03256
  47    0.1255        1.3131        0.0000       56.3442       56.3442      55.031105       0.03307
  46    0.1487        1.3131        0.0000       56.3441       56.3441      55.031010       0.03485
  45    0.1794        1.3131        0.0000       56.3439       56.3439      55.030875       0.03710
  44    0.2165        1.3131        0.0000       56.3438       56.3438      55.030709       0.03767
  43    0.2613        1.3131        0.0000       56.3436       56.3436      55.030506       0.03827
  42    0.3336        1.3131        0.0000       56.3432       56.3432      55.030159       0.04046
  41    0.4307        1.3131        0.0000       56.3427       56.3427      55.029687       0.04103
  40    0.5894        1.3131        0.0000       56.3419       56.3419      55.028895       0.04210
  39     1.339        1.3130        0.0000       56.3381       56.3381      55.025064       0.04313
  38     1.782        1.3130        0.0000       56.3358       56.3358      55.022821       0.04270
  37     2.292        1.3130        0.0001       56.3332       56.3333      55.020271       0.04224
  36     2.964        1.3130        0.0001       56.3299       56.3300      55.017013       0.04090
  35     3.853        1.3130        0.0001       56.3257       56.3258      55.012843       0.03958
  34     5.035        1.3130        0.0001       56.3203       56.3204      55.007423       0.03872
  33     6.613        1.3129        0.0002       56.3131       56.3132      55.000306       0.03805
  32     8.786        1.3129        0.0002       56.3036       56.3038      54.990936       0.03639
  31     11.80        1.3128        0.0003       56.2905       56.2908      54.977988       0.03625
  30     15.07        1.3127        0.0004       56.2770       56.2774      54.964677       0.03437
  29     18.79        1.3127        0.0005       56.2626       56.2631      54.950400       0.03237
  28     23.16        1.3126        0.0006       56.2466       56.2472      54.934582       0.03059
  27     28.12        1.3125        0.0007       56.2292       56.2299      54.917440       0.02914
  26     33.73        1.3124        0.0009       56.2110       56.2119      54.899519       0.02694
  25     40.54        1.3122        0.0010       56.1906       56.1916      54.879401       0.02496
  24     48.69        1.3121        0.0012       56.1681       56.1694      54.857258       0.02292
  23     57.69        1.3119        0.0015       56.1451       56.1466      54.834675       0.02117
  22     68.43        1.3118        0.0017       56.1195       56.1213      54.809539       0.01976
  21     81.20        1.3115        0.0021       56.0907       56.0927      54.781195       0.01873
  20     96.49        1.3113        0.0025       56.0573       56.0598      54.748489       0.01805
  19     114.6        1.3110        0.0029       56.0182       56.0212      54.710198       0.01788
  18     136.5        1.3106        0.0035       55.9719       55.9754      54.664739       0.01748
  17     162.9        1.3102        0.0041       55.9013       55.9054      54.595185       0.02223
  16     196.4        1.3097        0.0050       55.7479       55.7528      54.443187       0.03826
  15     218.7        1.3093        0.0055       55.5243       55.5298      54.220482       0.08455
  14     243.0        1.3090        0.0060       55.1190       55.1250      53.816055       0.14027
  13     269.0        1.3086        0.0066       54.3924       54.3989      53.090285       0.23544
  12     297.5        1.3084        0.0071       53.2527       53.2598      51.951422       0.33777
  11     328.5        1.3081        0.0076       51.9857       51.9933      50.685163       0.34429
  10     361.9        1.3079        0.0081       50.6721       50.6801      49.372210       0.33219
   9     398.1        1.3079        0.0086       49.1893       49.1979      47.890004       0.34532
   8     437.6        1.3079        0.0090       47.4187       47.4277      46.119778       0.37849
   7     480.5        1.3082        0.0094       45.4500       45.4594      44.151173       0.38663
   6     533.0        1.3090        0.0098       43.0596       43.0695      41.760497       0.38458
   5     589.8        1.3105        0.0103       40.5463       40.5565      39.246000       0.37323
   4     651.6        1.3138        0.0106       37.8928       37.9035      36.589646       0.36326
   3     718.7        1.3202        0.0111       35.4719       35.4830      34.162773       0.30499
   2     792.3        1.3329        0.0116       33.4066       33.4182      32.085324       0.23826
   1     891.5        1.3686        0.0123       31.3475       31.3598      29.991212       0.17820
   0    1013.0        1.4852        0.0129       29.2817       29.2946      27.809355       0.15150



 Wavenumbers:  6150. -  7700. cm-1, ATM      1
 LEVEL PRESSURE   UPWARD FLUX   DIFDOWN FLUX  DIRDOWN FLUX  DOWNWARD FLUX   NET FLUX    HEATING RATE
          mb          W/m2          W/m2          W/m2        W/m2          W/m2       degree/day
  51    .06700        2.0741        0.0000      104.2111      104.2111     102.136975       0.00000
  50    .07753        2.0741        0.0000      104.2111      104.2111     102.136918       0.04554
  49    .09103        2.0741        0.0000      104.2110      104.2110     102.136845       0.04583
  48    0.1069        2.0741        0.0000      104.2109      104.2109     102.136758       0.04615
  47    0.1255        2.0741        0.0000      104.2108      104.2108     102.136656       0.04646
  46    0.1487        2.0741        0.0000      104.2107      104.2107     102.136522       0.04854
  45    0.1794        2.0741        0.0000      104.2105      104.2105     102.136336       0.05129
  44    0.2165        2.0741        0.0000      104.2102      104.2102     102.136108       0.05171
  43    0.2613        2.0741        0.0000      104.2099      104.2100     102.135832       0.05215
  42    0.3336        2.0741        0.0000      104.2095      104.2095     102.135362       0.05478
  41    0.4307        2.0741        0.0000      104.2088      104.2088     102.134726       0.05531
  40    0.5894        2.0741        0.0001      104.2077      104.2078     102.133664       0.05648
  39     1.339        2.0740        0.0001      104.2024      104.2026     102.128544       0.05764
  38     1.782        2.0740        0.0002      104.1993      104.1995     102.125546       0.05707
  37     2.292        2.0739        0.0002      104.1958      104.1961     102.122129       0.05659
  36     2.964        2.0739        0.0003      104.1913      104.1916     102.117743       0.05506
  35     3.853        2.0738        0.0004      104.1854      104.1859     102.112095       0.05360
  34     5.035        2.0736        0.0005      104.1778      104.1784     102.104724       0.05266
  33     6.613        2.0735        0.0007      104.1678      104.1685     102.095011       0.05193
  32     8.786        2.0733        0.0009      104.1545      104.1554     102.082154       0.04993
  31     11.80        2.0730        0.0013      104.1359      104.1372     102.064239       0.05016
  30     15.07        2.0726        0.0016      104.1166      104.1183     102.045618       0.04808
  29     18.79        2.0723        0.0020      104.0956      104.0976     102.025375       0.04590
  28     23.16        2.0718        0.0025      104.0720      104.0745     102.002630       0.04398
  27     28.12        2.0713        0.0030      104.0459      104.0489     101.977610       0.04253
  26     33.73        2.0708        0.0036      104.0181      104.0218     101.950998       0.04001
  25     40.54        2.0701        0.0044      103.9863      103.9907     101.920589       0.03773
  24     48.69        2.0693        0.0052      103.9504      103.9556     101.886372       0.03541
  23     57.69        2.0684        0.0062      103.9130      103.9192     101.850839       0.03331
  22     68.43        2.0673        0.0073      103.8705      103.8779     101.810608       0.03163
  21     81.20        2.0660        0.0087      103.8219      103.8306     101.764578       0.03042
  20     96.49        2.0645        0.0104      103.7651      103.7755     101.710999       0.02957
  19     114.6        2.0626        0.0123      103.6981      103.7104     101.647775       0.02952
  18     136.5        2.0605        0.0146      103.6182      103.6327     101.572280       0.02903
  17     162.9        2.0579        0.0173      103.5018      103.5191     101.461205       0.03550
  16     196.4        2.0545        0.0209      103.2601      103.2809     101.226368       0.05911
  15     218.7        2.0524        0.0231      102.9097      102.9328     100.880434       0.13134
  14     243.0        2.0501        0.0255      102.2732      102.2987     100.248603       0.21914
  13     269.0        2.0477        0.0278      101.2641      101.2919      99.244220       0.32582
  12     297.5        2.0453        0.0301       99.6695       99.6996      97.654269       0.47156
  11     328.5        2.0429        0.0323       97.6082       97.6406      95.597630       0.55919
  10     361.9        2.0406        0.0346       95.2483       95.2829      93.242243       0.59594
   9     398.1        2.0385        0.0368       92.6564       92.6932      90.654693       0.60284
   8     437.6        2.0367        0.0388       89.7047       89.7434      87.706769       0.63028
   7     480.5        2.0354        0.0406       86.3265       86.3671      84.331622       0.66287
   6     533.0        2.0352        0.0424       81.9787       82.0211      79.985927       0.69908
   5     589.8        2.0372        0.0439       77.1953       77.2392      75.201934       0.71010
   4     651.6        2.0442        0.0449       71.7796       71.8245      69.780314       0.74142
   3     718.7        2.0597        0.0455       66.2294       66.2749      64.215180       0.69938
   2     792.3        2.0923        0.0458       60.7106       60.7564      58.664181       0.63664
   1     891.5        2.1844        0.0460       54.2338       54.2798      52.095394       0.55897
   0    1013.0        2.4887        0.0463       47.9982       48.0445      45.555771       0.45408



 Wavenumbers:  7700. -  8050. cm-1, ATM      1
 LEVEL PRESSURE   UPWARD FLUX   DIFDOWN FLUX  DIRDOWN FLUX  DOWNWARD FLUX   NET FLUX    HEATING RATE
          mb          W/m2          W/m2          W/m2        W/m2          W/m2       degree/day
  51    .06700        1.1144        0.0000       24.6282       24.6282      23.513792       0.00000
  50    .07753        1.1144        0.0000       24.6282       24.6282      23.513773       0.01485
  49    .09103        1.1144        0.0000       24.6281       24.6281      23.513750       0.01456
  48    0.1069        1.1144        0.0000       24.6281       24.6281      23.513723       0.01425
  47    0.1255        1.1144        0.0000       24.6281       24.6281      23.513693       0.01395
  46    0.1487        1.1144        0.0000       24.6280       24.6281      23.513654       0.01415
  45    0.1794        1.1144        0.0000       24.6280       24.6280      23.513601       0.01456
  44    0.2165        1.1144        0.0000       24.6279       24.6279      23.513538       0.01428
  43    0.2613        1.1144        0.0000       24.6279       24.6279      23.513464       0.01402
  42    0.3336        1.1144        0.0000       24.6277       24.6277      23.513341       0.01434
  41    0.4307        1.1144        0.0000       24.6276       24.6276      23.513178       0.01418
  40    0.5894        1.1144        0.0000       24.6273       24.6273      23.512911       0.01417
  39     1.339        1.1144        0.0001       24.6260       24.6261      23.511650       0.01419
  38     1.782        1.1145        0.0001       24.6253       24.6254      23.510910       0.01410
  37     2.292        1.1145        0.0001       24.6244       24.6245      23.510052       0.01420
  36     2.964        1.1145        0.0001       24.6233       24.6234      23.508926       0.01414
  35     3.853        1.1145        0.0002       24.6218       24.6220      23.507438       0.01412
  34     5.035        1.1146        0.0002       24.6198       24.6200      23.505461       0.01412
  33     6.613        1.1146        0.0003       24.6172       24.6174      23.502820       0.01412
  32     8.786        1.1147        0.0004       24.6136       24.6140      23.499259       0.01383
  31     11.80        1.1148        0.0005       24.6085       24.6090      23.494165       0.01426
  30     15.07        1.1149        0.0007       24.6030       24.6036      23.488696       0.01412
  29     18.79        1.1151        0.0008       24.5968       24.5976      23.482518       0.01401
  28     23.16        1.1152        0.0010       24.5895       24.5905      23.475304       0.01395
  27     28.12        1.1154        0.0012       24.5812       24.5825      23.467057       0.01402
  26     33.73        1.1156        0.0015       24.5720       24.5734      23.457832       0.01387
  25     40.54        1.1158        0.0017       24.5608       24.5625      23.446695       0.01382
  24     48.69        1.1161        0.0021       24.5473       24.5494      23.433283       0.01388
  23     57.69        1.1165        0.0025       24.5326       24.5350      23.418569       0.01379
  22     68.43        1.1169        0.0029       24.5150       24.5179      23.401074       0.01375
  21     81.20        1.1174        0.0035       24.4941       24.4976      23.380274       0.01374
  20     96.49        1.1179        0.0041       24.4694       24.4735      23.355554       0.01364
  19     114.6        1.1186        0.0049       24.4400       24.4449      23.326297       0.01366
  18     136.5        1.1195        0.0058       24.4054       24.4112      23.291754       0.01328
  17     162.9        1.1205        0.0069       24.3644       24.3713      23.250805       0.01309
  16     196.4        1.1219        0.0083       24.3116       24.3199      23.197996       0.01329
  15     218.7        1.1229        0.0092       24.2771       24.2863      23.163470       0.01311
  14     243.0        1.1239        0.0102       24.2397       24.2499      23.126040       0.01298
  13     269.0        1.1251        0.0113       24.1993       24.2106      23.085536       0.01314
  12     297.5        1.1264        0.0125       24.1556       24.1681      23.041743       0.01299
  11     328.5        1.1278        0.0138       24.1084       24.1222      22.994363       0.01288
  10     361.9        1.1295        0.0151       24.0575       24.0727      22.943190       0.01295
   9     398.1        1.1314        0.0166       24.0026       24.0192      22.887782       0.01291
   8     437.6        1.1335        0.0182       23.9430       23.9612      22.827623       0.01286
   7     480.5        1.1360        0.0199       23.8783       23.8982      22.762181       0.01285
   6     533.0        1.1393        0.0219       23.7972       23.8191      22.679810       0.01325
   5     589.8        1.1433        0.0241       23.7068       23.7310      22.587630       0.01368
   4     651.6        1.1484        0.0265       23.6034       23.6299      22.481594       0.01450
   3     718.7        1.1548        0.0291       23.4831       23.5121      22.357334       0.01562
   2     792.3        1.1635        0.0317       23.3388       23.3706      22.207099       0.01723
   1     891.5        1.1790        0.0352       23.1128       23.1480      21.969010       0.02026
   0    1013.0        1.2054        0.0392       22.7908       22.8300      21.624576       0.02392



 Wavenumbers:  8050. - 12850. cm-1, ATM      1
 LEVEL PRESSURE   UPWARD FLUX   DIFDOWN FLUX  DIRDOWN FLUX  DOWNWARD FLUX   NET FLUX    HEATING RATE
          mb          W/m2          W/m2          W/m2        W/m2          W/m2       degree/day
  51    .06700       14.9098        0.0000      344.8128      344.8128     329.903061       0.00000
  50    .07753       14.9098        0.0000      344.8128      344.8128     329.903061       0.00000
  49    .09103       14.9097        0.0001      344.8127      344.8128     329.903061       0.00000
  48    0.1069       14.9097        0.0001      344.8127      344.8128     329.903061      -0.00000
  47    0.1255       14.9097        0.0001      344.8126      344.8127     329.903061       0.00000
  46    0.1487       14.9096        0.0002      344.8125      344.8127     329.903061      -0.00000
  45    0.1794       14.9096        0.0002      344.8124      344.8126     329.903061       0.00000
  44    0.2165       14.9095        0.0003      344.8122      344.8126     329.903061       0.00000
  43    0.2613       14.9094        0.0004      344.8121      344.8125     329.903061       0.00000
  42    0.3336       14.9093        0.0006      344.8118      344.8123     329.903061       0.00000
  41    0.4307       14.9091        0.0008      344.8114      344.8122     329.903061       0.00000
  40    0.5894       14.9088        0.0011      344.8108      344.8119     329.903061       0.00000
  39     1.339       14.9074        0.0027      344.8078      344.8105     329.903061      -0.00000
  38     1.782       14.9066        0.0036      344.8061      344.8097     329.903061      -0.00000
  37     2.292       14.9057        0.0047      344.8041      344.8088     329.903061       0.00000
  36     2.964       14.9045        0.0061      344.8014      344.8075     329.903061       0.00000
  35     3.853       14.9028        0.0080      344.7979      344.8059     329.903061      -0.00000
  34     5.035       14.9007        0.0104      344.7933      344.8037     329.903061      -0.00000
  33     6.613       14.8978        0.0138      344.7871      344.8008     329.903061       0.00000
  32     8.786       14.8939        0.0182      344.7787      344.7970     329.903061      -0.00000
  31     11.80       14.8883        0.0246      344.7667      344.7914     329.903061       0.00000
  30     15.07       14.8823        0.0315      344.7539      344.7854     329.903061       0.00000
  29     18.79       14.8755        0.0393      344.7393      344.7786     329.903061       0.00000
  28     23.16       14.8676        0.0484      344.7223      344.7707     329.903061      -0.00000
  27     28.12       14.8585        0.0588      344.7028      344.7616     329.903061       0.00000
  26     33.73       14.8484        0.0705      344.6809      344.7514     329.903061       0.00000
  25     40.54       14.8360        0.0846      344.6545      344.7391     329.903061      -0.00000
  24     48.69       14.8212        0.1017      344.6225      344.7242     329.903061       0.00000
  23     57.69       14.8048        0.1205      344.5874      344.7079     329.903061      -0.00000
  22     68.43       14.7853        0.1428      344.5455      344.6884     329.903061       0.00000
  21     81.20       14.7620        0.1696      344.4955      344.6650     329.903061       0.00000
  20     96.49       14.7341        0.2014      344.4358      344.6372     329.903061      -0.00000
  19     114.6       14.7011        0.2394      344.3587      344.5980     329.896985       0.00284
  18     136.5       14.6617        0.2844      344.2667      344.5511     329.889412       0.00291
  17     162.9       14.6147        0.3382      344.1533      344.4915     329.876745       0.00405
  16     196.4       14.5536        0.4081      343.9892      344.3974     329.843803       0.00829
  15     218.7       14.5133        0.4541      343.8402      344.2943     329.780984       0.02385
  14     243.0       14.4697        0.5040      343.5933      344.0974     329.627703       0.05316
  13     269.0       14.4225        0.5580      343.1662      343.7241     329.301639       0.10577
  12     297.5       14.3720        0.6160      342.4819      343.0979     328.725834       0.17078
  11     328.5       14.3180        0.6784      341.5922      342.2706     327.952564       0.21025
  10     361.9       14.2607        0.7453      340.5080      341.2533     326.992598       0.24288
   9     398.1       14.2003        0.8167      339.1885      340.0053     325.805008       0.27668
   8     437.6       14.1374        0.8924      337.5272      338.4196     324.282241       0.32558
   7     480.5       14.0729        0.9722      335.4327      336.4049     322.331948       0.38303
   6     533.0       13.9990        1.0680      332.3652      333.4332     319.434187       0.46616
   5     589.8       13.9293        1.1677      328.3420      329.5097     315.580387       0.57203
   4     651.6       13.8753        1.2680      322.7671      324.0352     310.159838       0.74127
   3     718.7       13.8522        1.3682      315.5619      316.9300     303.077880       0.89001
   2     792.3       13.8941        1.4651      306.5104      307.9755     294.081408       1.03179
   1     891.5       14.1390        1.5789      292.9732      294.5521     280.413084       1.16311
   0    1013.0       15.0400        1.6967      276.3074      278.0042     262.964150       1.21157



 Wavenumbers: 12850. - 16000. cm-1, ATM      1
 LEVEL PRESSURE   UPWARD FLUX   DIFDOWN FLUX  DIRDOWN FLUX  DOWNWARD FLUX   NET FLUX    HEATING RATE
          mb          W/m2          W/m2          W/m2        W/m2          W/m2       degree/day
  51    .06700       19.6727        0.0000      216.0557      216.0557     196.383041       0.00000
  50    .07753       19.6726        0.0001      216.0548      216.0549     196.382261       0.62549
  49    .09103       19.6726        0.0001      216.0538      216.0539     196.381278       0.61443
  48    0.1069       19.6725        0.0002      216.0525      216.0527     196.380144       0.60326
  47    0.1255       19.6725        0.0003      216.0510      216.0513     196.378838       0.59242
  46    0.1487       19.6724        0.0004      216.0492      216.0496     196.377182       0.60362
  45    0.1794       19.6723        0.0005      216.0467      216.0473     196.374915       0.62236
  44    0.2165       19.6722        0.0007      216.0438      216.0445     196.372227       0.61139
  43    0.2613       19.6721        0.0009      216.0403      216.0412     196.369039       0.60089
  42    0.3336       19.6720        0.0013      216.0345      216.0357     196.363773       0.61405
  41    0.4307       19.6718        0.0017      216.0269      216.0286     196.356844       0.60244
  40    0.5894       19.6715        0.0025      216.0146      216.0171     196.345642       0.59570
  39     1.339       19.6709        0.0060      215.9584      215.9644     196.293502       0.58700
  38     1.782       19.6711        0.0081      215.9258      215.9340     196.262863       0.58331
  37     2.292       19.6719        0.0105      215.8879      215.8985     196.226608       0.60049
  36     2.964       19.6736        0.0137      215.8370      215.8507     196.177083       0.62168
  35     3.853       19.6771        0.0179      215.7678      215.7857     196.108597       0.64995
  34     5.035       19.6829        0.0235      215.6752      215.6987     196.015791       0.66297
  33     6.613       19.6911        0.0309      215.5548      215.5857     195.894519       0.64832
  32     8.786       19.7016        0.0409      215.4027      215.4435     195.741890       0.59276
  31     11.80       19.7144        0.0552      215.2043      215.2594     195.544983       0.55128
  30     15.07       19.7256        0.0705      215.0098      215.0803     195.354682       0.49132
  29     18.79       19.7359        0.0878      214.8056      214.8934     195.157445       0.44720
  28     23.16       19.7453        0.1080      214.5841      214.6921     194.946792       0.40733
  27     28.12       19.7529        0.1311      214.3504      214.4814     194.728546       0.37100
  26     33.73       19.7569        0.1569      214.1164      214.2733     194.516368       0.31902
  25     40.54       19.7566        0.1881      213.8655      214.0536     194.296957       0.27220
  24     48.69       19.7513        0.2257      213.5943      213.8200     194.068706       0.23620
  23     57.69       19.7406        0.2671      213.3269      213.5940     193.853390       0.20183
  22     68.43       19.7226        0.3163      213.0419      213.3583     193.635696       0.17114
  21     81.20       19.6939        0.3751      212.7488      213.1239     193.430002       0.13592
  20     96.49       19.6532        0.4452      212.4447      212.8899     193.236764       0.10665
  19     114.6       19.6041        0.5288      212.1101      212.6389     193.034896       0.09426
  18     136.5       19.5429        0.6279      211.7382      212.3662     192.823318       0.08136
  17     162.9       19.4672        0.7459      211.3198      212.0657     192.598546       0.07185
  16     196.4       19.3633        0.8990      210.8156      211.7146     192.351296       0.06224
  15     218.7       19.2929        0.9995      210.4965      211.4960     192.203110       0.05626
  14     243.0       19.2153        1.1087      210.1519      211.2607     192.045378       0.05471
  13     269.0       19.1302        1.2271      209.7781      211.0051     191.874906       0.05530
  12     297.5       19.0375        1.3549      209.3683      210.7232     191.685757       0.05610
  11     328.5       18.9369        1.4929      208.9170      210.4099     191.473075       0.05783
  10     361.9       18.8283        1.6414      208.4189      210.0604     191.232021       0.06099
   9     398.1       18.7116        1.8011      207.8679      209.6690     190.957403       0.06398
   8     437.6       18.5869        1.9723      207.2544      209.2267     190.639786       0.06791
   7     480.5       18.4543        2.1554      206.5713      208.7267     190.272399       0.07215
   6     533.0       18.2936        2.3801      205.6883      208.0684     189.774809       0.08005
   5     589.8       18.1258        2.6210      204.6670      207.2879     189.162138       0.09094
   4     651.6       17.9577        2.8772      203.4324      206.3096     188.351933       0.11080
   3     718.7       17.7938        3.1477      201.9561      205.1038     187.310068       0.13093
   2     792.3       17.6503        3.4295      200.1346      203.5641     185.913789       0.16014
   1     891.5       17.5363        3.7937      197.2502      201.0439     183.507664       0.20475
   0    1013.0       17.5765        4.2076      193.2807      197.4882     179.911766       0.24968



 Wavenumbers: 16000. - 22650. cm-1, ATM      1
 LEVEL PRESSURE   UPWARD FLUX   DIFDOWN FLUX  DIRDOWN FLUX  DOWNWARD FLUX   NET FLUX    HEATING RATE
          mb          W/m2          W/m2          W/m2        W/m2          W/m2       degree/day
  51    .06700       67.6243        0.0000      344.4769      344.4769     276.852594       0.00000
  50    .07753       67.6242        0.0003      344.4763      344.4767     276.852481       0.09080
  49    .09103       67.6240        0.0007      344.4756      344.4763     276.852316       0.10299
  48    0.1069       67.6238        0.0012      344.4748      344.4759     276.852096       0.11744
  47    0.1255       67.6236        0.0017      344.4737      344.4754     276.851800       0.13386
  46    0.1487       67.6234        0.0024      344.4724      344.4748     276.851365       0.15863
  45    0.1794       67.6231        0.0033      344.4705      344.4738     276.850685       0.18677
  44    0.2165       67.6228        0.0044      344.4682      344.4725     276.849762       0.20991
  43    0.2613       67.6224        0.0056      344.4653      344.4709     276.848510       0.23599
  42    0.3336       67.6219        0.0077      344.4603      344.4681     276.846130       0.27752
  41    0.4307       67.6214        0.0105      344.4534      344.4639     276.842542       0.31196
  40    0.5894       67.6208        0.0151      344.4414      344.4565     276.835699       0.36389
  39     1.339       67.6227        0.0368      344.3711      344.4078     276.785142       0.56918
  38     1.782       67.6274        0.0495      344.3200      344.3695     276.742071       0.81999
  37     2.292       67.6361        0.0642      344.2517      344.3159     276.679724       1.03264
  36     2.964       67.6527        0.0835      344.1480      344.2315     276.578714       1.26797
  35     3.853       67.6818        0.1090      343.9913      344.1003     276.418422       1.52120
  34     5.035       67.7276        0.1428      343.7640      343.9068     276.179248       1.70856
  33     6.613       67.7923        0.1880      343.4511      343.6391     275.846803       1.77725
  32     8.786       67.8757        0.2488      343.0410      343.2898     275.414113       1.68041
  31     11.80       67.9810        0.3357      342.4947      342.8304     274.849388       1.58105
  30     15.07       68.0776        0.4289      341.9547      342.3836     274.305956       1.40304
  29     18.79       68.1720        0.5340      341.3868      341.9208     273.748802       1.26324
  28     23.16       68.2652        0.6567      340.7717      341.4284     273.163176       1.13241
  27     28.12       68.3519        0.7968      340.1241      340.9210     272.569046       1.00998
  26     33.73       68.4204        0.9536      339.4775      340.4312     272.010787       0.83936
  25     40.54       68.4701        1.1430      338.7859      339.9289     271.458840       0.68475
  24     48.69       68.4978        1.3711      338.0389      339.4100     270.912215       0.56567
  23     57.69       68.4971        1.6216      337.3015      338.9231     270.426045       0.45571
  22     68.43       68.4626        1.9198      336.5123      338.4321     269.969507       0.35890
  21     81.20       68.3754        2.2750      335.6921      337.9672     269.591717       0.24964
  20     96.49       68.2287        2.6983      334.8256      337.5239     269.295145       0.16369
  19     114.6       68.0316        3.1998      333.8560      337.0558     269.024179       0.12652
  18     136.5       67.7816        3.7925      332.7466      336.5391     268.757515       0.10254
  17     162.9       67.4680        4.4958      331.4625      335.9583     268.490280       0.08542
  16     196.4       67.0290        5.4045      329.8743      335.2788     268.249809       0.06053
  15     218.7       66.7278        5.9990      328.8601      334.8591     268.131280       0.04500
  14     243.0       66.3935        6.6431      327.7715      334.4146     268.021129       0.03820
  13     269.0       66.0235        7.3386      326.6061      333.9447     267.921184       0.03242
  12     297.5       65.6160        8.0874      325.3603      333.4477     267.831700       0.02654
  11     328.5       65.1698        8.8931      324.0212      332.9142     267.744444       0.02372
  10     361.9       64.6830        9.7566      322.5859      332.3425     267.659481       0.02150
   9     398.1       64.1523       10.6814      321.0470      331.7283     267.576050       0.01944
   8     437.6       63.5754       11.6692      319.3978      331.0670     267.491602       0.01806
   7     480.5       62.9493       12.7221      317.6330      330.3551     267.405794       0.01685
   6     533.0       62.1683       14.0098      315.4613      329.4711     267.302729       0.01658
   5     589.8       61.3150       15.3874      313.1151      328.5025     267.187494       0.01710
   4     651.6       60.3863       16.8565      310.5763      327.4327     267.046398       0.01930
   3     718.7       59.3784       18.4185      307.8270      326.2455     266.867065       0.02254
   2     792.3       58.2922       20.0716      304.8404      324.9121     266.619905       0.02835
   1     891.5       56.8237       22.2679      300.7148      322.9828     266.159041       0.03922
   0    1013.0       55.0586       24.8496      295.6311      320.4807     265.422104       0.05117



 Wavenumbers: 22650. - 29000. cm-1, ATM      1
 LEVEL PRESSURE   UPWARD FLUX   DIFDOWN FLUX  DIRDOWN FLUX  DOWNWARD FLUX   NET FLUX    HEATING RATE
          mb          W/m2          W/m2          W/m2        W/m2          W/m2       degree/day
  51    .06700       36.8907        0.0000      129.9930      129.9930      93.102303       0.00000
  50    .07753       36.8906        0.0004      129.9925      129.9929      93.102303       0.00000
  49    .09103       36.8904        0.0009      129.9918      129.9927      93.102303       0.00000
  48    0.1069       36.8902        0.0015      129.9910      129.9925      93.102303      -0.00000
  47    0.1255       36.8899        0.0021      129.9901      129.9922      93.102303       0.00000
  46    0.1487       36.8896        0.0030      129.9889      129.9919      93.102303       0.00000
  45    0.1794       36.8891        0.0041      129.9874      129.9914      93.102303      -0.00000
  44    0.2165       36.8886        0.0054      129.9855      129.9909      93.102303       0.00000
  43    0.2613       36.8880        0.0070      129.9833      129.9903      93.102303       0.00000
  42    0.3336       36.8870        0.0097      129.9796      129.9893      93.102303       0.00000
  41    0.4307       36.8856        0.0132      129.9747      129.9879      93.102303      -0.00000
  40    0.5894       36.8834        0.0189      129.9668      129.9857      93.102303       0.00000
  39     1.339       36.8728        0.0459      129.9292      129.9751      93.102303       0.00000
  38     1.782       36.8666        0.0618      129.9071      129.9689      93.102303       0.00000
  37     2.292       36.8594        0.0801      129.8815      129.9617      93.102303      -0.00000
  36     2.964       36.8499        0.1042      129.8480      129.9522      93.102303       0.00000
  35     3.853       36.8374        0.1361      129.8036      129.9397      93.102303      -0.00000
  34     5.035       36.8208        0.1784      129.7447      129.9231      93.102303       0.00000
  33     6.613       36.7986        0.2349      129.6660      129.9009      93.102303       0.00000
  32     8.786       36.7686        0.3110      129.5599      129.8709      93.102303      -0.00000
  31     11.80       36.7256        0.4197      129.4082      129.8279      93.102303       0.00000
  30     15.07       36.6793        0.5363      129.2453      129.7816      93.102303       0.00000
  29     18.79       36.6269        0.6679      129.0613      129.7292      93.102303       0.00000
  28     23.16       36.5655        0.8213      128.8465      129.6678      93.102303      -0.00000
  27     28.12       36.4951        0.9964      128.6010      129.5974      93.102303       0.00000
  26     33.73       36.4161        1.1918      128.3266      129.5184      93.102303       0.00000
  25     40.54       36.3202        1.4272      127.9953      129.4225      93.102303      -0.00000
  24     48.69       36.2041        1.7099      127.5965      129.3064      93.102303       0.00000
  23     57.69       36.0760        2.0191      127.1593      129.1783      93.102303       0.00000
  22     68.43       35.9226        2.3853      126.6397      129.0249      93.102303      -0.00000
  21     81.20       35.7388        2.8187      126.0224      128.8411      93.102303      -0.00000
  20     96.49       35.5181        3.3309      125.2896      128.6204      93.102303       0.00000
  19     114.6       35.2540        3.9329      124.4234      128.3563      93.102303      -0.00000
  18     136.5       34.9380        4.6379      123.4024      128.0403      93.102303       0.00000
  17     162.9       34.5575        5.4651      122.1947      127.6598      93.102303       0.00000
  16     196.4       34.0574        6.5178      120.6419      127.1597      93.102303       0.00000
  15     218.7       33.7249        7.1969      119.6303      126.8272      93.102303       0.00000
  14     243.0       33.3598        7.9242      118.5379      126.4621      93.102303      -0.00000
  13     269.0       32.9597        8.6996      117.3624      126.0620      93.102303       0.00000
  12     297.5       32.5222        9.5227      116.1018      125.6245      93.102303       0.00000
  11     328.5       32.0433       10.3950      114.7505      125.1456      93.102303      -0.00000
  10     361.9       31.5205       11.3145      113.3083      124.6228      93.102303      -0.00000
   9     398.1       30.9495       12.2813      111.7705      124.0518      93.102303       0.00000
   8     437.6       30.3266       13.2935      110.1353      123.4289      93.102303      -0.00000
   7     480.5       29.6475       14.3488      108.4010      122.7498      93.102303       0.00000
   6     533.0       28.7952       15.6058      106.2917      121.8975      93.102303       0.00000
   5     589.8       27.8556       16.9096      104.0483      120.9579      93.102303       0.00000
   4     651.6       26.8206       18.2529      101.6700      119.9229      93.102303       0.00000
   3     718.7       25.6808       19.6273       99.1558      118.7831      93.102303      -0.00000
   2     792.3       24.4271       21.0210       96.5083      117.5294      93.102303      -0.00000
   1     891.5       22.6787       22.7746       93.0064      115.7810      93.102303       0.00000
   0    1013.0       20.4925       24.6866       88.9082      113.5948      93.102303       0.00000



 Wavenumbers: 29000. - 38000. cm-1, ATM      1
 LEVEL PRESSURE   UPWARD FLUX   DIFDOWN FLUX  DIRDOWN FLUX  DOWNWARD FLUX   NET FLUX    HEATING RATE
          mb          W/m2          W/m2          W/m2        W/m2          W/m2       degree/day
  51    .06700        7.8172        0.0000       45.8410       45.8410      38.023787       0.00000
  50    .07753        7.8170        0.0003       45.8366       45.8370      38.019974       3.05646
  49    .09103        7.8168        0.0007       45.8305       45.8312      38.014423       3.46939
  48    0.1069        7.8165        0.0012       45.8223       45.8235      38.006986       3.95870
  47    0.1255        7.8162        0.0017       45.8116       45.8133      37.997029       4.51384
  46    0.1487        7.8159        0.0023       45.7959       45.7982      37.982357       5.34805
  45    0.1794        7.8154        0.0032       45.7716       45.7749      37.959447       6.28960
  44    0.2165        7.8149        0.0043       45.7391       45.7434      37.928444       7.05261
  43    0.2613        7.8144        0.0055       45.6954       45.7009      37.886534       7.89986
  42    0.3336        7.8136        0.0076       45.6134       45.6210      37.807416       9.22429
  41    0.4307        7.8126        0.0103       45.4920       45.5022      37.689683      10.23666
  40    0.5894        7.8112        0.0146       45.2670       45.2816      37.470384      11.66205
  39     1.339        7.8090        0.0333       43.8242       43.8574      36.048484      16.00800
  38     1.782        7.8105        0.0430       42.8351       42.8781      35.067614      18.67418
  37     2.292        7.8146        0.0534       41.6852       41.7387      33.924066      18.94015
  36     2.964        7.8237        0.0663       40.2943       40.3606      32.536880      17.41338
  35     3.853        7.8408        0.0824       38.7687       38.8510      31.010271      14.48780
  34     5.035        7.8685        0.1028       37.2304       37.3332      29.464723      11.04075
  33     6.613        7.9088        0.1293       35.7405       35.8698      27.960964       8.03910
  32     8.786        7.9624        0.1640       34.3295       34.4935      26.531071       5.55319
  31     11.80        8.0332        0.2125       32.9481       33.1606      25.127386       3.92988
  30     15.07        8.1026        0.2636       31.8942       32.1578      24.055272       2.76799
  29     18.79        8.1754        0.3200       30.9854       31.3055      23.130081       2.09769
  28     23.16        8.2543        0.3848       30.1559       30.5407      22.286424       1.63136
  27     28.12        8.3367        0.4578       29.4043       29.8620      21.525331       1.29381
  26     33.73        8.4144        0.5391       28.7514       29.2905      20.876098       0.97614
  25     40.54        8.4895        0.6370       28.1328       28.7698      20.280328       0.73912
  24     48.69        8.5615        0.7543       27.5340       28.2884      19.726903       0.57271
  23     57.69        8.6211        0.8825       26.9971       27.8795      19.258461       0.43909
  22     68.43        8.6688        1.0343       26.4694       27.5037      18.834923       0.33296
  21     81.20        8.6885        1.2160       25.9669       27.1829      18.494351       0.22504
  20     96.49        8.6748        1.4325       25.4748       26.9073      18.232501       0.14452
  19     114.6        8.6387        1.6851       24.9506       26.6358      17.997059       0.10993
  18     136.5        8.5826        1.9763       24.3745       26.3508      17.768166       0.08801
  17     162.9        8.5032        2.3123       23.7328       26.0452      17.541977       0.07230
  16     196.4        8.3705        2.7362       22.9761       25.7123      17.341838       0.05038
  15     218.7        8.2710        3.0045       22.5089       25.5134      17.242428       0.03774
  14     243.0        8.1563        3.2873       22.0192       25.3065      17.150153       0.03200
  13     269.0        8.0246        3.5838       21.5077       25.0915      17.066914       0.02700
  12     297.5        7.8744        3.8928       20.9749       24.8677      16.993289       0.02184
  11     328.5        7.7062        4.2123       20.4165       24.6288      16.922631       0.01921
  10     361.9        7.5186        4.5402       19.8338       24.3740      16.855378       0.01702
   9     398.1        7.3096        4.8746       19.2267       24.1013      16.791680       0.01484
   8     437.6        7.0779        5.2128       18.5955       23.8083      16.730429       0.01310
   7     480.5        6.8211        5.5518       17.9419       23.4937      16.672588       0.01136
   6     533.0        6.4938        5.9369       17.1671       23.1040      16.610165       0.01004
   5     589.8        6.1279        6.3119       16.3664       22.6783      16.550383       0.00887
   4     651.6        5.7199        6.6709       15.5420       22.2129      16.493000       0.00785
   3     718.7        5.2655        7.0063       14.6973       21.7036      16.438121       0.00690
   2     792.3        4.7601        7.3085       13.8375       21.1460      16.385870       0.00599
   1     891.5        4.0483        7.6288       12.7437       20.3725      16.324279       0.00524
   0    1013.0        3.1481        7.8805       11.5285       19.4090      16.260873       0.00440



 Wavenumbers: 38000. - 50000. cm-1, ATM      1
 LEVEL PRESSURE   UPWARD FLUX   DIFDOWN FLUX  DIRDOWN FLUX  DOWNWARD FLUX   NET FLUX    HEATING RATE
          mb          W/m2          W/m2          W/m2        W/m2          W/m2       degree/day
  51    .06700        0.0077        0.0000        2.8274        2.8274       2.819732       0.00000
  50    .07753        0.0076        0.0001        2.8250        2.8250       2.817394       1.87426
  49    .09103        0.0076        0.0002        2.8215        2.8216       2.814052       2.08853
  48    0.1069        0.0075        0.0003        2.8169        2.8172       2.809652       2.34203
  47    0.1255        0.0074        0.0004        2.8109        2.8113       2.803854       2.62885
  46    0.1487        0.0073        0.0005        2.8022        2.8027       2.795433       3.06948
  45    0.1794        0.0072        0.0007        2.7889        2.7896       2.782446       3.56531
  44    0.2165        0.0070        0.0009        2.7712        2.7721       2.765088       3.94851
  43    0.2613        0.0068        0.0012        2.7476        2.7487       2.741916       4.36792
  42    0.3336        0.0065        0.0015        2.7038        2.7053       2.698800       5.02689
  41    0.4307        0.0062        0.0020        2.6399        2.6419       2.635738       5.48307
  40    0.5894        0.0056        0.0027        2.5241        2.5268       2.521231       6.08937
  39     1.339        0.0038        0.0042        1.8543        1.8585       1.854685       7.50409
  38     1.782        0.0031        0.0041        1.4655        1.4696       1.466513       7.39018
  37     2.292        0.0024        0.0036        1.0872        1.0908       1.088339       6.26353
  36     2.964        0.0019        0.0030        0.7358        0.7388       0.736859       4.41214
  35     3.853        0.0015        0.0024        0.4711        0.4735       0.472010       2.51347
  34     5.035        0.0012        0.0019        0.2988        0.3008       0.299620       1.23148
  33     6.613        0.0009        0.0016        0.1889        0.1905       0.189608       0.58813
  32     8.786        0.0007        0.0013        0.1196        0.1208       0.120133       0.26981
  31     11.80        0.0005        0.0010        0.0741        0.0751       0.074563       0.12758
  30     15.07        0.0004        0.0008        0.0493        0.0501       0.049700       0.06419
  29     18.79        0.0003        0.0006        0.0330        0.0336       0.033348       0.03707
  28     23.16        0.0002        0.0004        0.0217        0.0221       0.021940       0.02206
  27     28.12        0.0001        0.0003        0.0140        0.0144       0.014212       0.01314
  26     33.73        0.0001        0.0002        0.0091        0.0093       0.009223       0.00750
  25     40.54        0.0001        0.0002        0.0057        0.0059       0.005793       0.00426
  24     48.69        0.0000        0.0001        0.0034        0.0035       0.003483       0.00239
  23     57.69        0.0000        0.0001        0.0020        0.0021       0.002088       0.00131
  22     68.43        0.0000        0.0000        0.0012        0.0012       0.001190       0.00071
  21     81.20        0.0000        0.0000        0.0006        0.0007       0.000647       0.00036
  20     96.49        0.0000        0.0000        0.0003        0.0003       0.000330       0.00018
  19     114.6        0.0000        0.0000        0.0001        0.0002       0.000151       0.00008
  18     136.5        0.0000        0.0000        0.0001        0.0001       0.000060       0.00003
  17     162.9        0.0000        0.0000        0.0000        0.0000       0.000020       0.00001
  16     196.4        0.0000        0.0000        0.0000        0.0000       0.000005       0.00000
  15     218.7        0.0000        0.0000        0.0000        0.0000       0.000002       0.00000
  14     243.0        0.0000        0.0000        0.0000        0.0000       0.000001       0.00000
  13     269.0        0.0000        0.0000        0.0000        0.0000       0.000000       0.00000
  12     297.5        0.0000        0.0000        0.0000        0.0000       0.000000       0.00000
  11     328.5        0.0000        0.0000        0.0000        0.0000       0.000000       0.00000
  10     361.9        0.0000        0.0000        0.0000        0.0000       0.000000       0.00000
   9     398.1        0.0000        0.0000        0.0000        0.0000       0.000000       0.00000
   8     437.6        0.0000        0.0000        0.0000        0.0000       0.000000       0.00000
   7     480.5        0.0000        0.0000        0.0000        0.0000       0.000000       0.00000
   6     533.0        0.0000        0.0000        0.0000        0.0000       0.000000       0.00000
   5     589.8        0.0000        0.0000        0.0000        0.0000       0.000000       0.00000
   4     651.6        0.0000        0.0000        0.0000        0.0000       0.000000       0.00000
   3     718.7        0.0000        0.0000        0.0000        0.0000       0.000000       0.00000
   2     792.3        0.0000        0.0000        0.0000        0.0000       0.000000       0.00000
   1     891.5        0.0000        0.0000        0.0000        0.0000       0.000000       0.00000
   0    1013.0        0.0000        0.0000        0.0000        0.0000       0.000000       0.00000



 Wavenumbers:   820. -  2600. cm-1, ATM      1
 LEVEL PRESSURE   UPWARD FLUX   DIFDOWN FLUX  DIRDOWN FLUX  DOWNWARD FLUX   NET FLUX    HEATING RATE
          mb          W/m2          W/m2          W/m2        W/m2          W/m2       degree/day
  51    .06700        0.1866        0.0000       13.2264       13.2264      13.039825       0.00000
  50    .07753        0.1866        0.0000       13.2194       13.2194      13.032803       5.62795
  49    .09103        0.1866        0.0000       13.2178       13.2178      13.031228       0.98409
  48    0.1069        0.1866        0.0000       13.2167       13.2167      13.030102       0.59956
  47    0.1255        0.1866        0.0000       13.2154       13.2154      13.028811       0.58515
  46    0.1487        0.1866        0.0000       13.2137       13.2137      13.027154       0.60401
  45    0.1794        0.1866        0.0000       13.2114       13.2114      13.024895       0.62011
  44    0.2165        0.1866        0.0000       13.2088       13.2088      13.022277       0.59556
  43    0.2613        0.1866        0.0000       13.2059       13.2059      13.019297       0.56188
  42    0.3336        0.1866        0.0000       13.2013       13.2013      13.014733       0.53209
  41    0.4307        0.1866        0.0000       13.1959       13.1959      13.009362       0.46695
  40    0.5894        0.1866        0.0000       13.1882       13.1882      13.001671       0.40902
  39     1.339        0.1866        0.0000       13.1557       13.1557      12.969135       0.36629
  38     1.782        0.1866        0.0000       13.1371       13.1371      12.950548       0.35387
  37     2.292        0.1866        0.0000       13.1162       13.1162      12.929602       0.34693
  36     2.964        0.1866        0.0000       13.0894       13.0894      12.902847       0.33585
  35     3.853        0.1866        0.0000       13.0549       13.0549      12.868346       0.32742
  34     5.035        0.1866        0.0000       13.0106       13.0106      12.824042       0.31649
  33     6.613        0.1866        0.0000       12.9545       12.9545      12.767924       0.30000
  32     8.786        0.1866        0.0000       12.8834       12.8834      12.696796       0.27624
  31     11.80        0.1866        0.0000       12.7885       12.7885      12.601894       0.26570
  30     15.07        0.1866        0.0000       12.6943       12.6944      12.507787       0.24297
  29     18.79        0.1866        0.0000       12.5999       12.5999      12.413329       0.21417
  28     23.16        0.1866        0.0000       12.5086       12.5086      12.322058       0.17649
  27     28.12        0.1866        0.0000       12.4288       12.4289      12.242280       0.13562
  26     33.73        0.1866        0.0000       12.3650       12.3650      12.178436       0.09599
  25     40.54        0.1866        0.0000       12.3120       12.3120      12.125415       0.06578
  24     48.69        0.1866        0.0000       12.2668       12.2668      12.080262       0.04673
  23     57.69        0.1866        0.0000       12.2260       12.2260      12.039410       0.03829
  22     68.43        0.1866        0.0000       12.1803       12.1803      11.993666       0.03596
  21     81.20        0.1866        0.0000       12.1270       12.1270      11.940416       0.03519
  20     96.49        0.1866        0.0000       12.0640       12.0640      11.877354       0.03481
  19     114.6        0.1866        0.0000       11.9885       11.9885      11.801917       0.03522
  18     136.5        0.1866        0.0000       11.8987       11.8988      11.712110       0.03453
  17     162.9        0.1867        0.0000       11.7817       11.7818      11.595076       0.03741
  16     196.4        0.1867        0.0000       11.5930       11.5930      11.406282       0.04752
  15     218.7        0.1868        0.0000       11.4055       11.4056      11.218798       0.07118
  14     243.0        0.1868        0.0000       11.1045       11.1045      10.917681       0.10444
  13     269.0        0.1869        0.0000       10.6901       10.6901      10.503167       0.13447
  12     297.5        0.1871        0.0000       10.2200       10.2201      10.032938       0.13946
  11     328.5        0.1874        0.0000        9.8187        9.8187       9.631372       0.10918
  10     361.9        0.1877        0.0000        9.4313        9.4313       9.243661       0.09809
   9     398.1        0.1881        0.0000        8.9858        8.9858       8.797692       0.10390
   8     437.6        0.1886        0.0000        8.4654        8.4654       8.276802       0.11137
   7     480.5        0.1893        0.0000        7.9394        7.9395       7.750168       0.10343
   6     533.0        0.1903        0.0000        7.4262        7.4262       7.235842       0.08274
   5     589.8        0.1919        0.0000        7.0503        7.0503       6.858452       0.05602
   4     651.6        0.1946        0.0000        6.7312        6.7313       6.536664       0.04401
   3     718.7        0.1992        0.0000        6.3693        6.3693       6.170070       0.04607
   2     792.3        0.2077        0.0000        5.9171        5.9172       5.709470       0.05283
   1     891.5        0.2294        0.0000        5.2716        5.2716       5.042176       0.05678
   0    1013.0        0.2889        0.0000        4.5136        4.5136       4.224754       0.05676

  Modules and versions used in this calculation:

       rrtmg_sw.1col.f90:  $Revision$                    rrtmg_sw_init.f90:  $Revision$        
     rrtmgsw_cldprop.f90:  $Revision$                  rrtmgsw_cldprmc.f90:  NOT USED          
     rrtmg_sw_reftra.f90:  $Revision$                  rrtmg_sw_spcvrt.f90:  NOT USED          
     rrtmg_sw_spcvmc.f90:  NOT USED                    rrtmgsw_setcoef.f90:  NOT USED          
     rrtmg_sw_taumol.f90:  $Revision$                  rrtmg_sw_vrtqdr.f90:  NOT USED          
                rrtatm.f:  NOT USED                             util_xxx.f:  NOT USED          
                 extra.f:  NOT USED                       rrtmg_sw_k_g.f90:  $Revision$        

