

 Wavenumbers:   820. - 50000. cm-1, ATM      1
 LEVEL PRESSURE   UPWARD FLUX   DIFDOWN FLUX  DIRDOWN FLUX  DOWNWARD FLUX   NET FLUX    HEATING RATE
          mb          W/m2          W/m2          W/m2        W/m2          W/m2       degree/day
  51    .06700      196.5654        0.0000     1360.8491     1360.8491    1164.283721       0.00000
  50    .07753      196.5649        0.0012     1360.8273     1360.8285    1164.263611      16.11881
  49    .09103      196.5643        0.0028     1360.8078     1360.8106    1164.246290      10.82620
  48    0.1069      196.5636        0.0046     1360.7860     1360.7906    1164.226994      10.27129
  47    0.1255      196.5628        0.0066     1360.7600     1360.7666    1164.203819      10.50623
  46    0.1487      196.5618        0.0092     1360.7249     1360.7341    1164.172226      11.51593
  45    0.1794      196.5606        0.0127     1360.6734     1360.6861    1164.125528      12.81971
  44    0.2165      196.5593        0.0169     1360.6074     1360.6242    1164.064989      13.77166
  43    0.2613      196.5578        0.0218     1360.5219     1360.5437    1163.985979      14.89307
  42    0.3336      196.5555        0.0299     1360.3673     1360.3972    1163.841706      16.82078
  41    0.4307      196.5529        0.0406     1360.1456     1360.1862    1163.633354      18.11576
  40    0.5894      196.5492        0.0578     1359.7482     1359.8061    1163.256843      20.02235
  39     1.339      196.5451        0.1361     1357.3733     1357.5094    1160.964319      25.80967
  38     1.782      196.5516        0.1798     1355.8375     1356.0173    1159.465669      28.53187
  37     2.292      196.5672        0.2293     1354.1208     1354.3501    1157.782879      27.87139
  36     2.964      196.6000        0.2934     1352.1205     1352.4139    1155.813892      24.71674
  35     3.853      196.6603        0.3773     1349.9734     1350.3507    1153.690454      20.15181
  34     5.035      196.7572        0.4882     1347.7761     1348.2643    1151.507055      15.59730
  33     6.613      196.8960        0.6356     1345.5290     1346.1646    1149.268502      11.96731
  32     8.786      197.0763        0.8335     1343.2079     1344.0413    1146.964978       8.94605
  31     11.80      197.3057        1.1154     1340.6494     1341.7648    1144.459079       7.01573
  30     15.07      197.5189        1.4169     1338.4304     1339.8473    1142.328462       5.50084
  29     18.79      197.7303        1.7560     1336.2864     1338.0425    1140.312215       4.57145
  28     23.16      197.9435        2.1508     1334.1057     1336.2564    1138.312990       3.86586
  27     28.12      198.1473        2.6007     1331.9136     1334.5143    1136.366991       3.30807
  26     33.73      198.3143        3.1035     1329.7853     1332.8889    1134.574504       2.69505
  25     40.54      198.4433        3.7100     1327.5375     1331.2475    1132.804154       2.19632
  24     48.69      198.5276        4.4396     1325.1261     1329.5657    1131.038138       1.82755
  23     57.69      198.5493        5.2389     1322.7388     1327.9777    1129.428379       1.50891
  22     68.43      198.4961        6.1885     1320.1544     1326.3429    1127.846748       1.24337
  21     81.20      198.3187        7.3182     1317.3916     1324.7098    1126.391109       0.96186
  20     96.49      197.9976        8.6606     1314.3811     1323.0418    1125.044175       0.74341
  19     114.6      197.5612       10.2440     1310.9471     1321.1910    1123.629843       0.66039
  18     136.5      197.0008       12.1026     1306.9977     1319.1004    1122.099533       0.58844
  17     162.9      196.2918       14.2914     1302.3518     1316.6432    1120.351420       0.55877
  16     196.4      195.2827       17.0958     1296.2678     1313.3635    1118.080849       0.57153
  15     218.7      194.5835       18.9135     1291.7724     1310.6860    1116.102488       0.75111
  14     243.0      193.8033       20.8678     1286.1481     1307.0159    1113.212633       1.00230
  13     269.0      192.9358       22.9607     1279.0245     1301.9852    1109.049383       1.35054
  12     297.5      191.9761       25.1933     1270.1087     1295.3020    1103.325838       1.69754
  11     328.5      190.9218       27.5713     1260.1713     1287.7426    1096.820767       1.76871
  10     361.9      189.7684       30.0921     1249.4297     1279.5218    1089.753375       1.78812
   9     398.1      188.5079       32.7594     1237.6382     1270.3976    1081.889614       1.83208
   8     437.6      187.1365       35.5711     1224.3920     1259.9631    1072.826595       1.93773
   7     480.5      185.6475       38.5253     1209.7358     1248.2611    1062.613591       2.00580
   6     533.0      183.7936       42.0781     1191.2571     1233.3352    1049.541636       2.10286
   5     589.8      181.7810       45.8035     1170.7333     1216.5369    1034.755905       2.19469
   4     651.6      179.6312       49.6876     1147.0297     1196.7173    1017.086117       2.41639
   3     718.7      177.3662       53.7161     1120.8952     1174.6113     997.245075       2.49347
   2     792.3      175.0695       57.8613     1092.1619     1150.0231     974.953658       2.55658
   1     891.5      172.3956       63.1801     1053.3991     1116.5792     944.183604       2.61838
   0    1013.0      170.6731       69.1540     1008.4859     1077.6400     906.966841       2.58415



 Wavenumbers:  2600. -  3250. cm-1, ATM      1
 LEVEL PRESSURE   UPWARD FLUX   DIFDOWN FLUX  DIRDOWN FLUX  DOWNWARD FLUX   NET FLUX    HEATING RATE
          mb          W/m2          W/m2          W/m2        W/m2          W/m2       degree/day
  51    .06700        0.3712        0.0000       11.9937       11.9937      11.622526       0.00000
  50    .07753        0.3712        0.0000       11.9937       11.9937      11.622518       0.00640
  49    .09103        0.3712        0.0000       11.9937       11.9937      11.622508       0.00627
  48    0.1069        0.3712        0.0000       11.9937       11.9937      11.622496       0.00613
  47    0.1255        0.3712        0.0000       11.9937       11.9937      11.622483       0.00600
  46    0.1487        0.3712        0.0000       11.9937       11.9937      11.622466       0.00608
  45    0.1794        0.3712        0.0000       11.9936       11.9936      11.622443       0.00625
  44    0.2165        0.3712        0.0000       11.9936       11.9936      11.622416       0.00613
  43    0.2613        0.3712        0.0000       11.9936       11.9936      11.622385       0.00601
  42    0.3336        0.3712        0.0000       11.9935       11.9935      11.622332       0.00619
  41    0.4307        0.3712        0.0000       11.9935       11.9935      11.622260       0.00622
  40    0.5894        0.3712        0.0000       11.9933       11.9933      11.622140       0.00640
  39     1.339        0.3712        0.0000       11.9926       11.9926      11.621423       0.00806
  38     1.782        0.3712        0.0000       11.9921       11.9921      11.620868       0.01057
  37     2.292        0.3712        0.0000       11.9913       11.9913      11.620128       0.01226
  36     2.964        0.3712        0.0000       11.9902       11.9902      11.619038       0.01368
  35     3.853        0.3712        0.0000       11.9886       11.9886      11.617454       0.01504
  34     5.035        0.3712        0.0000       11.9864       11.9864      11.615180       0.01624
  33     6.613        0.3712        0.0000       11.9832       11.9832      11.611964       0.01719
  32     8.786        0.3712        0.0000       11.9787       11.9787      11.607480       0.01741
  31     11.80        0.3712        0.0000       11.9722       11.9722      11.601008       0.01812
  30     15.07        0.3712        0.0000       11.9654       11.9654      11.594201       0.01757
  29     18.79        0.3712        0.0000       11.9581       11.9581      11.586913       0.01652
  28     23.16        0.3712        0.0000       11.9502       11.9502      11.578991       0.01532
  27     28.12        0.3712        0.0000       11.9418       11.9418      11.570655       0.01417
  26     33.73        0.3712        0.0000       11.9329       11.9329      11.561693       0.01347
  25     40.54        0.3712        0.0000       11.9222       11.9222      11.550997       0.01327
  24     48.69        0.3712        0.0000       11.9093       11.9093      11.538161       0.01328
  23     57.69        0.3712        0.0000       11.8949       11.8950      11.523769       0.01349
  22     68.43        0.3712        0.0000       11.8770       11.8771      11.505860       0.01408
  21     81.20        0.3712        0.0000       11.8544       11.8544      11.483189       0.01498
  20     96.49        0.3712        0.0000       11.8256       11.8257      11.454441       0.01587
  19     114.6        0.3712        0.0000       11.7886       11.7887      11.417423       0.01728
  18     136.5        0.3713        0.0001       11.7429       11.7430      11.371723       0.01757
  17     162.9        0.3713        0.0001       11.6869       11.6870      11.315687       0.01791
  16     196.4        0.3714        0.0001       11.6129       11.6130      11.241591       0.01865
  15     218.7        0.3715        0.0001       11.5605       11.5606      11.189101       0.01993
  14     243.0        0.3716        0.0001       11.4957       11.4958      11.124168       0.02252
  13     269.0        0.3718        0.0001       11.4130       11.4131      11.041308       0.02688
  12     297.5        0.3721        0.0001       11.3101       11.3102      10.938109       0.03061
  11     328.5        0.3726        0.0001       11.1933       11.1934      10.820795       0.03190
  10     361.9        0.3732        0.0001       11.0632       11.0633      10.690109       0.03306
   9     398.1        0.3740        0.0001       10.9149       10.9151      10.541012       0.03474
   8     437.6        0.3752        0.0001       10.7385       10.7387      10.363473       0.03796
   7     480.5        0.3768        0.0002       10.5233       10.5234      10.146615       0.04259
   6     533.0        0.3793        0.0002       10.2141       10.2142       9.834886       0.05015
   5     589.8        0.3831        0.0002        9.8147        9.8149       9.431703       0.05985
   4     651.6        0.3892        0.0002        9.2987        9.2989       8.909659       0.07139
   3     718.7        0.3989        0.0002        8.7065        8.7067       8.307817       0.07563
   2     792.3        0.4151        0.0002        8.0516        8.0518       7.636690       0.07697
   1     891.5        0.4542        0.0002        7.1628        7.1630       6.708825       0.07896
   0    1013.0        0.5653        0.0002        6.1112        6.1114       5.546053       0.08074



 Wavenumbers:  3250. -  4000. cm-1, ATM      1
 LEVEL PRESSURE   UPWARD FLUX   DIFDOWN FLUX  DIRDOWN FLUX  DOWNWARD FLUX   NET FLUX    HEATING RATE
          mb          W/m2          W/m2          W/m2        W/m2          W/m2       degree/day
  51    .06700        0.0015        0.0000       20.2197       20.2197      20.218201       0.00000
  50    .07753        0.0015        0.0000       20.2140       20.2140      20.212532       4.54406
  49    .09103        0.0015        0.0000       20.2088       20.2088      20.207301       3.26932
  48    0.1069        0.0015        0.0000       20.2043       20.2043      20.202877       2.35506
  47    0.1255        0.0015        0.0000       20.2005       20.2005      20.198997       1.75884
  46    0.1487        0.0015        0.0000       20.1965       20.1965      20.195075       1.42967
  45    0.1794        0.0015        0.0000       20.1921       20.1921      20.190632       1.21962
  44    0.2165        0.0015        0.0000       20.1875       20.1875      20.186066       1.03878
  43    0.2613        0.0015        0.0000       20.1827       20.1827      20.181227       0.91222
  42    0.3336        0.0015        0.0000       20.1757       20.1757      20.174204       0.81870
  41    0.4307        0.0015        0.0000       20.1678       20.1678      20.166310       0.68638
  40    0.5894        0.0015        0.0000       20.1571       20.1571      20.155616       0.56870
  39     1.339        0.0015        0.0000       20.1195       20.1195      20.118083       0.42255
  38     1.782        0.0015        0.0000       20.1017       20.1017      20.100252       0.33948
  37     2.292        0.0014        0.0000       20.0837       20.0837      20.082225       0.29857
  36     2.964        0.0014        0.0000       20.0629       20.0629      20.061475       0.26048
  35     3.853        0.0014        0.0000       20.0387       20.0387      20.037275       0.22966
  34     5.035        0.0014        0.0000       20.0099       20.0099      20.008433       0.20604
  33     6.613        0.0014        0.0000       19.9743       19.9743      19.972883       0.19005
  32     8.786        0.0014        0.0000       19.9279       19.9279      19.926480       0.18021
  31     11.80        0.0014        0.0000       19.8609       19.8609      19.859442       0.18768
  30     15.07        0.0014        0.0000       19.7861       19.7861      19.784649       0.19310
  29     18.79        0.0014        0.0000       19.6981       19.6981      19.696722       0.19936
  28     23.16        0.0014        0.0000       19.5924       19.5924      19.591001       0.20443
  27     28.12        0.0014        0.0000       19.4692       19.4692      19.467789       0.20945
  26     33.73        0.0014        0.0000       19.3318       19.3319      19.330464       0.20647
  25     40.54        0.0014        0.0001       19.1703       19.1704      19.168986       0.20033
  24     48.69        0.0014        0.0001       18.9874       18.9875      18.986097       0.18926
  23     57.69        0.0014        0.0001       18.8032       18.8032      18.801873       0.17268
  22     68.43        0.0014        0.0001       18.6047       18.6048      18.603465       0.15598
  21     81.20        0.0013        0.0001       18.3903       18.3904      18.389100       0.14165
  20     96.49        0.0013        0.0001       18.1531       18.1532      18.151858       0.13094
  19     114.6        0.0013        0.0001       17.8720       17.8722      17.870862       0.13121
  18     136.5        0.0013        0.0002       17.5464       17.5465      17.545260       0.12520
  17     162.9        0.0013        0.0002       17.1484       17.1486      17.147378       0.12718
  16     196.4        0.0012        0.0002       16.5656       16.5658      16.564612       0.14669
  15     218.7        0.0012        0.0002       16.0235       16.0238      16.022592       0.20579
  14     243.0        0.0012        0.0003       15.2654       15.2657      15.264495       0.26293
  13     269.0        0.0011        0.0003       14.2510       14.2513      14.250115       0.32906
  12     297.5        0.0011        0.0003       13.0349       13.0352      13.034031       0.36068
  11     328.5        0.0011        0.0003       11.8274       11.8277      11.826557       0.32831
  10     361.9        0.0011        0.0002       10.6546       10.6548      10.653710       0.29674
   9     398.1        0.0011        0.0002        9.4801        9.4803       9.479223       0.27363
   8     437.6        0.0011        0.0002        8.3186        8.3188       8.317736       0.24833
   7     480.5        0.0011        0.0002        7.2534        7.2537       7.252564       0.20920
   6     533.0        0.0011        0.0002        6.1288        6.1290       6.127864       0.18093
   5     589.8        0.0012        0.0002        5.0588        5.0590       5.057790       0.15883
   4     651.6        0.0014        0.0001        3.9729        3.9731       3.971673       0.14853
   3     718.7        0.0018        0.0001        2.9378        2.9379       2.936041       0.13015
   2     792.3        0.0029        0.0001        1.9615        1.9616       1.958648       0.11210
   1     891.5        0.0090        0.0000        0.9920        0.9920       0.982967       0.08303
   0    1013.0        0.0870        0.0000        0.3116        0.3117       0.224670       0.05265



 Wavenumbers:  4000. -  4650. cm-1, ATM      1
 LEVEL PRESSURE   UPWARD FLUX   DIFDOWN FLUX  DIRDOWN FLUX  DOWNWARD FLUX   NET FLUX    HEATING RATE
          mb          W/m2          W/m2          W/m2        W/m2          W/m2       degree/day
  51    .06700        0.7926        0.0000       23.7440       23.7440      22.951359       0.00000
  50    .07753        0.7926        0.0000       23.7440       23.7440      22.951358       0.00080
  49    .09103        0.7926        0.0000       23.7440       23.7440      22.951357       0.00078
  48    0.1069        0.7926        0.0000       23.7440       23.7440      22.951355       0.00076
  47    0.1255        0.7926        0.0000       23.7440       23.7440      22.951354       0.00075
  46    0.1487        0.7926        0.0000       23.7440       23.7440      22.951352       0.00076
  45    0.1794        0.7926        0.0000       23.7440       23.7440      22.951349       0.00078
  44    0.2165        0.7926        0.0000       23.7440       23.7440      22.951345       0.00076
  43    0.2613        0.7926        0.0000       23.7440       23.7440      22.951341       0.00075
  42    0.3336        0.7926        0.0000       23.7440       23.7440      22.951335       0.00077
  41    0.4307        0.7926        0.0000       23.7439       23.7439      22.951326       0.00077
  40    0.5894        0.7926        0.0000       23.7439       23.7439      22.951311       0.00080
  39     1.339        0.7926        0.0000       23.7438       23.7438      22.951222       0.00101
  38     1.782        0.7926        0.0000       23.7438       23.7438      22.951152       0.00133
  37     2.292        0.7926        0.0000       23.7437       23.7437      22.951058       0.00156
  36     2.964        0.7926        0.0000       23.7435       23.7435      22.950917       0.00176
  35     3.853        0.7926        0.0000       23.7433       23.7433      22.950709       0.00198
  34     5.035        0.7926        0.0000       23.7430       23.7430      22.950402       0.00219
  33     6.613        0.7926        0.0000       23.7425       23.7426      22.949950       0.00242
  32     8.786        0.7926        0.0000       23.7418       23.7419      22.949281       0.00260
  31     11.80        0.7926        0.0000       23.7408       23.7408      22.948228       0.00295
  30     15.07        0.7926        0.0001       23.7395       23.7396      22.946991       0.00319
  29     18.79        0.7926        0.0001       23.7380       23.7381      22.945491       0.00340
  28     23.16        0.7926        0.0001       23.7361       23.7362      22.943623       0.00361
  27     28.12        0.7925        0.0001       23.7338       23.7339      22.941353       0.00386
  26     33.73        0.7925        0.0001       23.7309       23.7311      22.938544       0.00422
  25     40.54        0.7925        0.0001       23.7271       23.7272      22.934716       0.00475
  24     48.69        0.7925        0.0002       23.7219       23.7221      22.929586       0.00531
  23     57.69        0.7925        0.0002       23.7157       23.7159      22.923466       0.00574
  22     68.43        0.7924        0.0003       23.7079       23.7082      22.915751       0.00606
  21     81.20        0.7924        0.0003       23.6983       23.6986      22.906182       0.00632
  20     96.49        0.7924        0.0004       23.6865       23.6869      22.894468       0.00647
  19     114.6        0.7924        0.0004       23.6717       23.6721      22.879733       0.00688
  18     136.5        0.7924        0.0005       23.6537       23.6542      22.861877       0.00687
  17     162.9        0.7924        0.0006       23.6317       23.6323      22.839905       0.00702
  16     196.4        0.7924        0.0007       23.6012       23.6019      22.809500       0.00765
  15     218.7        0.7925        0.0008       23.5777       23.5785      22.786006       0.00892
  14     243.0        0.7926        0.0009       23.5456       23.5465      22.753877       0.01114
  13     269.0        0.7928        0.0010       23.4995       23.5005      22.707642       0.01500
  12     297.5        0.7932        0.0011       23.4351       23.4362      22.642995       0.01917
  11     328.5        0.7937        0.0012       23.3555       23.3567      22.563004       0.02175
  10     361.9        0.7944        0.0013       23.2571       23.2584      22.464047       0.02504
   9     398.1        0.7953        0.0014       23.1295       23.1310      22.335691       0.02990
   8     437.6        0.7964        0.0015       22.9586       22.9602      22.163765       0.03676
   7     480.5        0.7978        0.0017       22.7369       22.7386      21.940764       0.04380
   6     533.0        0.8000        0.0018       22.4191       22.4209      21.620841       0.05147
   5     589.8        0.8031        0.0020       22.0335       22.0355      21.232369       0.05766
   4     651.6        0.8080        0.0021       21.5654       21.5675      20.759532       0.06466
   3     718.7        0.8158        0.0023       21.0164       21.0186      20.202896       0.06995
   2     792.3        0.8289        0.0024       20.2979       20.3002      19.471386       0.08390
   1     891.5        0.8603        0.0025       19.1088       19.1112      18.250935       0.10385
   0    1013.0        0.9473        0.0026       17.6373       17.6398      16.692587       0.10820



 Wavenumbers:  4650. -  5150. cm-1, ATM      1
 LEVEL PRESSURE   UPWARD FLUX   DIFDOWN FLUX  DIRDOWN FLUX  DOWNWARD FLUX   NET FLUX    HEATING RATE
          mb          W/m2          W/m2          W/m2        W/m2          W/m2       degree/day
  51    .06700        0.6065        0.0000       22.4748       22.4748      21.868288       0.00000
  50    .07753        0.6065        0.0000       22.4746       22.4746      21.868051       0.18925
  49    .09103        0.6065        0.0000       22.4743       22.4743      21.867755       0.18504
  48    0.1069        0.6065        0.0000       22.4739       22.4739      21.867416       0.18064
  47    0.1255        0.6065        0.0000       22.4735       22.4735      21.867027       0.17622
  46    0.1487        0.6065        0.0000       22.4730       22.4730      21.866539       0.17814
  45    0.1794        0.6065        0.0000       22.4724       22.4724      21.865874       0.18241
  44    0.2165        0.6065        0.0000       22.4716       22.4716      21.865092       0.17785
  43    0.2613        0.6065        0.0000       22.4707       22.4707      21.864173       0.17328
  42    0.3336        0.6065        0.0000       22.4692       22.4692      21.862668       0.17553
  41    0.4307        0.6065        0.0000       22.4672       22.4672      21.860699       0.17112
  40    0.5894        0.6065        0.0000       22.4641       22.4641      21.857553       0.16731
  39     1.339        0.6065        0.0000       22.4502       22.4502      21.843720       0.15573
  38     1.782        0.6065        0.0000       22.4428       22.4428      21.836349       0.14034
  37     2.292        0.6065        0.0000       22.4349       22.4350      21.828462       0.13062
  36     2.964        0.6065        0.0000       22.4255       22.4255      21.819033       0.11836
  35     3.853        0.6065        0.0000       22.4145       22.4145      21.808018       0.10454
  34     5.035        0.6065        0.0000       22.4019       22.4019      21.795468       0.08965
  33     6.613        0.6065        0.0000       22.3880       22.3881      21.781608       0.07410
  32     8.786        0.6065        0.0000       22.3731       22.3731      21.766655       0.05807
  31     11.80        0.6065        0.0001       22.3562       22.3563      21.749855       0.04704
  30     15.07        0.6064        0.0001       22.3413       22.3414      21.734933       0.03853
  29     18.79        0.6064        0.0001       22.3259       22.3260      21.719571       0.03483
  28     23.16        0.6064        0.0001       22.3082       22.3083      21.701870       0.03423
  27     28.12        0.6064        0.0002       22.2870       22.2872      21.680764       0.03588
  26     33.73        0.6064        0.0002       22.2617       22.2619      21.655469       0.03803
  25     40.54        0.6064        0.0002       22.2285       22.2287      21.622349       0.04109
  24     48.69        0.6064        0.0003       22.1852       22.1854      21.579088       0.04477
  23     57.69        0.6064        0.0003       22.1340       22.1344      21.528019       0.04787
  22     68.43        0.6064        0.0004       22.0694       22.0698      21.463443       0.05077
  21     81.20        0.6064        0.0005       21.9886       21.9891      21.382716       0.05334
  20     96.49        0.6064        0.0005       21.8895       21.8900      21.283657       0.05467
  19     114.6        0.6064        0.0006       21.7708       21.7715      21.165029       0.05539
  18     136.5        0.6065        0.0007       21.6320       21.6328      21.026256       0.05336
  17     162.9        0.6066        0.0009       21.4726       21.4734      20.866786       0.05097
  16     196.4        0.6069        0.0010       21.2786       21.2796      20.672748       0.04884
  15     218.7        0.6071        0.0012       21.1582       21.1594      20.552282       0.04574
  14     243.0        0.6074        0.0013       21.0313       21.0325      20.425162       0.04409
  13     269.0        0.6078        0.0014       20.8948       20.8962      20.288361       0.04438
  12     297.5        0.6084        0.0015       20.7434       20.7449      20.136511       0.04504
  11     328.5        0.6093        0.0017       20.5767       20.5783      19.969072       0.04553
  10     361.9        0.6104        0.0018       20.3907       20.3926      19.782193       0.04728
   9     398.1        0.6119        0.0020       20.1791       20.1811      19.569211       0.04962
   8     437.6        0.6138        0.0021       19.9341       19.9363      19.322468       0.05276
   7     480.5        0.6164        0.0023       19.6480       19.6503      19.033924       0.05667
   6     533.0        0.6204        0.0025       19.2600       19.2625      18.642107       0.06303
   5     589.8        0.6259        0.0027       18.7890       18.7916      18.165755       0.07071
   4     651.6        0.6341        0.0028       18.1977       18.2005      17.566436       0.08196
   3     718.7        0.6464        0.0030       17.4829       17.4858      16.839412       0.09137
   2     792.3        0.6655        0.0031       16.6464       16.6495      15.984016       0.09810
   1     891.5        0.7069        0.0032       15.4816       15.4848      14.777880       0.10264
   0    1013.0        0.8003        0.0033       14.1857       14.1890      13.388756       0.09645



 Wavenumbers:  5150. -  6150. cm-1, ATM      1
 LEVEL PRESSURE   UPWARD FLUX   DIFDOWN FLUX  DIRDOWN FLUX  DOWNWARD FLUX   NET FLUX    HEATING RATE
          mb          W/m2          W/m2          W/m2        W/m2          W/m2       degree/day
  51    .06700        1.5225        0.0000       56.3444       56.3444      54.821890       0.00000
  50    .07753        1.5225        0.0000       56.3444       56.3444      54.821851       0.03156
  49    .09103        1.5225        0.0000       56.3443       56.3443      54.821799       0.03205
  48    0.1069        1.5225        0.0000       56.3442       56.3442      54.821738       0.03256
  47    0.1255        1.5225        0.0000       56.3442       56.3442      54.821665       0.03307
  46    0.1487        1.5225        0.0000       56.3441       56.3441      54.821570       0.03485
  45    0.1794        1.5225        0.0000       56.3439       56.3439      54.821435       0.03710
  44    0.2165        1.5225        0.0000       56.3438       56.3438      54.821269       0.03768
  43    0.2613        1.5225        0.0000       56.3436       56.3436      54.821066       0.03827
  42    0.3336        1.5225        0.0000       56.3432       56.3432      54.820719       0.04046
  41    0.4307        1.5225        0.0000       56.3427       56.3427      54.820247       0.04103
  40    0.5894        1.5225        0.0000       56.3419       56.3419      54.819455       0.04210
  39     1.339        1.5225        0.0000       56.3381       56.3381      54.815624       0.04313
  38     1.782        1.5225        0.0000       56.3358       56.3358      54.813381       0.04271
  37     2.292        1.5225        0.0001       56.3332       56.3333      54.810831       0.04224
  36     2.964        1.5224        0.0001       56.3299       56.3300      54.807572       0.04090
  35     3.853        1.5224        0.0001       56.3257       56.3258      54.803402       0.03958
  34     5.035        1.5224        0.0001       56.3203       56.3204      54.797982       0.03872
  33     6.613        1.5224        0.0002       56.3131       56.3132      54.790864       0.03805
  32     8.786        1.5223        0.0002       56.3036       56.3038      54.781493       0.03639
  31     11.80        1.5223        0.0003       56.2905       56.2908      54.768544       0.03625
  30     15.07        1.5222        0.0004       56.2770       56.2774      54.755231       0.03437
  29     18.79        1.5221        0.0005       56.2626       56.2631      54.740952       0.03238
  28     23.16        1.5220        0.0006       56.2466       56.2472      54.725132       0.03059
  27     28.12        1.5219        0.0007       56.2292       56.2299      54.707987       0.02915
  26     33.73        1.5218        0.0009       56.2110       56.2119      54.690062       0.02695
  25     40.54        1.5217        0.0010       56.1906       56.1917      54.669939       0.02496
  24     48.69        1.5216        0.0013       56.1681       56.1694      54.647788       0.02292
  23     57.69        1.5214        0.0015       56.1451       56.1466      54.625197       0.02118
  22     68.43        1.5212        0.0018       56.1195       56.1213      54.600051       0.01977
  21     81.20        1.5210        0.0021       56.0907       56.0927      54.571693       0.01874
  20     96.49        1.5208        0.0025       56.0573       56.0598      54.538971       0.01806
  19     114.6        1.5205        0.0029       56.0182       56.0212      54.500660       0.01789
  18     136.5        1.5202        0.0035       55.9719       55.9754      54.455177       0.01749
  17     162.9        1.5198        0.0041       55.9013       55.9054      54.385592       0.02224
  16     196.4        1.5193        0.0050       55.7479       55.7529      54.233554       0.03827
  15     218.7        1.5190        0.0055       55.5243       55.5298      54.010820       0.08456
  14     243.0        1.5187        0.0061       55.1190       55.1251      53.606360       0.14028
  13     269.0        1.5184        0.0066       54.3924       54.3990      52.880550       0.23545
  12     297.5        1.5182        0.0071       53.2527       53.2598      51.741636       0.33779
  11     328.5        1.5180        0.0076       51.9857       51.9933      50.475316       0.34431
  10     361.9        1.5179        0.0081       50.6721       50.6802      49.162286       0.33221
   9     398.1        1.5179        0.0086       49.1893       49.1979      47.679984       0.34534
   8     437.6        1.5181        0.0091       47.4187       47.4278      45.909633       0.37851
   7     480.5        1.5186        0.0095       45.4500       45.4594      43.940865       0.38666
   6     533.0        1.5196        0.0099       43.0596       43.0695      41.549930       0.38463
   5     589.8        1.5216        0.0103       40.5463       40.5566      39.035039       0.37329
   4     651.6        1.5256        0.0107       37.8928       37.9036      36.378005       0.36336
   3     718.7        1.5332        0.0112       35.4719       35.4831      33.949951       0.30514
   2     792.3        1.5480        0.0117       33.4066       33.4183      31.870301       0.23851
   1     891.5        1.5897        0.0124       31.3475       31.3599      29.770225       0.17871
   0    1013.0        1.7255        0.0131       29.2817       29.2947      27.569267       0.15282



 Wavenumbers:  6150. -  7700. cm-1, ATM      1
 LEVEL PRESSURE   UPWARD FLUX   DIFDOWN FLUX  DIRDOWN FLUX  DOWNWARD FLUX   NET FLUX    HEATING RATE
          mb          W/m2          W/m2          W/m2        W/m2          W/m2       degree/day
  51    .06700        2.3829        0.0000      104.2111      104.2111     101.828246       0.00000
  50    .07753        2.3829        0.0000      104.2111      104.2111     101.828189       0.04554
  49    .09103        2.3829        0.0000      104.2110      104.2110     101.828116       0.04583
  48    0.1069        2.3829        0.0000      104.2109      104.2109     101.828029       0.04615
  47    0.1255        2.3829        0.0000      104.2108      104.2108     101.827927       0.04646
  46    0.1487        2.3829        0.0000      104.2107      104.2107     101.827794       0.04854
  45    0.1794        2.3829        0.0000      104.2105      104.2105     101.827607       0.05129
  44    0.2165        2.3829        0.0000      104.2102      104.2102     101.827379       0.05171
  43    0.2613        2.3829        0.0000      104.2099      104.2100     101.827103       0.05215
  42    0.3336        2.3828        0.0000      104.2095      104.2095     101.826633       0.05478
  41    0.4307        2.3828        0.0000      104.2088      104.2088     101.825997       0.05531
  40    0.5894        2.3828        0.0001      104.2077      104.2078     101.824935       0.05648
  39     1.339        2.3827        0.0001      104.2024      104.2026     101.819815       0.05764
  38     1.782        2.3827        0.0002      104.1993      104.1995     101.816817       0.05707
  37     2.292        2.3827        0.0002      104.1958      104.1961     101.813401       0.05659
  36     2.964        2.3826        0.0003      104.1913      104.1916     101.809014       0.05506
  35     3.853        2.3825        0.0004      104.1854      104.1859     101.803366       0.05360
  34     5.035        2.3824        0.0005      104.1778      104.1784     101.795995       0.05266
  33     6.613        2.3822        0.0007      104.1678      104.1685     101.786282       0.05193
  32     8.786        2.3820        0.0009      104.1545      104.1554     101.773425       0.04993
  31     11.80        2.3817        0.0013      104.1359      104.1372     101.755510       0.05016
  30     15.07        2.3814        0.0016      104.1166      104.1183     101.736889       0.04808
  29     18.79        2.3810        0.0020      104.0956      104.0976     101.716646       0.04590
  28     23.16        2.3806        0.0025      104.0720      104.0745     101.693901       0.04398
  27     28.12        2.3801        0.0030      104.0459      104.0489     101.668881       0.04253
  26     33.73        2.3795        0.0036      104.0181      104.0218     101.642269       0.04001
  25     40.54        2.3788        0.0044      103.9863      103.9907     101.611860       0.03773
  24     48.69        2.3780        0.0053      103.9504      103.9557     101.577643       0.03541
  23     57.69        2.3771        0.0062      103.9130      103.9192     101.542110       0.03331
  22     68.43        2.3760        0.0074      103.8705      103.8779     101.501878       0.03163
  21     81.20        2.3748        0.0088      103.8219      103.8306     101.455848       0.03042
  20     96.49        2.3732        0.0104      103.7651      103.7755     101.402269       0.02957
  19     114.6        2.3714        0.0123      103.6981      103.7105     101.339045       0.02952
  18     136.5        2.3693        0.0147      103.6182      103.6328     101.263549       0.02903
  17     162.9        2.3667        0.0174      103.5018      103.5192     101.152473       0.03550
  16     196.4        2.3634        0.0210      103.2601      103.2810     100.917632       0.05911
  15     218.7        2.3612        0.0232      102.9097      102.9329     100.571694       0.13134
  14     243.0        2.3590        0.0256      102.2732      102.2988      99.939855       0.21914
  13     269.0        2.3566        0.0279      101.2641      101.2921      98.935456       0.32582
  12     297.5        2.3543        0.0302       99.6695       99.6997      97.345475       0.47157
  11     328.5        2.3519        0.0325       97.6082       97.6407      95.288785       0.55921
  10     361.9        2.3497        0.0348       95.2483       95.2830      92.933320       0.59596
   9     398.1        2.3477        0.0370       92.6564       92.6933      90.345646       0.60287
   8     437.6        2.3461        0.0390       89.7047       89.7436      87.397531       0.63033
   7     480.5        2.3452        0.0408       86.3265       86.3673      84.022093       0.66292
   6     533.0        2.3455        0.0426       81.9787       82.0214      79.675872       0.69917
   5     589.8        2.3484        0.0442       77.1953       77.2394      74.890991       0.71023
   4     651.6        2.3571        0.0452       71.7796       71.8248      69.467722       0.74165
   3     718.7        2.3756        0.0458       66.2294       66.2752      63.899617       0.69976
   2     792.3        2.4138        0.0462       60.7106       60.7568      58.343021       0.63728
   1     891.5        2.5209        0.0464       54.2338       54.2802      51.759292       0.56024
   0    1013.0        2.8731        0.0467       47.9982       48.0449      45.171829       0.45740



 Wavenumbers:  7700. -  8050. cm-1, ATM      1
 LEVEL PRESSURE   UPWARD FLUX   DIFDOWN FLUX  DIRDOWN FLUX  DOWNWARD FLUX   NET FLUX    HEATING RATE
          mb          W/m2          W/m2          W/m2        W/m2          W/m2       degree/day
  51    .06700        1.2735        0.0000       24.6282       24.6282      23.354691       0.00000
  50    .07753        1.2735        0.0000       24.6282       24.6282      23.354672       0.01494
  49    .09103        1.2735        0.0000       24.6281       24.6281      23.354649       0.01465
  48    0.1069        1.2735        0.0000       24.6281       24.6281      23.354622       0.01434
  47    0.1255        1.2735        0.0000       24.6281       24.6281      23.354591       0.01403
  46    0.1487        1.2735        0.0000       24.6280       24.6281      23.354552       0.01424
  45    0.1794        1.2735        0.0000       24.6280       24.6280      23.354498       0.01465
  44    0.2165        1.2735        0.0000       24.6279       24.6279      23.354435       0.01437
  43    0.2613        1.2735        0.0000       24.6279       24.6279      23.354360       0.01410
  42    0.3336        1.2735        0.0000       24.6277       24.6277      23.354237       0.01443
  41    0.4307        1.2735        0.0000       24.6276       24.6276      23.354073       0.01427
  40    0.5894        1.2735        0.0000       24.6273       24.6273      23.353804       0.01426
  39     1.339        1.2736        0.0001       24.6260       24.6261      23.352536       0.01428
  38     1.782        1.2736        0.0001       24.6253       24.6254      23.351791       0.01419
  37     2.292        1.2736        0.0001       24.6244       24.6245      23.350928       0.01429
  36     2.964        1.2736        0.0001       24.6233       24.6234      23.349795       0.01422
  35     3.853        1.2737        0.0002       24.6218       24.6220      23.348298       0.01421
  34     5.035        1.2737        0.0002       24.6198       24.6200      23.346309       0.01421
  33     6.613        1.2738        0.0003       24.6172       24.6174      23.343651       0.01421
  32     8.786        1.2739        0.0004       24.6136       24.6140      23.340068       0.01391
  31     11.80        1.2740        0.0005       24.6085       24.6090      23.334943       0.01435
  30     15.07        1.2742        0.0007       24.6030       24.6036      23.329440       0.01421
  29     18.79        1.2744        0.0008       24.5968       24.5976      23.323223       0.01409
  28     23.16        1.2746        0.0010       24.5895       24.5905      23.315964       0.01404
  27     28.12        1.2748        0.0012       24.5812       24.5825      23.307664       0.01411
  26     33.73        1.2751        0.0015       24.5720       24.5734      23.298382       0.01396
  25     40.54        1.2754        0.0018       24.5608       24.5626      23.287174       0.01390
  24     48.69        1.2758        0.0021       24.5473       24.5494      23.273676       0.01397
  23     57.69        1.2762        0.0025       24.5326       24.5351      23.258868       0.01388
  22     68.43        1.2767        0.0030       24.5150       24.5180      23.241259       0.01384
  21     81.20        1.2773        0.0035       24.4941       24.4977      23.220323       0.01383
  20     96.49        1.2781        0.0042       24.4694       24.4735      23.195439       0.01373
  19     114.6        1.2790        0.0050       24.4400       24.4450      23.165985       0.01375
  18     136.5        1.2801        0.0059       24.4054       24.4113      23.131206       0.01337
  17     162.9        1.2814        0.0070       24.3644       24.3714      23.089973       0.01318
  16     196.4        1.2832        0.0084       24.3116       24.3200      23.036788       0.01339
  15     218.7        1.2844        0.0093       24.2771       24.2864      23.002010       0.01320
  14     243.0        1.2857        0.0103       24.2397       24.2500      22.964303       0.01308
  13     269.0        1.2872        0.0114       24.1993       24.2107      22.923493       0.01324
  12     297.5        1.2889        0.0126       24.1556       24.1682      22.879362       0.01309
  11     328.5        1.2907        0.0139       24.1084       24.1223      22.831606       0.01298
  10     361.9        1.2928        0.0153       24.0575       24.0728      22.780017       0.01305
   9     398.1        1.2952        0.0168       24.0026       24.0193      22.724147       0.01302
   8     437.6        1.2979        0.0183       23.9430       23.9613      22.663471       0.01297
   7     480.5        1.3009        0.0200       23.8783       23.8984      22.597448       0.01297
   6     533.0        1.3050        0.0221       23.7972       23.8193      22.514319       0.01337
   5     589.8        1.3099        0.0244       23.7068       23.7312      22.421258       0.01381
   4     651.6        1.3160        0.0268       23.6034       23.6302      22.314164       0.01465
   3     718.7        1.3238        0.0293       23.4831       23.5124      22.188609       0.01578
   2     792.3        1.3341        0.0320       23.3388       23.3709      22.036726       0.01742
   1     891.5        1.3525        0.0356       23.1128       23.1483      21.795836       0.02050
   0    1013.0        1.3835        0.0396       22.7908       22.8304      21.446869       0.02423



 Wavenumbers:  8050. - 12850. cm-1, ATM      1
 LEVEL PRESSURE   UPWARD FLUX   DIFDOWN FLUX  DIRDOWN FLUX  DOWNWARD FLUX   NET FLUX    HEATING RATE
          mb          W/m2          W/m2          W/m2        W/m2          W/m2       degree/day
  51    .06700       17.6438        0.0000      344.8128      344.8128     327.169009       0.00000
  50    .07753       17.6438        0.0000      344.8128      344.8128     327.169009       0.00000
  49    .09103       17.6438        0.0001      344.8127      344.8128     327.169009       0.00000
  48    0.1069       17.6438        0.0001      344.8127      344.8128     327.169009      -0.00000
  47    0.1255       17.6437        0.0001      344.8126      344.8127     327.169009       0.00000
  46    0.1487       17.6437        0.0002      344.8125      344.8127     327.169009      -0.00000
  45    0.1794       17.6436        0.0002      344.8124      344.8126     327.169009       0.00000
  44    0.2165       17.6436        0.0003      344.8122      344.8126     327.169009       0.00000
  43    0.2613       17.6435        0.0004      344.8121      344.8125     327.169009      -0.00000
  42    0.3336       17.6433        0.0006      344.8118      344.8123     327.169009       0.00000
  41    0.4307       17.6432        0.0008      344.8114      344.8122     327.169009       0.00000
  40    0.5894       17.6429        0.0011      344.8108      344.8119     327.169009      -0.00000
  39     1.339       17.6415        0.0027      344.8078      344.8105     327.169009       0.00000
  38     1.782       17.6407        0.0037      344.8061      344.8097     327.169009      -0.00000
  37     2.292       17.6398        0.0047      344.8041      344.8088     327.169009       0.00000
  36     2.964       17.6386        0.0062      344.8014      344.8076     327.169009       0.00000
  35     3.853       17.6370        0.0081      344.7979      344.8060     327.169009      -0.00000
  34     5.035       17.6349        0.0106      344.7933      344.8039     327.169009       0.00000
  33     6.613       17.6320        0.0139      344.7871      344.8010     327.169009       0.00000
  32     8.786       17.6282        0.0185      344.7787      344.7972     327.169009      -0.00000
  31     11.80       17.6227        0.0249      344.7667      344.7917     327.169009      -0.00000
  30     15.07       17.6168        0.0319      344.7539      344.7858     327.169009       0.00000
  29     18.79       17.6101        0.0398      344.7393      344.7791     327.169009       0.00000
  28     23.16       17.6022        0.0490      344.7223      344.7713     327.169009      -0.00000
  27     28.12       17.5933        0.0595      344.7028      344.7623     327.169009       0.00000
  26     33.73       17.5833        0.0714      344.6809      344.7523     327.169009      -0.00000
  25     40.54       17.5711        0.0857      344.6545      344.7401     327.169009       0.00000
  24     48.69       17.5564        0.1029      344.6225      344.7255     327.169009       0.00000
  23     57.69       17.5403        0.1219      344.5874      344.7093     327.169009      -0.00000
  22     68.43       17.5211        0.1446      344.5455      344.6901     327.169009       0.00000
  21     81.20       17.4981        0.1716      344.4955      344.6671     327.169009      -0.00000
  20     96.49       17.4706        0.2039      344.4358      344.6396     327.169009       0.00000
  19     114.6       17.4380        0.2422      344.3587      344.6009     327.162926       0.00284
  18     136.5       17.3992        0.2878      344.2667      344.5545     327.155347       0.00291
  17     162.9       17.3528        0.3423      344.1533      344.4955     327.142672       0.00405
  16     196.4       17.2925        0.4130      343.9892      344.4023     327.109714       0.00830
  15     218.7       17.2529        0.4595      343.8402      344.2998     327.046879       0.02386
  14     243.0       17.2098        0.5101      343.5933      344.1034     326.893563       0.05317
  13     269.0       17.1634        0.5647      343.1662      343.7308     326.567420       0.10580
  12     297.5       17.1138        0.6234      342.4819      343.1053     325.991449       0.17083
  11     328.5       17.0609        0.6866      341.5922      342.2788     325.217893       0.21033
  10     361.9       17.0048        0.7543      340.5080      341.2623     324.257463       0.24300
   9     398.1       16.9460        0.8266      339.1885      340.0152     323.069132       0.27685
   8     437.6       16.8853        0.9033      337.5272      338.4305     321.545177       0.32583
   7     480.5       16.8238        0.9841      335.4327      336.4168     319.593049       0.38339
   6     533.0       16.7545        1.0813      332.3652      333.4464     316.691965       0.46669
   5     589.8       16.6917        1.1823      328.3420      329.5243     312.832613       0.57285
   4     651.6       16.6494        1.2842      322.7671      324.0513     307.401940       0.74266
   3     718.7       16.6456        1.3859      315.5619      316.9478     300.302126       0.89225
   2     792.3       16.7220        1.4845      306.5104      307.9949     291.272916       1.03555
   1     891.5       17.0523        1.6005      292.9732      294.5737     277.521395       1.17019
   0    1013.0       18.1831        1.7209      276.3074      278.0284     259.845297       1.22734



 Wavenumbers: 12850. - 16000. cm-1, ATM      1
 LEVEL PRESSURE   UPWARD FLUX   DIFDOWN FLUX  DIRDOWN FLUX  DOWNWARD FLUX   NET FLUX    HEATING RATE
          mb          W/m2          W/m2          W/m2        W/m2          W/m2       degree/day
  51    .06700       27.3770        0.0000      216.0557      216.0557     188.678664       0.00000
  50    .07753       27.3770        0.0001      216.0548      216.0549     188.677882       0.62693
  49    .09103       27.3770        0.0001      216.0538      216.0539     188.676896       0.61606
  48    0.1069       27.3769        0.0002      216.0525      216.0527     188.675760       0.60512
  47    0.1255       27.3769        0.0003      216.0510      216.0513     188.674448       0.59454
  46    0.1487       27.3768        0.0004      216.0492      216.0496     188.672785       0.60613
  45    0.1794       27.3768        0.0006      216.0467      216.0473     188.670508       0.62532
  44    0.2165       27.3767        0.0007      216.0438      216.0445     188.667805       0.61471
  43    0.2613       27.3766        0.0010      216.0403      216.0412     188.664598       0.60462
  42    0.3336       27.3765        0.0013      216.0345      216.0358     188.659293       0.61844
  41    0.4307       27.3764        0.0018      216.0269      216.0287     188.652308       0.60738
  40    0.5894       27.3762        0.0026      216.0146      216.0172     188.640998       0.60146
  39     1.339       27.3766        0.0063      215.9584      215.9647     188.588057       0.59602
  38     1.782       27.3776        0.0085      215.9258      215.9343     188.556735       0.59631
  37     2.292       27.3795        0.0110      215.8879      215.8989     188.519491       0.61686
  36     2.964       27.3830        0.0143      215.8370      215.8514     188.468365       0.64179
  35     3.853       27.3892        0.0187      215.7678      215.7866     188.397334       0.67409
  34     5.035       27.3990        0.0245      215.6752      215.6998     188.300728       0.69011
  33     6.613       27.4129        0.0323      215.5548      215.5871     188.174166       0.67660
  32     8.786       27.4308        0.0428      215.4027      215.4454     188.014633       0.61957
  31     11.80       27.4533        0.0577      215.2043      215.2620     187.808684       0.57659
  30     15.07       27.4739        0.0737      215.0098      215.0836     187.609646       0.51388
  29     18.79       27.4940        0.0918      214.8056      214.8974     187.403415       0.46759
  28     23.16       27.5138        0.1130      214.5841      214.6971     187.183265       0.42570
  27     28.12       27.5322        0.1371      214.3504      214.4875     186.955339       0.38746
  26     33.73       27.5466        0.1642      214.1164      214.2806     186.734015       0.33277
  25     40.54       27.5568        0.1968      213.8655      214.0624     186.505511       0.28349
  24     48.69       27.5623        0.2363      213.5943      213.8305     186.268198       0.24558
  23     57.69       27.5617        0.2796      213.3269      213.6065     186.044772       0.20943
  22     68.43       27.5537        0.3312      213.0419      213.3731     185.819419       0.17716
  21     81.20       27.5342        0.3927      212.7488      213.1416     185.607342       0.14014
  20     96.49       27.5019        0.4662      212.4447      212.9109     185.409036       0.10945
  19     114.6       27.4627        0.5539      212.1101      212.6640     185.201294       0.09700
  18     136.5       27.4122        0.6579      211.7382      212.3961     184.983872       0.08360
  17     162.9       27.3483        0.7817      211.3198      212.1014     184.753166       0.07374
  16     196.4       27.2574        0.9423      210.8156      211.7578     184.500404       0.06362
  15     218.7       27.1949        1.0478      210.4965      211.5442     184.349376       0.05734
  14     243.0       27.1255        1.1624      210.1519      211.3144     184.188880       0.05567
  13     269.0       27.0490        1.2867      209.7781      211.0648     184.015707       0.05618
  12     297.5       26.9654        1.4209      209.3683      210.7893     183.823844       0.05690
  11     328.5       26.8748        1.5659      208.9170      210.4830     183.608196       0.05863
  10     361.9       26.7771        1.7220      208.4189      210.1409     183.363814       0.06183
   9     398.1       26.6725        1.8898      207.8679      209.7578     183.085315       0.06488
   8     437.6       26.5613        2.0699      207.2544      209.3243     182.762922       0.06893
   7     480.5       26.4443        2.2626      206.5713      208.8338     182.389523       0.07333
   6     533.0       26.3047        2.4991      205.6883      208.1874     181.882786       0.08152
   5     589.8       26.1628        2.7529      204.6670      207.4198     181.256995       0.09289
   4     651.6       26.0295        3.0231      203.4324      206.4555     180.426006       0.11364
   3     718.7       25.9119        3.3087      201.9561      205.2648     179.352905       0.13486
   2     792.3       25.8346        3.6066      200.1346      203.7412     177.906611       0.16587
   1     891.5       25.8504        3.9924      197.2502      201.2426     175.392162       0.21397
   0    1013.0       26.1376        4.4319      193.2807      197.7126     171.574966       0.26505



 Wavenumbers: 16000. - 22650. cm-1, ATM      1
 LEVEL PRESSURE   UPWARD FLUX   DIFDOWN FLUX  DIRDOWN FLUX  DOWNWARD FLUX   NET FLUX    HEATING RATE
          mb          W/m2          W/m2          W/m2        W/m2          W/m2       degree/day
  51    .06700       89.8075        0.0000      344.4769      344.4769     254.669465       0.00000
  50    .07753       89.8073        0.0003      344.4763      344.4767     254.669341       0.09924
  49    .09103       89.8072        0.0008      344.4756      344.4764     254.669161       0.11256
  48    0.1069       89.8071        0.0013      344.4748      344.4760     254.668920       0.12836
  47    0.1255       89.8070        0.0018      344.4737      344.4756     254.668597       0.14631
  46    0.1487       89.8068        0.0025      344.4724      344.4749     254.668121       0.17338
  45    0.1794       89.8066        0.0035      344.4705      344.4740     254.667378       0.20414
  44    0.2165       89.8065        0.0047      344.4682      344.4728     254.666369       0.22943
  43    0.2613       89.8063        0.0061      344.4653      344.4713     254.665001       0.25794
  42    0.3336       89.8062        0.0083      344.4603      344.4686     254.662399       0.30333
  41    0.4307       89.8062        0.0113      344.4534      344.4647     254.658477       0.34098
  40    0.5894       89.8066        0.0162      344.4414      344.4576     254.650998       0.39774
  39     1.339       89.8148        0.0395      344.3711      344.4106     254.595737       0.62214
  38     1.782       89.8245        0.0532      344.3200      344.3731     254.548658       0.89631
  37     2.292       89.8401        0.0690      344.2517      344.3206     254.480505       1.12879
  36     2.964       89.8676        0.0897      344.1480      344.2377     254.370083       1.38612
  35     3.853       89.9135        0.1171      343.9913      344.1084     254.194839       1.66310
  34     5.035       89.9841        0.1535      343.7640      343.9175     253.933319       1.86819
  33     6.613       90.0833        0.2020      343.4511      343.6531     253.569744       1.94367
  32     8.786       90.2119        0.2673      343.0410      343.3084     253.096413       1.83825
  31     11.80       90.3770        0.3607      342.4947      342.8554     252.478435       1.73015
  30     15.07       90.5321        0.4609      341.9547      342.4156     251.883527       1.53594
  29     18.79       90.6875        0.5740      341.3868      341.9608     251.273360       1.38344
  28     23.16       90.8459        0.7060      340.7717      341.4777     250.631746       1.24067
  27     28.12       91.0003        0.8568      340.1241      340.9809     249.980531       1.10702
  26     33.73       91.1346        1.0255      339.4775      340.5030     249.368367       0.92041
  25     40.54       91.2524        1.2293      338.7859      340.0152     248.762856       0.75120
  24     48.69       91.3509        1.4750      338.0389      339.5139     248.162908       0.62085
  23     57.69       91.4172        1.7448      337.3015      339.0463     247.629068       0.50039
  22     68.43       91.4508        2.0661      336.5123      338.5784     247.127539       0.39427
  21     81.20       91.4288        2.4490      335.6921      338.1411     246.712330       0.27436
  20     96.49       91.3447        2.9053      334.8256      337.7310     246.386242       0.17998
  19     114.6       91.2142        3.4463      333.8560      337.3024     246.088150       0.13919
  18     136.5       91.0380        4.0860      332.7466      336.8326     245.794649       0.11286
  17     162.9       90.8076        4.8455      331.4625      336.3080     245.500359       0.09407
  16     196.4       90.4664        5.8275      329.8743      335.7017     245.235373       0.06670
  15     218.7       90.2257        6.4703      328.8601      335.3304     245.104689       0.04962
  14     243.0       89.9554        7.1671      327.7715      334.9386     244.983193       0.04214
  13     269.0       89.6532        7.9200      326.6061      334.5261     244.872919       0.03577
  12     297.5       89.3172        8.7310      325.3603      334.0913     244.774166       0.02929
  11     328.5       88.9476        9.6043      324.0212      333.6254     244.677853       0.02619
  10     361.9       88.5427       10.5409      322.5859      333.1268     244.584061       0.02373
   9     398.1       88.0998       11.5448      321.0470      332.5917     244.491963       0.02146
   8     437.6       87.6171       12.6181      319.3978      332.0159     244.398764       0.01993
   7     480.5       87.0921       13.7631      317.6330      331.3962     244.304098       0.01859
   6     533.0       86.4359       15.1651      315.4613      330.6264     244.190456       0.01828
   5     589.8       85.7186       16.6670      313.1151      329.7821     244.063483       0.01885
   4     651.6       84.9392       18.2711      310.5763      328.8474     243.908145       0.02124
   3     718.7       84.0958       19.9795      307.8270      327.8065     243.710716       0.02481
   2     792.3       83.1933       21.7911      304.8404      326.6315     243.438257       0.03125
   1     891.5       81.9904       24.2039      300.7148      324.9187     242.928318       0.04339
   0    1013.0       80.5734       27.0497      295.6311      322.6809     242.107446       0.05700



 Wavenumbers: 22650. - 29000. cm-1, ATM      1
 LEVEL PRESSURE   UPWARD FLUX   DIFDOWN FLUX  DIRDOWN FLUX  DOWNWARD FLUX   NET FLUX    HEATING RATE
          mb          W/m2          W/m2          W/m2        W/m2          W/m2       degree/day
  51    .06700       45.6377        0.0000      129.9930      129.9930      84.355353       0.00000
  50    .07753       45.6376        0.0004      129.9925      129.9929      84.355353       0.00000
  49    .09103       45.6374        0.0010      129.9918      129.9928      84.355353       0.00000
  48    0.1069       45.6372        0.0016      129.9910      129.9926      84.355353       0.00000
  47    0.1255       45.6370        0.0023      129.9901      129.9924      84.355353      -0.00000
  46    0.1487       45.6367        0.0032      129.9889      129.9921      84.355353       0.00000
  45    0.1794       45.6364        0.0044      129.9874      129.9917      84.355353      -0.00000
  44    0.2165       45.6359        0.0058      129.9855      129.9913      84.355353       0.00000
  43    0.2613       45.6354        0.0075      129.9833      129.9908      84.355353       0.00000
  42    0.3336       45.6346        0.0103      129.9796      129.9899      84.355353      -0.00000
  41    0.4307       45.6334        0.0141      129.9747      129.9888      84.355353       0.00000
  40    0.5894       45.6316        0.0202      129.9668      129.9870      84.355353      -0.00000
  39     1.339       45.6229        0.0490      129.9292      129.9782      84.355353       0.00000
  38     1.782       45.6177        0.0660      129.9071      129.9731      84.355353       0.00000
  37     2.292       45.6118        0.0856      129.8815      129.9672      84.355353       0.00000
  36     2.964       45.6040        0.1114      129.8480      129.9594      84.355353       0.00000
  35     3.853       45.5937        0.1454      129.8036      129.9490      84.355353      -0.00000
  34     5.035       45.5800        0.1906      129.7447      129.9353      84.355353       0.00000
  33     6.613       45.5616        0.2510      129.6660      129.9170      84.355353      -0.00000
  32     8.786       45.5369        0.3323      129.5599      129.8922      84.355353       0.00000
  31     11.80       45.5013        0.4485      129.4082      129.8567      84.355353      -0.00000
  30     15.07       45.4631        0.5732      129.2453      129.8185      84.355353       0.00000
  29     18.79       45.4198        0.7139      129.0613      129.7752      84.355353       0.00000
  28     23.16       45.3691        0.8779      128.8465      129.7245      84.355353       0.00000
  27     28.12       45.3109        1.0652      128.6010      129.6663      84.355353       0.00000
  26     33.73       45.2455        1.2743      128.3266      129.6009      84.355353       0.00000
  25     40.54       45.1662        1.5263      127.9953      129.5216      84.355353       0.00000
  24     48.69       45.0701        1.8290      127.5965      129.4255      84.355353      -0.00000
  23     57.69       44.9640        2.1601      127.1593      129.3193      84.355353       0.00000
  22     68.43       44.8368        2.5525      126.6397      129.1922      84.355353       0.00000
  21     81.20       44.6843        3.0172      126.0224      129.0396      84.355353       0.00000
  20     96.49       44.5010        3.5668      125.2896      128.8564      84.355353      -0.00000
  19     114.6       44.2814        4.2134      124.4234      128.6368      84.355353       0.00000
  18     136.5       44.0183        4.9712      123.4024      128.3736      84.355353       0.00000
  17     162.9       43.7010        5.8616      122.1947      128.0563      84.355353       0.00000
  16     196.4       43.2831        6.9966      120.6419      127.6385      84.355353      -0.00000
  15     218.7       43.0048        7.7299      119.6303      127.3602      84.355353       0.00000
  14     243.0       42.6988        8.5163      118.5379      127.0541      84.355353       0.00000
  13     269.0       42.3630        9.3559      117.3624      126.7183      84.355353      -0.00000
  12     297.5       41.9951       10.2487      116.1018      126.3505      84.355353       0.00000
  11     328.5       41.5919       11.1967      114.7505      125.9472      84.355353      -0.00000
  10     361.9       41.1509       12.1979      113.3083      125.5062      84.355353       0.00000
   9     398.1       40.6683       13.2532      111.7705      125.0237      84.355353       0.00000
   8     437.6       40.1409       14.3609      110.1353      124.4963      84.355353      -0.00000
   7     480.5       39.5649       15.5192      108.4010      123.9202      84.355353       0.00000
   6     533.0       38.8403       16.9040      106.2917      123.1956      84.355353      -0.00000
   5     589.8       38.0396       18.3467      104.0483      122.3950      84.355353       0.00000
   4     651.6       37.1555       19.8409      101.6700      121.5109      84.355353       0.00000
   3     718.7       36.1794       21.3790       99.1558      120.5348      84.355353       0.00000
   2     792.3       35.1030       22.9501       96.5083      119.4584      84.355353       0.00000
   1     891.5       33.5976       24.9466       93.0064      117.9530      84.355353       0.00000
   0    1013.0       31.7087       27.1558       88.9082      116.0641      84.355353       0.00000



 Wavenumbers: 29000. - 38000. cm-1, ATM      1
 LEVEL PRESSURE   UPWARD FLUX   DIFDOWN FLUX  DIRDOWN FLUX  DOWNWARD FLUX   NET FLUX    HEATING RATE
          mb          W/m2          W/m2          W/m2        W/m2          W/m2       degree/day
  51    .06700        8.9367        0.0000       45.8410       45.8410      36.904248       0.00000
  50    .07753        8.9365        0.0003       45.8366       45.8370      36.900433       3.05788
  49    .09103        8.9363        0.0007       45.8305       45.8312      36.894879       3.47102
  48    0.1069        8.9361        0.0012       45.8223       45.8235      36.887439       3.96058
  47    0.1255        8.9358        0.0017       45.8116       45.8133      36.877478       4.51601
  46    0.1487        8.9355        0.0024       45.7959       45.7983      36.862799       5.35066
  45    0.1794        8.9351        0.0033       45.7716       45.7750      36.839876       6.29272
  44    0.2165        8.9346        0.0044       45.7391       45.7435      36.808858       7.05617
  43    0.2613        8.9341        0.0057       45.6954       45.7011      36.766926       7.90394
  42    0.3336        8.9334        0.0078       45.6134       45.6212      36.687767       9.22918
  41    0.4307        8.9325        0.0105       45.4920       45.5025      36.569969      10.24226
  40    0.5894        8.9314        0.0149       45.2670       45.2819      36.350545      11.66872
  39     1.339        8.9306        0.0341       43.8242       43.8583      34.927693      16.01872
  38     1.782        8.9332        0.0441       42.8351       42.8792      33.946018      18.68952
  37     2.292        8.9388        0.0549       41.6852       41.7402      32.801322      18.95914
  36     2.964        8.9502        0.0682       40.2943       40.3625      31.412304      17.43637
  35     3.853        8.9707        0.0849       38.7687       38.8535      29.882816      14.51512
  34     5.035        9.0035        0.1061       37.2304       37.3365      28.332991      11.07131
  33     6.613        9.0508        0.1336       35.7405       35.8741      26.823271       8.07097
  32     8.786        9.1137        0.1697       34.3295       34.4992      25.385533       5.58366
  31     11.80        9.1969        0.2203       32.9481       33.1683      23.971386       3.95917
  30     15.07        9.2789        0.2735       31.8942       32.1677      22.888881       2.79482
  29     18.79        9.3652        0.3324       30.9854       31.3178      21.952660       2.12270
  28     23.16        9.4591        0.4001       30.1559       30.5560      21.096913       1.65474
  27     28.12        9.5577        0.4764       29.4043       29.8807      20.322952       1.31568
  26     33.73        9.6520        0.5616       28.7514       29.3130      19.660995       0.99527
  25     40.54        9.7450        0.6642       28.1328       28.7970      19.051973       0.75556
  24     48.69        9.8366        0.7872       27.5340       28.3212      18.484664       0.58708
  23     57.69        9.9156        0.9217       26.9971       27.9188      18.003155       0.45134
  22     68.43        9.9840        1.0813       26.4694       27.5507      17.566645       0.34315
  21     81.20       10.0245        1.2724       25.9669       27.2392      17.214741       0.23253
  20     96.49       10.0315        1.5003       25.4748       26.9750      16.943531       0.14969
  19     114.6       10.0182        1.7666       24.9506       26.7173      16.699097       0.11413
  18     136.5        9.9878        2.0742       24.3745       26.4487      16.460878       0.09160
  17     162.9        9.9381        2.4300       23.7328       26.1629      16.224765       0.07547
  16     196.4        9.8410        2.8800       22.9761       25.8560      16.015085       0.05278
  15     218.7        9.7638        3.1656       22.5089       25.6745      15.910682       0.03964
  14     243.0        9.6730        3.4674       22.0192       25.4866      15.813545       0.03369
  13     269.0        9.5667        3.7847       21.5077       25.2924      15.725704       0.02850
  12     297.5        9.4435        4.1163       20.9749       25.0913      15.647801       0.02311
  11     328.5        9.3042        4.4606       20.4165       24.8771      15.572820       0.02039
  10     361.9        9.1478        4.8152       19.8338       24.6490      15.501223       0.01811
   9     398.1        8.9723        5.1788       19.2267       24.4054      15.433171       0.01585
   8     437.6        8.7765        5.5484       18.5955       24.1439      15.367477       0.01405
   7     480.5        8.5583        5.9216       17.9419       23.8635      15.305167       0.01224
   6     533.0        8.2788        6.3493       17.1671       23.5164      15.237555       0.01088
   5     589.8        7.9647        6.7707       16.3664       23.1371      15.172391       0.00967
   4     651.6        7.6130        7.1804       15.5420       22.7224      15.109363       0.00862
   3     718.7        7.2198        7.5710       14.6973       22.2683      15.048549       0.00764
   2     792.3        6.7807        7.9333       13.8375       21.7708      14.990059       0.00671
   1     891.5        6.1600        8.3364       12.7437       21.0801      14.920107       0.00595
   0    1013.0        5.3721        8.6901       11.5285       20.2186      14.846526       0.00511



 Wavenumbers: 38000. - 50000. cm-1, ATM      1
 LEVEL PRESSURE   UPWARD FLUX   DIFDOWN FLUX  DIRDOWN FLUX  DOWNWARD FLUX   NET FLUX    HEATING RATE
          mb          W/m2          W/m2          W/m2        W/m2          W/m2       degree/day
  51    .06700        0.0077        0.0000        2.8274        2.8274       2.819732       0.00000
  50    .07753        0.0076        0.0001        2.8250        2.8250       2.817394       1.87426
  49    .09103        0.0076        0.0002        2.8215        2.8216       2.814052       2.08853
  48    0.1069        0.0075        0.0003        2.8169        2.8172       2.809652       2.34203
  47    0.1255        0.0074        0.0004        2.8109        2.8113       2.803854       2.62885
  46    0.1487        0.0073        0.0005        2.8022        2.8027       2.795433       3.06948
  45    0.1794        0.0072        0.0007        2.7889        2.7896       2.782446       3.56531
  44    0.2165        0.0070        0.0009        2.7712        2.7721       2.765088       3.94851
  43    0.2613        0.0068        0.0012        2.7476        2.7487       2.741916       4.36792
  42    0.3336        0.0065        0.0015        2.7038        2.7053       2.698800       5.02689
  41    0.4307        0.0062        0.0020        2.6399        2.6419       2.635738       5.48307
  40    0.5894        0.0056        0.0027        2.5241        2.5268       2.521231       6.08937
  39     1.339        0.0038        0.0042        1.8543        1.8585       1.854685       7.50409
  38     1.782        0.0031        0.0041        1.4655        1.4696       1.466513       7.39018
  37     2.292        0.0024        0.0036        1.0872        1.0908       1.088339       6.26353
  36     2.964        0.0019        0.0030        0.7358        0.7388       0.736859       4.41214
  35     3.853        0.0015        0.0024        0.4711        0.4735       0.472010       2.51347
  34     5.035        0.0012        0.0019        0.2988        0.3008       0.299620       1.23148
  33     6.613        0.0009        0.0016        0.1889        0.1905       0.189608       0.58813
  32     8.786        0.0007        0.0013        0.1196        0.1208       0.120133       0.26981
  31     11.80        0.0005        0.0010        0.0741        0.0751       0.074563       0.12758
  30     15.07        0.0004        0.0008        0.0493        0.0501       0.049700       0.06419
  29     18.79        0.0003        0.0006        0.0330        0.0336       0.033348       0.03707
  28     23.16        0.0002        0.0004        0.0217        0.0221       0.021940       0.02206
  27     28.12        0.0001        0.0003        0.0140        0.0144       0.014212       0.01314
  26     33.73        0.0001        0.0002        0.0091        0.0093       0.009223       0.00750
  25     40.54        0.0001        0.0002        0.0057        0.0059       0.005793       0.00426
  24     48.69        0.0000        0.0001        0.0034        0.0035       0.003483       0.00239
  23     57.69        0.0000        0.0001        0.0020        0.0021       0.002088       0.00131
  22     68.43        0.0000        0.0000        0.0012        0.0012       0.001190       0.00071
  21     81.20        0.0000        0.0000        0.0006        0.0007       0.000647       0.00036
  20     96.49        0.0000        0.0000        0.0003        0.0003       0.000330       0.00018
  19     114.6        0.0000        0.0000        0.0001        0.0002       0.000151       0.00008
  18     136.5        0.0000        0.0000        0.0001        0.0001       0.000060       0.00003
  17     162.9        0.0000        0.0000        0.0000        0.0000       0.000020       0.00001
  16     196.4        0.0000        0.0000        0.0000        0.0000       0.000005       0.00000
  15     218.7        0.0000        0.0000        0.0000        0.0000       0.000002       0.00000
  14     243.0        0.0000        0.0000        0.0000        0.0000       0.000001       0.00000
  13     269.0        0.0000        0.0000        0.0000        0.0000       0.000000       0.00000
  12     297.5        0.0000        0.0000        0.0000        0.0000       0.000000       0.00000
  11     328.5        0.0000        0.0000        0.0000        0.0000       0.000000       0.00000
  10     361.9        0.0000        0.0000        0.0000        0.0000       0.000000       0.00000
   9     398.1        0.0000        0.0000        0.0000        0.0000       0.000000       0.00000
   8     437.6        0.0000        0.0000        0.0000        0.0000       0.000000       0.00000
   7     480.5        0.0000        0.0000        0.0000        0.0000       0.000000       0.00000
   6     533.0        0.0000        0.0000        0.0000        0.0000       0.000000       0.00000
   5     589.8        0.0000        0.0000        0.0000        0.0000       0.000000       0.00000
   4     651.6        0.0000        0.0000        0.0000        0.0000       0.000000       0.00000
   3     718.7        0.0000        0.0000        0.0000        0.0000       0.000000       0.00000
   2     792.3        0.0000        0.0000        0.0000        0.0000       0.000000       0.00000
   1     891.5        0.0000        0.0000        0.0000        0.0000       0.000000       0.00000
   0    1013.0        0.0000        0.0000        0.0000        0.0000       0.000000       0.00000



 Wavenumbers:   820. -  2600. cm-1, ATM      1
 LEVEL PRESSURE   UPWARD FLUX   DIFDOWN FLUX  DIRDOWN FLUX  DOWNWARD FLUX   NET FLUX    HEATING RATE
          mb          W/m2          W/m2          W/m2        W/m2          W/m2       degree/day
  51    .06700        0.2043        0.0000       13.2264       13.2264      13.022051       0.00000
  50    .07753        0.2043        0.0000       13.2194       13.2194      13.015029       5.62795
  49    .09103        0.2043        0.0000       13.2178       13.2178      13.013454       0.98410
  48    0.1069        0.2043        0.0000       13.2167       13.2167      13.012328       0.59956
  47    0.1255        0.2043        0.0000       13.2154       13.2154      13.011037       0.58515
  46    0.1487        0.2043        0.0000       13.2137       13.2137      13.009380       0.60401
  45    0.1794        0.2043        0.0000       13.2114       13.2114      13.007121       0.62011
  44    0.2165        0.2043        0.0000       13.2088       13.2088      13.004503       0.59556
  43    0.2613        0.2043        0.0000       13.2059       13.2059      13.001523       0.56188
  42    0.3336        0.2043        0.0000       13.2013       13.2013      12.996959       0.53209
  41    0.4307        0.2043        0.0000       13.1959       13.1959      12.991588       0.46695
  40    0.5894        0.2043        0.0000       13.1882       13.1882      12.983897       0.40902
  39     1.339        0.2043        0.0000       13.1557       13.1557      12.951361       0.36629
  38     1.782        0.2043        0.0000       13.1371       13.1371      12.932774       0.35387
  37     2.292        0.2043        0.0000       13.1162       13.1162      12.911828       0.34693
  36     2.964        0.2043        0.0000       13.0894       13.0894      12.885073       0.33585
  35     3.853        0.2043        0.0000       13.0549       13.0549      12.850572       0.32742
  34     5.035        0.2043        0.0000       13.0106       13.0106      12.806267       0.31650
  33     6.613        0.2043        0.0000       12.9545       12.9545      12.750150       0.30000
  32     8.786        0.2043        0.0000       12.8834       12.8834      12.679022       0.27624
  31     11.80        0.2043        0.0000       12.7885       12.7885      12.584119       0.26570
  30     15.07        0.2043        0.0000       12.6943       12.6944      12.490012       0.24297
  29     18.79        0.2043        0.0000       12.5999       12.5999      12.395553       0.21417
  28     23.16        0.2043        0.0000       12.5086       12.5086      12.304282       0.17649
  27     28.12        0.2043        0.0000       12.4288       12.4289      12.224503       0.13562
  26     33.73        0.2044        0.0000       12.3650       12.3650      12.160660       0.09599
  25     40.54        0.2044        0.0000       12.3120       12.3120      12.107638       0.06578
  24     48.69        0.2044        0.0000       12.2668       12.2668      12.062484       0.04673
  23     57.69        0.2044        0.0000       12.2260       12.2260      12.021632       0.03829
  22     68.43        0.2044        0.0000       12.1803       12.1803      11.975887       0.03596
  21     81.20        0.2044        0.0000       12.1270       12.1270      11.922636       0.03519
  20     96.49        0.2044        0.0000       12.0640       12.0640      11.859572       0.03481
  19     114.6        0.2044        0.0000       11.9885       11.9885      11.784134       0.03522
  18     136.5        0.2044        0.0000       11.8987       11.8988      11.694326       0.03453
  17     162.9        0.2045        0.0000       11.7817       11.7818      11.577289       0.03741
  16     196.4        0.2045        0.0000       11.5930       11.5930      11.388490       0.04752
  15     218.7        0.2046        0.0000       11.4055       11.4056      11.201002       0.07118
  14     243.0        0.2046        0.0000       11.1045       11.1045      10.899878       0.10444
  13     269.0        0.2048        0.0000       10.6901       10.6901      10.485354       0.13447
  12     297.5        0.2049        0.0000       10.2200       10.2201      10.015108       0.13947
  11     328.5        0.2052        0.0000        9.8187        9.8187       9.613519       0.10919
  10     361.9        0.2056        0.0000        9.4313        9.4313       9.225777       0.09810
   9     398.1        0.2060        0.0000        8.9858        8.9858       8.779767       0.10391
   8     437.6        0.2066        0.0000        8.4654        8.4654       8.258825       0.11138
   7     480.5        0.2074        0.0000        7.9394        7.9395       7.732127       0.10344
   6     533.0        0.2085        0.0000        7.4262        7.4262       7.217702       0.08275
   5     589.8        0.2102        0.0000        7.0503        7.0503       6.840166       0.05604
   4     651.6        0.2131        0.0000        6.7312        6.7313       6.518119       0.04404
   3     718.7        0.2182        0.0000        6.3693        6.3693       6.151082       0.04613
   2     792.3        0.2275        0.0000        5.9171        5.9172       5.689675       0.05292
   1     891.5        0.2513        0.0000        5.2716        5.2716       5.020310       0.05696
   0    1013.0        0.3164        0.0000        4.5136        4.5136       4.197221       0.05715

  Modules and versions used in this calculation:

       rrtmg_sw.1col.f90:  $Revision$                    rrtmg_sw_init.f90:  $Revision$        
     rrtmgsw_cldprop.f90:  $Revision$                  rrtmgsw_cldprmc.f90:  NOT USED          
     rrtmg_sw_reftra.f90:  $Revision$                  rrtmg_sw_spcvrt.f90:  NOT USED          
     rrtmg_sw_spcvmc.f90:  NOT USED                    rrtmgsw_setcoef.f90:  NOT USED          
     rrtmg_sw_taumol.f90:  $Revision$                  rrtmg_sw_vrtqdr.f90:  NOT USED          
                rrtatm.f:  NOT USED                             util_xxx.f:  NOT USED          
                 extra.f:  NOT USED                       rrtmg_sw_k_g.f90:  $Revision$        

