

 Wavenumbers:   820. - 50000. cm-1, ATM      1
 LEVEL PRESSURE   UPWARD FLUX   DIFDOWN FLUX  DIRDOWN FLUX  DOWNWARD FLUX   NET FLUX    HEATING RATE
          mb          W/m2          W/m2          W/m2        W/m2          W/m2       degree/day
  51    .06700      752.3706        0.0000     1360.8491     1360.8491     608.478563       0.00000
  50    .07753      752.3708        0.0018     1360.8273     1360.8291     608.458306      16.23645
  49    .09103      752.3711        0.0041     1360.8078     1360.8119     608.440772      10.95959
  48    0.1069      752.3715        0.0067     1360.7860     1360.7927     608.421190      10.42340
  47    0.1255      752.3721        0.0097     1360.7600     1360.7697     608.397633      10.67967
  46    0.1487      752.3729        0.0135     1360.7249     1360.7384     608.365476      11.72157
  45    0.1794      752.3743        0.0187     1360.6734     1360.6922     608.317895      13.06207
  44    0.2165      752.3761        0.0249     1360.6074     1360.6322     608.256157      14.04440
  43    0.2613      752.3785        0.0321     1360.5219     1360.5541     608.175518      15.20015
  42    0.3336      752.3833        0.0441     1360.3673     1360.4114     608.028142      17.18257
  41    0.4307      752.3904        0.0599     1360.1456     1360.2055     607.815102      18.52330
  40    0.5894      752.4041        0.0855     1359.7482     1359.8338     607.429631      20.49889
  39     1.339      752.5061        0.2034     1357.3733     1357.5768     605.070715      26.55710
  38     1.782      752.5924        0.2704     1355.8375     1356.1079     603.515566      29.60753
  37     2.292      752.7166        0.3469     1354.1208     1354.4677     601.751164      29.22310
  36     2.964      752.9167        0.4464     1352.1205     1352.5669     599.650162      26.37393
  35     3.853      753.2332        0.5771     1349.9734     1350.5505     597.317342      22.13889
  34     5.035      753.7049        0.7501     1347.7761     1348.5262     594.821318      17.83056
  33     6.613      754.3623        0.9807     1345.5290     1346.5096     592.147279      14.29542
  32     8.786      755.2238        1.2907     1343.2079     1344.4985     589.274723      11.15597
  31     11.80      756.3610        1.7332     1340.6494     1342.3826     586.021586       9.10776
  30     15.07      757.4719        2.2076     1338.4304     1340.6380     583.166153       7.37217
  29     18.79      758.6284        2.7424     1336.2864     1339.0289     580.400451       6.27070
  28     23.16      759.8663        3.3663     1334.1057     1337.4720     577.605669       5.40421
  27     28.12      761.1490        4.0790     1331.9136     1335.9926     574.843541       4.69543
  26     33.73      762.3873        4.8769     1329.7853     1334.6623     572.274939       3.86196
  25     40.54      763.6513        5.8414     1327.5375     1333.3789     569.727548       3.16033
  24     48.69      764.9491        7.0042     1325.1261     1332.1304     567.181316       2.63495
  23     57.69      766.1527        8.2816     1322.7388     1331.0203     564.867665       2.16870
  22     68.43      767.3419        9.8030     1320.1544     1329.9574     562.615433       1.77056
  21     81.20      768.4131       11.6178     1317.3916     1329.0094     560.596305       1.33421
  20     96.49      769.3626       13.7812     1314.3811     1328.1623     558.799694       0.99160
  19     114.6      770.3463       16.3450     1310.9471     1327.2921     556.945753       0.86566
  18     136.5      771.3930       19.3707     1306.9977     1326.3684     554.975434       0.75763
  17     162.9      772.5297       22.9554     1302.3518     1325.3072     552.777561       0.70253
  16     196.4      773.7591       27.5815     1296.2678     1323.8493     550.090243       0.67643
  15     218.7      774.4746       30.6019     1291.7724     1322.3744     547.899823       0.83162
  14     243.0      775.2098       33.8687     1286.1481     1320.0167     544.806967       1.07271
  13     269.0      775.9630       37.3900     1279.0245     1316.4145     540.451518       1.41289
  12     297.5      776.7379       41.1735     1270.1087     1311.2822     534.544309       1.75201
  11     328.5      777.5595       45.2356     1260.1713     1305.4068     527.847303       1.82090
  10     361.9      778.4333       49.5790     1249.4297     1299.0087     520.575396       1.83986
   9     398.1      779.3711       54.2192     1237.6382     1291.8573     512.486232       1.88459
   8     437.6      780.3943       59.1627     1224.3920     1283.5546     503.160350       1.99393
   7     480.5      781.5210       64.4174     1209.7358     1274.1532     492.632256       2.06768
   6     533.0      782.9819       70.8247     1191.2571     1262.0819     479.099970       2.17691
   5     589.8      784.7180       77.6563     1170.7333     1248.3896     463.671599       2.29008
   4     651.6      786.9504       84.9146     1147.0297     1231.9444     444.993985       2.55421
   3     718.7      789.9214       92.6032     1120.8952     1213.4984     423.577039       2.69152
   2     792.3      794.2249      100.7081     1092.1619     1192.8699     398.645015       2.85942
   1     891.5      803.1145      111.4366     1053.3991     1164.8357     361.721126       3.14205
   0    1013.0      822.7836      124.0105     1008.4859     1132.4964     309.712771       3.61121



 Wavenumbers:  2600. -  3250. cm-1, ATM      1
 LEVEL PRESSURE   UPWARD FLUX   DIFDOWN FLUX  DIRDOWN FLUX  DOWNWARD FLUX   NET FLUX    HEATING RATE
          mb          W/m2          W/m2          W/m2        W/m2          W/m2       degree/day
  51    .06700        0.0444        0.0000       11.9937       11.9937      11.949336       0.00000
  50    .07753        0.0444        0.0000       11.9937       11.9937      11.949328       0.00640
  49    .09103        0.0444        0.0000       11.9937       11.9937      11.949318       0.00627
  48    0.1069        0.0444        0.0000       11.9937       11.9937      11.949306       0.00613
  47    0.1255        0.0444        0.0000       11.9937       11.9937      11.949293       0.00600
  46    0.1487        0.0444        0.0000       11.9937       11.9937      11.949276       0.00608
  45    0.1794        0.0444        0.0000       11.9936       11.9936      11.949254       0.00625
  44    0.2165        0.0444        0.0000       11.9936       11.9936      11.949227       0.00613
  43    0.2613        0.0444        0.0000       11.9936       11.9936      11.949195       0.00601
  42    0.3336        0.0444        0.0000       11.9935       11.9935      11.949142       0.00619
  41    0.4307        0.0444        0.0000       11.9935       11.9935      11.949070       0.00622
  40    0.5894        0.0444        0.0000       11.9933       11.9933      11.948950       0.00640
  39     1.339        0.0444        0.0000       11.9926       11.9926      11.948233       0.00806
  38     1.782        0.0444        0.0000       11.9921       11.9921      11.947678       0.01057
  37     2.292        0.0444        0.0000       11.9913       11.9913      11.946938       0.01226
  36     2.964        0.0444        0.0000       11.9902       11.9902      11.945848       0.01368
  35     3.853        0.0444        0.0000       11.9886       11.9886      11.944264       0.01504
  34     5.035        0.0444        0.0000       11.9864       11.9864      11.941990       0.01624
  33     6.613        0.0444        0.0000       11.9832       11.9832      11.938774       0.01719
  32     8.786        0.0444        0.0000       11.9787       11.9787      11.934291       0.01741
  31     11.80        0.0444        0.0000       11.9722       11.9722      11.927819       0.01812
  30     15.07        0.0444        0.0000       11.9654       11.9654      11.921012       0.01757
  29     18.79        0.0444        0.0000       11.9581       11.9581      11.913724       0.01652
  28     23.16        0.0444        0.0000       11.9502       11.9502      11.905804       0.01532
  27     28.12        0.0444        0.0000       11.9418       11.9418      11.897468       0.01417
  26     33.73        0.0444        0.0000       11.9329       11.9329      11.888508       0.01347
  25     40.54        0.0444        0.0000       11.9222       11.9222      11.877814       0.01327
  24     48.69        0.0444        0.0000       11.9093       11.9093      11.864982       0.01328
  23     57.69        0.0444        0.0000       11.8949       11.8950      11.850595       0.01349
  22     68.43        0.0444        0.0000       11.8770       11.8771      11.832694       0.01407
  21     81.20        0.0444        0.0000       11.8544       11.8544      11.810033       0.01497
  20     96.49        0.0444        0.0000       11.8256       11.8257      11.781301       0.01586
  19     114.6        0.0444        0.0000       11.7886       11.7887      11.744304       0.01727
  18     136.5        0.0443        0.0000       11.7429       11.7430      11.698634       0.01756
  17     162.9        0.0443        0.0001       11.6869       11.6870      11.642641       0.01790
  16     196.4        0.0443        0.0001       11.6129       11.6130      11.568618       0.01863
  15     218.7        0.0443        0.0001       11.5605       11.5605      11.516203       0.01990
  14     243.0        0.0444        0.0001       11.4957       11.4958      11.451397       0.02248
  13     269.0        0.0444        0.0001       11.4130       11.4131      11.368733       0.02682
  12     297.5        0.0444        0.0001       11.3101       11.3102      11.265827       0.03052
  11     328.5        0.0444        0.0001       11.1933       11.1934      11.148921       0.03179
  10     361.9        0.0445        0.0001       11.0632       11.0633      11.018790       0.03292
   9     398.1        0.0446        0.0001       10.9149       10.9151      10.870448       0.03456
   8     437.6        0.0447        0.0001       10.7385       10.7387      10.693944       0.03774
   7     480.5        0.0449        0.0002       10.5233       10.5234      10.478494       0.04231
   6     533.0        0.0452        0.0002       10.2141       10.2142      10.169020       0.04978
   5     589.8        0.0456        0.0002        9.8147        9.8148       9.769204       0.05935
   4     651.6        0.0464        0.0002        9.2987        9.2989       9.252545       0.07065
   3     718.7        0.0475        0.0002        8.7065        8.7067       8.659196       0.07457
   2     792.3        0.0494        0.0002        8.0516        8.0518       8.002365       0.07533
   1     891.5        0.0540        0.0002        7.1628        7.1630       7.108952       0.07603
   0    1013.0        0.0672        0.0002        6.1112        6.1113       6.044115       0.07394



 Wavenumbers:  3250. -  4000. cm-1, ATM      1
 LEVEL PRESSURE   UPWARD FLUX   DIFDOWN FLUX  DIRDOWN FLUX  DOWNWARD FLUX   NET FLUX    HEATING RATE
          mb          W/m2          W/m2          W/m2        W/m2          W/m2       degree/day
  51    .06700        0.0006        0.0000       20.2197       20.2197      20.219100       0.00000
  50    .07753        0.0006        0.0000       20.2140       20.2140      20.213431       4.54406
  49    .09103        0.0006        0.0000       20.2088       20.2088      20.208200       3.26932
  48    0.1069        0.0006        0.0000       20.2043       20.2043      20.203776       2.35506
  47    0.1255        0.0006        0.0000       20.2005       20.2005      20.199896       1.75884
  46    0.1487        0.0006        0.0000       20.1965       20.1965      20.195974       1.42967
  45    0.1794        0.0006        0.0000       20.1921       20.1921      20.191531       1.21962
  44    0.2165        0.0006        0.0000       20.1875       20.1875      20.186965       1.03878
  43    0.2613        0.0006        0.0000       20.1827       20.1827      20.182125       0.91222
  42    0.3336        0.0006        0.0000       20.1757       20.1757      20.175103       0.81870
  41    0.4307        0.0006        0.0000       20.1678       20.1678      20.167209       0.68638
  40    0.5894        0.0006        0.0000       20.1571       20.1571      20.156515       0.56870
  39     1.339        0.0006        0.0000       20.1195       20.1195      20.118982       0.42255
  38     1.782        0.0006        0.0000       20.1017       20.1017      20.101151       0.33948
  37     2.292        0.0006        0.0000       20.0837       20.0837      20.083124       0.29857
  36     2.964        0.0005        0.0000       20.0629       20.0629      20.062374       0.26048
  35     3.853        0.0005        0.0000       20.0387       20.0387      20.038174       0.22966
  34     5.035        0.0005        0.0000       20.0099       20.0099      20.009332       0.20604
  33     6.613        0.0005        0.0000       19.9743       19.9743      19.973781       0.19005
  32     8.786        0.0005        0.0000       19.9279       19.9279      19.927379       0.18021
  31     11.80        0.0005        0.0000       19.8609       19.8609      19.860341       0.18768
  30     15.07        0.0005        0.0000       19.7861       19.7861      19.785548       0.19310
  29     18.79        0.0005        0.0000       19.6981       19.6981      19.697621       0.19936
  28     23.16        0.0005        0.0000       19.5924       19.5924      19.591900       0.20443
  27     28.12        0.0005        0.0000       19.4692       19.4692      19.468688       0.20945
  26     33.73        0.0005        0.0000       19.3318       19.3319      19.331363       0.20647
  25     40.54        0.0005        0.0001       19.1703       19.1704      19.169885       0.20033
  24     48.69        0.0005        0.0001       18.9874       18.9875      18.986996       0.18926
  23     57.69        0.0005        0.0001       18.8032       18.8032      18.802772       0.17268
  22     68.43        0.0005        0.0001       18.6047       18.6048      18.604364       0.15598
  21     81.20        0.0004        0.0001       18.3903       18.3904      18.389999       0.14165
  20     96.49        0.0004        0.0001       18.1531       18.1532      18.152757       0.13094
  19     114.6        0.0004        0.0001       17.8720       17.8722      17.871761       0.13121
  18     136.5        0.0004        0.0002       17.5464       17.5465      17.546159       0.12520
  17     162.9        0.0004        0.0002       17.1484       17.1486      17.148277       0.12718
  16     196.4        0.0003        0.0002       16.5656       16.5658      16.565511       0.14669
  15     218.7        0.0003        0.0002       16.0235       16.0238      16.023491       0.20579
  14     243.0        0.0003        0.0003       15.2654       15.2657      15.265394       0.26293
  13     269.0        0.0002        0.0003       14.2510       14.2513      14.251016       0.32906
  12     297.5        0.0002        0.0003       13.0349       13.0352      13.034933       0.36068
  11     328.5        0.0002        0.0003       11.8274       11.8277      11.827463       0.32831
  10     361.9        0.0002        0.0002       10.6546       10.6548      10.654622       0.29674
   9     398.1        0.0002        0.0002        9.4801        9.4803       9.480143       0.27363
   8     437.6        0.0001        0.0002        8.3186        8.3188       8.318673       0.24833
   7     480.5        0.0001        0.0002        7.2534        7.2537       7.253525       0.20919
   6     533.0        0.0001        0.0002        6.1288        6.1290       6.128874       0.18092
   5     589.8        0.0001        0.0002        5.0588        5.0590       5.058888       0.15882
   4     651.6        0.0001        0.0001        3.9729        3.9731       3.972956       0.14850
   3     718.7        0.0001        0.0001        2.9378        2.9379       2.937730       0.13010
   2     792.3        0.0002        0.0001        1.9615        1.9616       1.961406       0.11197
   1     891.5        0.0005        0.0000        0.9920        0.9920       0.991440       0.08254
   0    1013.0        0.0052        0.0000        0.3116        0.3117       0.306416       0.04756



 Wavenumbers:  4000. -  4650. cm-1, ATM      1
 LEVEL PRESSURE   UPWARD FLUX   DIFDOWN FLUX  DIRDOWN FLUX  DOWNWARD FLUX   NET FLUX    HEATING RATE
          mb          W/m2          W/m2          W/m2        W/m2          W/m2       degree/day
  51    .06700        0.1089        0.0000       23.7440       23.7440      23.635038       0.00000
  50    .07753        0.1089        0.0000       23.7440       23.7440      23.635037       0.00080
  49    .09103        0.1089        0.0000       23.7440       23.7440      23.635036       0.00078
  48    0.1069        0.1089        0.0000       23.7440       23.7440      23.635034       0.00076
  47    0.1255        0.1089        0.0000       23.7440       23.7440      23.635033       0.00075
  46    0.1487        0.1089        0.0000       23.7440       23.7440      23.635031       0.00076
  45    0.1794        0.1089        0.0000       23.7440       23.7440      23.635028       0.00078
  44    0.2165        0.1089        0.0000       23.7440       23.7440      23.635024       0.00076
  43    0.2613        0.1089        0.0000       23.7440       23.7440      23.635020       0.00075
  42    0.3336        0.1089        0.0000       23.7440       23.7440      23.635014       0.00077
  41    0.4307        0.1089        0.0000       23.7439       23.7439      23.635005       0.00077
  40    0.5894        0.1089        0.0000       23.7439       23.7439      23.634990       0.00080
  39     1.339        0.1089        0.0000       23.7438       23.7438      23.634901       0.00101
  38     1.782        0.1089        0.0000       23.7438       23.7438      23.634831       0.00133
  37     2.292        0.1089        0.0000       23.7437       23.7437      23.634737       0.00156
  36     2.964        0.1089        0.0000       23.7435       23.7435      23.634596       0.00176
  35     3.853        0.1089        0.0000       23.7433       23.7433      23.634388       0.00198
  34     5.035        0.1089        0.0000       23.7430       23.7430      23.634081       0.00219
  33     6.613        0.1089        0.0000       23.7425       23.7426      23.633629       0.00242
  32     8.786        0.1089        0.0000       23.7418       23.7419      23.632960       0.00260
  31     11.80        0.1089        0.0000       23.7408       23.7408      23.631908       0.00295
  30     15.07        0.1089        0.0001       23.7395       23.7396      23.630671       0.00319
  29     18.79        0.1089        0.0001       23.7380       23.7381      23.629171       0.00340
  28     23.16        0.1089        0.0001       23.7361       23.7362      23.627304       0.00361
  27     28.12        0.1088        0.0001       23.7338       23.7339      23.625037       0.00385
  26     33.73        0.1088        0.0001       23.7309       23.7311      23.622230       0.00422
  25     40.54        0.1088        0.0001       23.7271       23.7272      23.618405       0.00474
  24     48.69        0.1088        0.0002       23.7219       23.7221      23.613280       0.00530
  23     57.69        0.1087        0.0002       23.7157       23.7159      23.607168       0.00573
  22     68.43        0.1087        0.0002       23.7079       23.7082      23.599464       0.00606
  21     81.20        0.1087        0.0003       23.6983       23.6986      23.589912       0.00631
  20     96.49        0.1086        0.0003       23.6865       23.6868      23.578222       0.00645
  19     114.6        0.1086        0.0004       23.6717       23.6721      23.563523       0.00686
  18     136.5        0.1085        0.0005       23.6537       23.6542      23.545718       0.00685
  17     162.9        0.1084        0.0006       23.6317       23.6322      23.523821       0.00700
  16     196.4        0.1083        0.0007       23.6012       23.6019      23.493546       0.00762
  15     218.7        0.1083        0.0008       23.5777       23.5784      23.470169       0.00888
  14     243.0        0.1082        0.0008       23.5456       23.5464      23.438215       0.01108
  13     269.0        0.1082        0.0009       23.4995       23.5004      23.392242       0.01491
  12     297.5        0.1081        0.0010       23.4351       23.4361      23.327981       0.01906
  11     328.5        0.1081        0.0011       23.3555       23.3566      23.248519       0.02161
  10     361.9        0.1081        0.0012       23.2571       23.2584      23.150256       0.02486
   9     398.1        0.1081        0.0014       23.1295       23.1309      23.022762       0.02970
   8     437.6        0.1082        0.0015       22.9586       22.9601      22.851919       0.03653
   7     480.5        0.1083        0.0016       22.7369       22.7385      22.630273       0.04353
   6     533.0        0.1084        0.0017       22.4191       22.4208      22.312380       0.05114
   5     589.8        0.1087        0.0019       22.0335       22.0354      21.926749       0.05724
   4     651.6        0.1092        0.0020       21.5654       21.5674      21.458275       0.06407
   3     718.7        0.1100        0.0022       21.0164       21.0185      20.908500       0.06909
   2     792.3        0.1116        0.0023       20.2979       20.3001      20.188502       0.08258
   1     891.5        0.1156        0.0024       19.1088       19.1111      18.995496       0.10152
   0    1013.0        0.1270        0.0024       17.6373       17.6397      17.512697       0.10296



 Wavenumbers:  4650. -  5150. cm-1, ATM      1
 LEVEL PRESSURE   UPWARD FLUX   DIFDOWN FLUX  DIRDOWN FLUX  DOWNWARD FLUX   NET FLUX    HEATING RATE
          mb          W/m2          W/m2          W/m2        W/m2          W/m2       degree/day
  51    .06700        0.0383        0.0000       22.4748       22.4748      22.436452       0.00000
  50    .07753        0.0383        0.0000       22.4746       22.4746      22.436215       0.18925
  49    .09103        0.0383        0.0000       22.4743       22.4743      22.435919       0.18504
  48    0.1069        0.0383        0.0000       22.4739       22.4739      22.435580       0.18064
  47    0.1255        0.0383        0.0000       22.4735       22.4735      22.435191       0.17622
  46    0.1487        0.0383        0.0000       22.4730       22.4730      22.434703       0.17814
  45    0.1794        0.0383        0.0000       22.4724       22.4724      22.434038       0.18241
  44    0.2165        0.0383        0.0000       22.4716       22.4716      22.433256       0.17785
  43    0.2613        0.0383        0.0000       22.4707       22.4707      22.432337       0.17328
  42    0.3336        0.0383        0.0000       22.4692       22.4692      22.430832       0.17553
  41    0.4307        0.0383        0.0000       22.4672       22.4672      22.428864       0.17112
  40    0.5894        0.0383        0.0000       22.4641       22.4641      22.425717       0.16731
  39     1.339        0.0383        0.0000       22.4502       22.4502      22.411884       0.15573
  38     1.782        0.0383        0.0000       22.4428       22.4428      22.404513       0.14034
  37     2.292        0.0383        0.0000       22.4349       22.4350      22.396627       0.13062
  36     2.964        0.0383        0.0000       22.4255       22.4255      22.387198       0.11836
  35     3.853        0.0383        0.0000       22.4145       22.4145      22.376182       0.10454
  34     5.035        0.0383        0.0000       22.4019       22.4019      22.363634       0.08964
  33     6.613        0.0383        0.0000       22.3880       22.3881      22.349774       0.07409
  32     8.786        0.0383        0.0000       22.3731       22.3731      22.334823       0.05807
  31     11.80        0.0383        0.0001       22.3562       22.3563      22.318025       0.04703
  30     15.07        0.0383        0.0001       22.3413       22.3414      22.303107       0.03852
  29     18.79        0.0382        0.0001       22.3259       22.3260      22.287750       0.03482
  28     23.16        0.0382        0.0001       22.3082       22.3083      22.270057       0.03421
  27     28.12        0.0382        0.0002       22.2870       22.2872      22.248961       0.03586
  26     33.73        0.0382        0.0002       22.2617       22.2618      22.223680       0.03801
  25     40.54        0.0381        0.0002       22.2285       22.2287      22.190580       0.04107
  24     48.69        0.0381        0.0003       22.1852       22.1854      22.147346       0.04474
  23     57.69        0.0380        0.0003       22.1340       22.1344      22.096312       0.04784
  22     68.43        0.0380        0.0004       22.0694       22.0698      22.031784       0.05073
  21     81.20        0.0379        0.0004       21.9886       21.9891      21.951124       0.05330
  20     96.49        0.0379        0.0005       21.8895       21.8900      21.852156       0.05462
  19     114.6        0.0378        0.0006       21.7708       21.7714      21.733655       0.05533
  18     136.5        0.0377        0.0007       21.6320       21.6327      21.595054       0.05330
  17     162.9        0.0376        0.0008       21.4726       21.4734      21.435825       0.05090
  16     196.4        0.0374        0.0010       21.2786       21.2796      21.242153       0.04875
  15     218.7        0.0373        0.0011       21.1582       21.1593      21.121976       0.04563
  14     243.0        0.0373        0.0012       21.0313       21.0325      20.995230       0.04396
  13     269.0        0.0372        0.0013       20.8948       20.8961      20.858933       0.04421
  12     297.5        0.0371        0.0015       20.7434       20.7449      20.707791       0.04483
  11     328.5        0.0370        0.0016       20.5767       20.5783      20.541274       0.04528
  10     361.9        0.0369        0.0018       20.3907       20.3925      20.355584       0.04698
   9     398.1        0.0369        0.0019       20.1791       20.1810      20.144141       0.04926
   8     437.6        0.0368        0.0021       19.9341       19.9362      19.899395       0.05233
   7     480.5        0.0368        0.0022       19.6480       19.6502      19.613437       0.05616
   6     533.0        0.0368        0.0024       19.2600       19.2624      19.225546       0.06240
   5     589.8        0.0369        0.0025       18.7890       18.7915      18.754617       0.06990
   4     651.6        0.0372        0.0027       18.1977       18.2004      18.163249       0.08087
   3     718.7        0.0376        0.0028       17.4829       17.4857      17.448048       0.08988
   2     792.3        0.0385        0.0029       16.6464       16.6494      16.610904       0.09601
   1     891.5        0.0405        0.0030       15.4816       15.4846      15.444134       0.09929
   0    1013.0        0.0454        0.0031       14.1857       14.1888      14.143417       0.09032



 Wavenumbers:  5150. -  6150. cm-1, ATM      1
 LEVEL PRESSURE   UPWARD FLUX   DIFDOWN FLUX  DIRDOWN FLUX  DOWNWARD FLUX   NET FLUX    HEATING RATE
          mb          W/m2          W/m2          W/m2        W/m2          W/m2       degree/day
  51    .06700        0.2174        0.0000       56.3444       56.3444      56.127025       0.00000
  50    .07753        0.2174        0.0000       56.3444       56.3444      56.126985       0.03156
  49    .09103        0.2174        0.0000       56.3443       56.3443      56.126934       0.03205
  48    0.1069        0.2174        0.0000       56.3442       56.3442      56.126873       0.03256
  47    0.1255        0.2174        0.0000       56.3442       56.3442      56.126800       0.03306
  46    0.1487        0.2174        0.0000       56.3441       56.3441      56.126704       0.03484
  45    0.1794        0.2174        0.0000       56.3439       56.3439      56.126569       0.03709
  44    0.2165        0.2174        0.0000       56.3438       56.3438      56.126404       0.03767
  43    0.2613        0.2174        0.0000       56.3436       56.3436      56.126201       0.03826
  42    0.3336        0.2174        0.0000       56.3432       56.3432      56.125854       0.04045
  41    0.4307        0.2174        0.0000       56.3427       56.3427      56.125382       0.04103
  40    0.5894        0.2174        0.0000       56.3419       56.3419      56.124590       0.04209
  39     1.339        0.2173        0.0000       56.3381       56.3381      56.120760       0.04312
  38     1.782        0.2173        0.0000       56.3358       56.3358      56.118517       0.04270
  37     2.292        0.2173        0.0001       56.3332       56.3333      56.115968       0.04223
  36     2.964        0.2173        0.0001       56.3299       56.3300      56.112711       0.04089
  35     3.853        0.2173        0.0001       56.3257       56.3258      56.108542       0.03956
  34     5.035        0.2173        0.0001       56.3203       56.3204      56.103124       0.03870
  33     6.613        0.2172        0.0002       56.3131       56.3132      56.096010       0.03803
  32     8.786        0.2172        0.0002       56.3036       56.3038      56.086645       0.03637
  31     11.80        0.2171        0.0003       56.2905       56.2908      56.073704       0.03623
  30     15.07        0.2170        0.0004       56.2770       56.2774      56.060402       0.03434
  29     18.79        0.2169        0.0005       56.2626       56.2631      56.046135       0.03235
  28     23.16        0.2168        0.0006       56.2466       56.2471      56.030331       0.03056
  27     28.12        0.2167        0.0007       56.2292       56.2299      56.013205       0.02911
  26     33.73        0.2166        0.0008       56.2110       56.2119      55.995304       0.02691
  25     40.54        0.2164        0.0010       56.1906       56.1916      55.975213       0.02492
  24     48.69        0.2162        0.0012       56.1681       56.1693      55.953106       0.02288
  23     57.69        0.2160        0.0014       56.1451       56.1466      55.930567       0.02113
  22     68.43        0.2158        0.0017       56.1195       56.1212      55.905487       0.01972
  21     81.20        0.2155        0.0020       56.0907       56.0927      55.877212       0.01868
  20     96.49        0.2151        0.0024       56.0573       56.0597      55.844592       0.01800
  19     114.6        0.2147        0.0028       56.0182       56.0211      55.806406       0.01783
  18     136.5        0.2142        0.0034       55.9719       55.9753      55.761075       0.01743
  17     162.9        0.2136        0.0040       55.9013       55.9053      55.691679       0.02218
  16     196.4        0.2128        0.0048       55.7479       55.7527      55.539895       0.03821
  15     218.7        0.2123        0.0053       55.5243       55.5296      55.317338       0.08450
  14     243.0        0.2118        0.0059       55.1190       55.1249      54.913085       0.14021
  13     269.0        0.2112        0.0064       54.3924       54.3987      54.187525       0.23537
  12     297.5        0.2106        0.0068       53.2527       53.2596      53.048924       0.33770
  11     328.5        0.2101        0.0073       51.9857       51.9930      51.782989       0.34420
  10     361.9        0.2094        0.0078       50.6721       50.6799      50.470436       0.33209
   9     398.1        0.2088        0.0083       49.1893       49.1976      48.988734       0.34520
   8     437.6        0.2082        0.0087       47.4187       47.4274      47.219161       0.37835
   7     480.5        0.2076        0.0091       45.4500       45.4590      45.251407       0.38646
   6     533.0        0.2070        0.0095       43.0596       43.0691      42.862087       0.38437
   5     589.8        0.2064        0.0098       40.5463       40.5561      40.349654       0.37293
   4     651.6        0.2062        0.0102       37.8928       37.9030      37.696854       0.36278
   3     718.7        0.2063        0.0106       35.4719       35.4825      35.276160       0.30421
   2     792.3        0.2074        0.0111       33.4066       33.4177      33.210221       0.23694
   1     891.5        0.2118        0.0117       31.3475       31.3592      31.147317       0.17554
   0    1013.0        0.2285        0.0122       29.2817       29.2939      29.065393       0.14456



 Wavenumbers:  6150. -  7700. cm-1, ATM      1
 LEVEL PRESSURE   UPWARD FLUX   DIFDOWN FLUX  DIRDOWN FLUX  DOWNWARD FLUX   NET FLUX    HEATING RATE
          mb          W/m2          W/m2          W/m2        W/m2          W/m2       degree/day
  51    .06700        1.7191        0.0000      104.2111      104.2111     102.492005       0.00000
  50    .07753        1.7191        0.0000      104.2111      104.2111     102.491948       0.04554
  49    .09103        1.7191        0.0000      104.2110      104.2110     102.491875       0.04583
  48    0.1069        1.7191        0.0000      104.2109      104.2109     102.491788       0.04615
  47    0.1255        1.7191        0.0000      104.2108      104.2108     102.491686       0.04646
  46    0.1487        1.7191        0.0000      104.2107      104.2107     102.491553       0.04854
  45    0.1794        1.7191        0.0000      104.2105      104.2105     102.491366       0.05129
  44    0.2165        1.7191        0.0000      104.2102      104.2102     102.491139       0.05171
  43    0.2613        1.7191        0.0000      104.2099      104.2100     102.490862       0.05215
  42    0.3336        1.7191        0.0000      104.2095      104.2095     102.490392       0.05478
  41    0.4307        1.7191        0.0000      104.2088      104.2088     102.489756       0.05531
  40    0.5894        1.7191        0.0001      104.2077      104.2078     102.488694       0.05648
  39     1.339        1.7190        0.0001      104.2024      104.2026     102.483574       0.05764
  38     1.782        1.7189        0.0002      104.1993      104.1995     102.480576       0.05707
  37     2.292        1.7189        0.0002      104.1958      104.1961     102.477160       0.05659
  36     2.964        1.7188        0.0003      104.1913      104.1916     102.472773       0.05506
  35     3.853        1.7187        0.0004      104.1854      104.1859     102.467125       0.05360
  34     5.035        1.7186        0.0005      104.1778      104.1784     102.459754       0.05266
  33     6.613        1.7185        0.0007      104.1678      104.1685     102.450041       0.05193
  32     8.786        1.7182        0.0009      104.1545      104.1554     102.437185       0.04993
  31     11.80        1.7179        0.0013      104.1359      104.1372     102.419269       0.05016
  30     15.07        1.7176        0.0016      104.1166      104.1182     102.400648       0.04808
  29     18.79        1.7172        0.0020      104.0956      104.0976     102.380406       0.04590
  28     23.16        1.7168        0.0025      104.0720      104.0744     102.357660       0.04398
  27     28.12        1.7163        0.0030      104.0459      104.0489     102.332640       0.04253
  26     33.73        1.7157        0.0036      104.0181      104.0217     102.306029       0.04001
  25     40.54        1.7150        0.0043      103.9863      103.9906     102.275620       0.03773
  24     48.69        1.7142        0.0052      103.9504      103.9556     102.241403       0.03541
  23     57.69        1.7133        0.0062      103.9130      103.9192     102.205870       0.03331
  22     68.43        1.7122        0.0073      103.8705      103.8779     102.165639       0.03163
  21     81.20        1.7109        0.0087      103.8219      103.8305     102.119609       0.03042
  20     96.49        1.7094        0.0103      103.7651      103.7754     102.066031       0.02957
  19     114.6        1.7075        0.0122      103.6981      103.7103     102.002807       0.02952
  18     136.5        1.7054        0.0145      103.6182      103.6327     101.927313       0.02903
  17     162.9        1.7028        0.0172      103.5018      103.5190     101.816240       0.03550
  16     196.4        1.6994        0.0208      103.2601      103.2808     101.581406       0.05911
  15     218.7        1.6972        0.0230      102.9097      102.9327     101.235477       0.13134
  14     243.0        1.6949        0.0253      102.2732      102.2986     100.603655       0.21914
  13     269.0        1.6925        0.0277      101.2641      101.2918      99.599290       0.32581
  12     297.5        1.6901        0.0299       99.6695       99.6994      98.009374       0.47155
  11     328.5        1.6876        0.0321       97.6082       97.6404      95.952793       0.55918
  10     361.9        1.6852        0.0344       95.2483       95.2827      93.597497       0.59591
   9     398.1        1.6829        0.0366       92.6564       92.6929      91.010088       0.60281
   8     437.6        1.6808        0.0385       89.7047       89.7432      88.062385       0.63024
   7     480.5        1.6792        0.0403       86.3265       86.3668      84.687572       0.66280
   6     533.0        1.6784        0.0421       81.9787       82.0208      80.342483       0.69899
   5     589.8        1.6793        0.0436       77.1953       77.2388      75.559512       0.70995
   4     651.6        1.6844        0.0445       71.7796       71.8242      70.139787       0.74116
   3     718.7        1.6964        0.0451       66.2294       66.2745      64.578070       0.69895
   2     792.3        1.7225        0.0454       60.7106       60.7560      59.033506       0.63590
   1     891.5        1.7974        0.0455       54.2338       54.2793      52.481903       0.55751
   0    1013.0        2.0467        0.0458       47.9982       48.0440      45.997296       0.45026



 Wavenumbers:  7700. -  8050. cm-1, ATM      1
 LEVEL PRESSURE   UPWARD FLUX   DIFDOWN FLUX  DIRDOWN FLUX  DOWNWARD FLUX   NET FLUX    HEATING RATE
          mb          W/m2          W/m2          W/m2        W/m2          W/m2       degree/day
  51    .06700        3.7811        0.0000       24.6282       24.6282      20.847097       0.00000
  50    .07753        3.7811        0.0000       24.6282       24.6282      20.847076       0.01638
  49    .09103        3.7811        0.0000       24.6281       24.6281      20.847051       0.01606
  48    0.1069        3.7811        0.0000       24.6281       24.6281      20.847021       0.01572
  47    0.1255        3.7811        0.0000       24.6281       24.6281      20.846987       0.01538
  46    0.1487        3.7811        0.0000       24.6280       24.6281      20.846944       0.01561
  45    0.1794        3.7811        0.0000       24.6280       24.6280      20.846886       0.01606
  44    0.2165        3.7811        0.0000       24.6279       24.6279      20.846817       0.01576
  43    0.2613        3.7811        0.0000       24.6279       24.6279      20.846735       0.01546
  42    0.3336        3.7811        0.0000       24.6277       24.6277      20.846599       0.01582
  41    0.4307        3.7812        0.0000       24.6276       24.6276      20.846419       0.01565
  40    0.5894        3.7812        0.0000       24.6273       24.6273      20.846125       0.01563
  39     1.339        3.7814        0.0001       24.6260       24.6261      20.844734       0.01566
  38     1.782        3.7815        0.0001       24.6253       24.6254      20.843917       0.01556
  37     2.292        3.7816        0.0001       24.6244       24.6245      20.842971       0.01567
  36     2.964        3.7817        0.0001       24.6233       24.6234      20.841729       0.01560
  35     3.853        3.7819        0.0002       24.6218       24.6220      20.840087       0.01558
  34     5.035        3.7822        0.0002       24.6198       24.6201      20.837905       0.01558
  33     6.613        3.7825        0.0003       24.6172       24.6175      20.834990       0.01558
  32     8.786        3.7830        0.0004       24.6136       24.6140      20.831060       0.01526
  31     11.80        3.7836        0.0006       24.6085       24.6091      20.825437       0.01574
  30     15.07        3.7843        0.0008       24.6030       24.6037      20.819397       0.01559
  29     18.79        3.7851        0.0009       24.5968       24.5977      20.812573       0.01547
  28     23.16        3.7861        0.0012       24.5895       24.5907      20.804602       0.01541
  27     28.12        3.7872        0.0014       24.5812       24.5826      20.795486       0.01550
  26     33.73        3.7884        0.0017       24.5720       24.5737      20.785285       0.01534
  25     40.54        3.7898        0.0020       24.5608       24.5628      20.772963       0.01529
  24     48.69        3.7916        0.0024       24.5473       24.5497      20.758115       0.01537
  23     57.69        3.7936        0.0029       24.5326       24.5354      20.741815       0.01528
  22     68.43        3.7960        0.0034       24.5150       24.5184      20.722418       0.01525
  21     81.20        3.7988        0.0040       24.4941       24.4982      20.699334       0.01525
  20     96.49        3.8023        0.0048       24.4694       24.4741      20.671869       0.01516
  19     114.6        3.8064        0.0057       24.4400       24.4457      20.639318       0.01520
  18     136.5        3.8113        0.0067       24.4054       24.4121      20.600823       0.01480
  17     162.9        3.8173        0.0080       24.3644       24.3724      20.555100       0.01462
  16     196.4        3.8252        0.0096       24.3116       24.3212      20.495986       0.01488
  15     218.7        3.8305        0.0107       24.2771       24.2878      20.457247       0.01471
  14     243.0        3.8364        0.0118       24.2397       24.2515      20.415166       0.01459
  13     269.0        3.8428        0.0131       24.1993       24.2124      20.369529       0.01480
  12     297.5        3.8500        0.0145       24.1556       24.1701      20.320063       0.01467
  11     328.5        3.8580        0.0159       24.1084       24.1244      20.266400       0.01459
  10     361.9        3.8668        0.0175       24.0575       24.0751      20.208265       0.01471
   9     398.1        3.8767        0.0192       24.0026       24.0218      20.145106       0.01471
   8     437.6        3.8878        0.0210       23.9430       23.9640      20.076270       0.01472
   7     480.5        3.9002        0.0230       23.8783       23.9013      20.001089       0.01477
   6     533.0        3.9166        0.0254       23.7972       23.8226      19.906027       0.01529
   5     589.8        3.9358        0.0280       23.7068       23.7348      19.799067       0.01588
   4     651.6        3.9589        0.0308       23.6034       23.6342      19.675305       0.01692
   3     718.7        3.9875        0.0338       23.4831       23.5168      19.529334       0.01834
   2     792.3        4.0242        0.0369       23.3388       23.3757      19.351479       0.02040
   1     891.5        4.0873        0.0410       23.1128       23.1538      19.066450       0.02425
   0    1013.0        4.1905        0.0458       22.7908       22.8365      18.646040       0.02919



 Wavenumbers:  8050. - 12850. cm-1, ATM      1
 LEVEL PRESSURE   UPWARD FLUX   DIFDOWN FLUX  DIRDOWN FLUX  DOWNWARD FLUX   NET FLUX    HEATING RATE
          mb          W/m2          W/m2          W/m2        W/m2          W/m2       degree/day
  51    .06700      145.6515        0.0000      344.8128      344.8128     199.161290       0.00000
  50    .07753      145.6515        0.0000      344.8128      344.8128     199.161290       0.00000
  49    .09103      145.6515        0.0001      344.8127      344.8128     199.161290       0.00000
  48    0.1069      145.6515        0.0001      344.8127      344.8128     199.161290      -0.00000
  47    0.1255      145.6515        0.0002      344.8126      344.8128     199.161290      -0.00000
  46    0.1487      145.6515        0.0003      344.8125      344.8128     199.161290       0.00000
  45    0.1794      145.6515        0.0004      344.8124      344.8128     199.161290      -0.00000
  44    0.2165      145.6514        0.0005      344.8122      344.8127     199.161290       0.00000
  43    0.2613      145.6514        0.0006      344.8121      344.8127     199.161290       0.00000
  42    0.3336      145.6514        0.0009      344.8118      344.8127     199.161290      -0.00000
  41    0.4307      145.6513        0.0012      344.8114      344.8126     199.161290      -0.00000
  40    0.5894      145.6512        0.0017      344.8108      344.8125     199.161290       0.00000
  39     1.339      145.6507        0.0042      344.8078      344.8120     199.161290      -0.00000
  38     1.782      145.6505        0.0057      344.8061      344.8117     199.161290       0.00000
  37     2.292      145.6501        0.0074      344.8041      344.8114     199.161290       0.00000
  36     2.964      145.6497        0.0096      344.8014      344.8110     199.161290       0.00000
  35     3.853      145.6492        0.0125      344.7979      344.8104     199.161290       0.00000
  34     5.035      145.6484        0.0164      344.7933      344.8097     199.161290      -0.00000
  33     6.613      145.6474        0.0216      344.7871      344.8087     199.161290       0.00000
  32     8.786      145.6461        0.0286      344.7787      344.8074     199.161290      -0.00000
  31     11.80      145.6442        0.0387      344.7667      344.8054     199.161290      -0.00000
  30     15.07      145.6421        0.0495      344.7539      344.8034     199.161290       0.00000
  29     18.79      145.6398        0.0617      344.7393      344.8010     199.161290       0.00000
  28     23.16      145.6370        0.0760      344.7223      344.7983     199.161290      -0.00000
  27     28.12      145.6339        0.0924      344.7028      344.7952     199.161290       0.00000
  26     33.73      145.6304        0.1108      344.6809      344.7917     199.161290       0.00000
  25     40.54      145.6261        0.1330      344.6545      344.7874     199.161290      -0.00000
  24     48.69      145.6210        0.1598      344.6225      344.7823     199.161290       0.00000
  23     57.69      145.6154        0.1892      344.5874      344.7767     199.161290      -0.00000
  22     68.43      145.6086        0.2244      344.5455      344.7699     199.161290       0.00000
  21     81.20      145.6006        0.2664      344.4955      344.7619     199.161290      -0.00000
  20     96.49      145.5910        0.3165      344.4358      344.7523     199.161290       0.00000
  19     114.6      145.5799        0.3762      344.3587      344.7348     199.154947       0.00296
  18     136.5      145.5666        0.4470      344.2667      344.7137     199.147067       0.00303
  17     162.9      145.5509        0.5316      344.1533      344.6849     199.133977       0.00418
  16     196.4      145.5306        0.6417      343.9892      344.6309     199.100316       0.00847
  15     218.7      145.5176        0.7141      343.8402      344.5543     199.036728       0.02414
  14     243.0      145.5044        0.7928      343.5933      344.3861     198.881787       0.05374
  13     269.0      145.4923        0.8781      343.1662      344.0443     198.551976       0.10699
  12     297.5      145.4837        0.9701      342.4819      343.4520     197.968211       0.17314
  11     328.5      145.4802        1.0693      341.5922      342.6615     197.181311       0.21396
  10     361.9      145.4849        1.1761      340.5080      341.6841     196.199197       0.24848
   9     398.1      145.5029        1.2906      339.1885      340.4791     194.976214       0.28493
   8     437.6      145.5431        1.4127      337.5272      338.9399     193.396796       0.33769
   7     480.5      145.6162        1.5425      335.4327      336.9752     191.358959       0.40022
   6     533.0      145.7628        1.7002      332.3652      334.0653     188.302578       0.49167
   5     589.8      146.0248        1.8667      328.3420      330.2087     184.183917       0.61134
   4     651.6      146.5258        2.0389      322.7671      324.8061     178.280266       0.80734
   3     718.7      147.4313        2.2158      315.5619      317.7776     170.346373       0.99707
   2     792.3      149.1159        2.3935      306.5104      308.9039     159.787927       1.21094
   1     891.5      153.4353        2.6129      292.9732      295.5861     142.150842       1.50083
   0    1013.0      165.2909        2.8530      276.3074      279.1604     113.869525       1.96372



 Wavenumbers: 12850. - 16000. cm-1, ATM      1
 LEVEL PRESSURE   UPWARD FLUX   DIFDOWN FLUX  DIRDOWN FLUX  DOWNWARD FLUX   NET FLUX    HEATING RATE
          mb          W/m2          W/m2          W/m2        W/m2          W/m2       degree/day
  51    .06700      163.4269        0.0000      216.0557      216.0557      52.628772       0.00000
  50    .07753      163.4270        0.0001      216.0548      216.0549      52.627958       0.65227
  49    .09103      163.4270        0.0002      216.0538      216.0540      52.626927       0.64480
  48    0.1069      163.4271        0.0004      216.0525      216.0529      52.625728       0.63790
  47    0.1255      163.4272        0.0005      216.0510      216.0516      52.624334       0.63191
  46    0.1487      163.4274        0.0007      216.0492      216.0499      52.622550       0.65041
  45    0.1794      163.4276        0.0010      216.0467      216.0477      52.620082       0.67746
  44    0.2165      163.4280        0.0013      216.0438      216.0451      52.617122       0.67333
  43    0.2613      163.4284        0.0017      216.0403      216.0420      52.613565       0.67053
  42    0.3336      163.4292        0.0024      216.0345      216.0368      52.607596       0.69596
  41    0.4307      163.4305        0.0032      216.0269      216.0301      52.599608       0.69456
  40    0.5894      163.4329        0.0046      216.0146      216.0193      52.586385       0.70318
  39     1.339      163.4503        0.0112      215.9584      215.9696      52.519301       0.75524
  38     1.782      163.4650        0.0151      215.9258      215.9409      52.475927       0.82578
  37     2.292      163.4863        0.0196      215.8879      215.9075      52.421233       0.90587
  36     2.964      163.5207        0.0255      215.8370      215.8625      52.341829       0.99676
  35     3.853      163.5752        0.0333      215.7678      215.8011      52.225897       1.10022
  34     5.035      163.6566        0.0436      215.6752      215.7188      52.062217       1.16926
  33     6.613      163.7699        0.0574      215.5548      215.6122      51.842259       1.17590
  32     8.786      163.9178        0.0760      215.4027      215.4787      51.560859       1.09286
  31     11.80      164.1116        0.1026      215.2043      215.3069      51.195298       1.02345
  30     15.07      164.2990        0.1312      215.0098      215.1411      50.842047       0.91203
  29     18.79      164.4921        0.1636      214.8056      214.9691      50.477050       0.82756
  28     23.16      164.6962        0.2013      214.5841      214.7854      50.089271       0.74984
  27     28.12      164.9045        0.2446      214.3504      214.5949      49.690467       0.67794
  26     33.73      165.1017        0.2930      214.1164      214.4094      49.307711       0.57548
  25     40.54      165.2984        0.3516      213.8655      214.2171      48.918683       0.48263
  24     48.69      165.4952        0.4223      213.5943      214.0166      48.521430       0.41109
  23     57.69      165.6722        0.5002      213.3269      213.8271      48.154856       0.34361
  22     68.43      165.8407        0.5931      213.0419      213.6350      47.794295       0.28345
  21     81.20      165.9833        0.7041      212.7488      213.4529      47.469555       0.21458
  20     96.49      166.0996        0.8367      212.4447      213.2814      47.181816       0.15881
  19     114.6      166.2362        0.9964      212.1101      213.1065      46.870329       0.14544
  18     136.5      166.3746        1.1861      211.7382      212.9243      46.549691       0.12329
  17     162.9      166.5179        1.4123      211.3198      212.7321      46.214224       0.10723
  16     196.4      166.6579        1.7065      210.8156      212.5221      45.864182       0.08811
  15     218.7      166.7335        1.9001      210.4965      212.3965      45.663042       0.07637
  14     243.0      166.8090        2.1109      210.1519      212.2628      45.453810       0.07257
  13     269.0      166.8847        2.3397      209.7781      212.1178      45.233067       0.07161
  12     297.5      166.9624        2.5875      209.3683      211.9558      44.993435       0.07107
  11     328.5      167.0472        2.8558      208.9170      211.7728      44.725648       0.07281
  10     361.9      167.1415        3.1453      208.4189      211.5643      44.422780       0.07663
   9     398.1      167.2495        3.4577      207.8679      211.3256      44.076121       0.08076
   8     437.6      167.3784        3.7939      207.2544      211.0483      43.669915       0.08685
   7     480.5      167.5355        4.1552      206.5713      210.7265      43.191025       0.09405
   6     533.0      167.7655        4.6010      205.6883      210.2893      42.523852       0.10733
   5     589.8      168.0815        5.0825      204.6670      209.7495      41.667960       0.12704
   4     651.6      168.5600        5.6000      203.4324      209.0324      40.472437       0.16349
   3     718.7      169.2566        6.1520      201.9561      208.1081      38.851521       0.20370
   2     792.3      170.3409        6.7345      200.1346      206.8691      36.528192       0.26646
   1     891.5      172.6367        7.5014      197.2502      204.7517      32.114907       0.37555
   0    1013.0      177.2525        8.3948      193.2807      201.6754      24.422894       0.53410



 Wavenumbers: 16000. - 22650. cm-1, ATM      1
 LEVEL PRESSURE   UPWARD FLUX   DIFDOWN FLUX  DIRDOWN FLUX  DOWNWARD FLUX   NET FLUX    HEATING RATE
          mb          W/m2          W/m2          W/m2        W/m2          W/m2       degree/day
  51    .06700      297.1410        0.0000      344.4769      344.4769      47.335911       0.00000
  50    .07753      297.1412        0.0006      344.4763      344.4769      47.335690       0.17694
  49    .09103      297.1415        0.0013      344.4756      344.4769      47.335369       0.20069
  48    0.1069      297.1419        0.0021      344.4748      344.4768      47.334939       0.22885
  47    0.1255      297.1424        0.0030      344.4737      344.4767      47.334364       0.26086
  46    0.1487      297.1431        0.0042      344.4724      344.4766      47.333516       0.30912
  45    0.1794      297.1441        0.0058      344.4705      344.4763      47.332190       0.36397
  44    0.2165      297.1455        0.0077      344.4682      344.4759      47.330392       0.40906
  43    0.2613      297.1473        0.0100      344.4653      344.4753      47.327952       0.45988
  42    0.3336      297.1507        0.0137      344.4603      344.4740      47.323313       0.54083
  41    0.4307      297.1558        0.0187      344.4534      344.4721      47.316321       0.60796
  40    0.5894      297.1652        0.0268      344.4414      344.4682      47.302985       0.70918
  39     1.339      297.2319        0.0652      344.3711      344.4363      47.204442       1.10942
  38     1.782      297.2873        0.0878      344.3200      344.4078      47.120474       1.59862
  37     2.292      297.3667        0.1139      344.2517      344.3656      46.998897       2.01363
  36     2.964      297.4943        0.1482      344.1480      344.2961      46.801864       2.47336
  35     3.853      297.6957        0.1934      343.9913      344.1847      46.489030       2.96885
  34     5.035      297.9957        0.2535      343.7640      344.0175      46.021883       3.33711
  33     6.613      298.4131        0.3338      343.4511      343.7849      45.371846       3.47510
  32     8.786      298.9585        0.4420      343.0410      343.4830      44.524544       3.29061
  31     11.80      299.6749        0.5968      342.4947      343.0914      43.416536       3.10207
  30     15.07      300.3697        0.7629      341.9547      342.7177      42.347965       2.75884
  29     18.79      301.0876        0.9507      341.3868      342.3376      41.249990       2.48945
  28     23.16      301.8487        1.1702      340.7717      341.9419      40.093209       2.23684
  27     28.12      302.6286        1.4212      340.1241      341.5453      38.916741       1.99992
  26     33.73      303.3714        1.7025      339.4775      341.1800      37.808574       1.66616
  25     40.54      304.1185        2.0428      338.7859      340.8287      36.710217       1.36264
  24     48.69      304.8728        2.4536      338.0389      340.4924      35.619645       1.12857
  23     57.69      305.5597        2.9054      337.3015      340.2069      34.647194       0.91153
  22     68.43      306.2250        3.4444      336.5123      339.9567      33.731705       0.71970
  21     81.20      306.8079        4.0880      335.6921      339.7801      32.972222       0.50186
  20     96.49      307.3075        4.8564      334.8256      339.6820      32.374559       0.32987
  19     114.6      307.7988        5.7693      333.8560      339.6253      31.826548       0.25588
  18     136.5      308.3123        6.8514      332.7466      339.5980      31.285793       0.20793
  17     162.9      308.8602        8.1400      331.4625      339.6024      30.742237       0.17374
  16     196.4      309.4346        9.8117      329.8743      339.6860      30.251386       0.12355
  15     218.7      309.7611       10.9097      328.8601      339.7698      30.008711       0.09213
  14     243.0      310.0918       12.1030      327.7715      339.8745      29.782695       0.07839
  13     269.0      310.4250       13.3961      326.6061      340.0022      29.577266       0.06664
  12     297.5      310.7606       14.7934      325.3603      340.1538      29.393148       0.05461
  11     328.5      311.1108       16.3031      324.0212      340.3242      29.213442       0.04886
  10     361.9      311.4757       17.9282      322.5859      340.5141      29.038380       0.04429
   9     398.1      311.8575       19.6771      321.0470      340.7241      28.866549       0.04003
   8     437.6      312.2600       21.5551      319.3978      340.9529      28.692885       0.03713
   7     480.5      312.6843       23.5681      317.6330      341.2011      28.516866       0.03457
   6     533.0      313.2017       26.0466      315.4613      341.5079      28.306195       0.03389
   5     589.8      313.7627       28.7193      313.1151      341.8344      28.071711       0.03481
   4     651.6      314.3847       31.5947      310.5763      342.1710      27.786229       0.03904
   3     718.7      315.0853       34.6821      307.8270      342.5091      27.423783       0.04555
   2     792.3      315.9051       37.9857      304.8404      342.8261      26.921001       0.05766
   1     891.5      317.1877       42.4378      300.7148      343.1526      25.964825       0.08137
   0    1013.0      319.0219       47.7724      295.6311      343.4036      24.381652       0.10993



 Wavenumbers: 22650. - 29000. cm-1, ATM      1
 LEVEL PRESSURE   UPWARD FLUX   DIFDOWN FLUX  DIRDOWN FLUX  DOWNWARD FLUX   NET FLUX    HEATING RATE
          mb          W/m2          W/m2          W/m2        W/m2          W/m2       degree/day
  51    .06700      120.9909        0.0000      129.9930      129.9930       9.002119       0.00000
  50    .07753      120.9910        0.0007      129.9925      129.9932       9.002119       0.00000
  49    .09103      120.9912        0.0015      129.9918      129.9933       9.002119       0.00000
  48    0.1069      120.9913        0.0024      129.9910      129.9935       9.002119      -0.00000
  47    0.1255      120.9915        0.0035      129.9901      129.9936       9.002119       0.00000
  46    0.1487      120.9917        0.0049      129.9889      129.9939       9.002119       0.00000
  45    0.1794      120.9921        0.0068      129.9874      129.9942       9.002119      -0.00000
  44    0.2165      120.9924        0.0091      129.9855      129.9945       9.002119       0.00000
  43    0.2613      120.9929        0.0117      129.9833      129.9950       9.002119      -0.00000
  42    0.3336      120.9936        0.0161      129.9796      129.9957       9.002119       0.00000
  41    0.4307      120.9946        0.0219      129.9747      129.9967       9.002119       0.00000
  40    0.5894      120.9961        0.0315      129.9668      129.9982       9.002119      -0.00000
  39     1.339      121.0036        0.0765      129.9292      130.0057       9.002119       0.00000
  38     1.782      121.0079        0.1029      129.9071      130.0101       9.002119       0.00000
  37     2.292      121.0130        0.1336      129.8815      130.0151       9.002119       0.00000
  36     2.964      121.0196        0.1738      129.8480      130.0218       9.002119       0.00000
  35     3.853      121.0284        0.2269      129.8036      130.0305       9.002119       0.00000
  34     5.035      121.0401        0.2975      129.7447      130.0422       9.002119       0.00000
  33     6.613      121.0556        0.3918      129.6660      130.0577       9.002119      -0.00000
  32     8.786      121.0766        0.5188      129.5599      130.0787       9.002119       0.00000
  31     11.80      121.1066        0.7005      129.4082      130.1087       9.002119      -0.00000
  30     15.07      121.1388        0.8956      129.2453      130.1409       9.002119       0.00000
  29     18.79      121.1751        1.1159      129.0613      130.1772       9.002119      -0.00000
  28     23.16      121.2175        1.3731      128.8465      130.2196       9.002119       0.00000
  27     28.12      121.2660        1.6670      128.6010      130.2681       9.002119       0.00000
  26     33.73      121.3201        1.9956      128.3266      130.3222       9.002119      -0.00000
  25     40.54      121.3854        2.3922      127.9953      130.3875       9.002119      -0.00000
  24     48.69      121.4639        2.8695      127.5965      130.4660       9.002119       0.00000
  23     57.69      121.5499        3.3928      127.1593      130.5520       9.002119      -0.00000
  22     68.43      121.6520        4.0145      126.6397      130.6541       9.002119      -0.00000
  21     81.20      121.7731        4.7528      126.0224      130.7752       9.002119       0.00000
  20     96.49      121.9167        5.6293      125.2896      130.9188       9.002119       0.00000
  19     114.6      122.0861        6.6648      124.4234      131.0882       9.002119      -0.00000
  18     136.5      122.2853        7.8850      123.4024      131.2874       9.002119       0.00000
  17     162.9      122.5202        9.3276      122.1947      131.5223       9.002119       0.00000
  16     196.4      122.8213       11.1815      120.6419      131.8234       9.002119      -0.00000
  15     218.7      123.0167       12.3886      119.6303      132.0188       9.002119      -0.00000
  14     243.0      123.2272       13.6914      118.5379      132.2293       9.002119       0.00000
  13     269.0      123.4530       15.0927      117.3624      132.4551       9.002119       0.00000
  12     297.5      123.6942       16.5946      116.1018      132.6964       9.002119      -0.00000
  11     328.5      123.9519       18.2035      114.7505      132.9540       9.002119       0.00000
  10     361.9      124.2258       19.9196      113.3083      133.2279       9.002119      -0.00000
   9     398.1      124.5165       21.7481      111.7705      133.5186       9.002119       0.00000
   8     437.6      124.8240       23.6908      110.1353      133.8261       9.002119      -0.00000
   7     480.5      125.1484       25.7495      108.4010      134.1505       9.002119       0.00000
   6     533.0      125.5404       28.2508      106.2917      134.5425       9.002119       0.00000
   5     589.8      125.9540       30.9078      104.0483      134.9561       9.002119       0.00000
   4     651.6      126.3886       33.7208      101.6700      135.3907       9.002119       0.00000
   3     718.7      126.8436       36.6900       99.1558      135.8457       9.002119      -0.00000
   2     792.3      127.3175       39.8113       96.5083      136.3196       9.002119       0.00000
   1     891.5      127.9355       43.9312       93.0064      136.9376       9.002119       0.00000
   0    1013.0      128.6450       48.7389       88.9082      137.6471       9.002119       0.00000



 Wavenumbers: 29000. - 38000. cm-1, ATM      1
 LEVEL PRESSURE   UPWARD FLUX   DIFDOWN FLUX  DIRDOWN FLUX  DOWNWARD FLUX   NET FLUX    HEATING RATE
          mb          W/m2          W/m2          W/m2        W/m2          W/m2       degree/day
  51    .06700       19.2216        0.0000       45.8410       45.8410      26.619360       0.00000
  50    .07753       19.2215        0.0004       45.8366       45.8370      26.615529       3.07105
  49    .09103       19.2214        0.0009       45.8305       45.8313      26.609951       3.48613
  48    0.1069       19.2213        0.0014       45.8223       45.8238      26.602478       3.97804
  47    0.1255       19.2212        0.0021       45.8116       45.8136      26.592472       4.53619
  46    0.1487       19.2211        0.0029       45.7959       45.7988      26.577726       5.37493
  45    0.1794       19.2210        0.0040       45.7716       45.7756      26.554698       6.32171
  44    0.2165       19.2209        0.0053       45.7391       45.7444      26.523534       7.08929
  43    0.2613       19.2208        0.0069       45.6954       45.7022      26.481402       7.94181
  42    0.3336       19.2209        0.0094       45.6134       45.6228      26.401853       9.27458
  41    0.4307       19.2213        0.0127       45.4920       45.5047      26.283457      10.29429
  40    0.5894       19.2222        0.0181       45.2670       45.2851      26.062866      11.73074
  39     1.339       19.2349        0.0419       43.8242       43.8660      24.631170      16.11830
  38     1.782       19.2476        0.0546       42.8351       42.8896      23.642008      18.83205
  37     2.292       19.2670        0.0685       41.6852       41.7537      22.486655      19.13565
  36     2.964       19.2995        0.0858       40.2943       40.3801      21.080620      17.65000
  35     3.853       19.3521        0.1078       38.7687       38.8765      19.524382      14.76898
  34     5.035       19.4318        0.1362       37.2304       37.3666      17.934822      11.35515
  33     6.613       19.5440        0.1732       35.7405       35.9138      16.369724       8.36702
  32     8.786       19.6926        0.2222       34.3295       34.5517      14.859130       5.86660
  31     11.80       19.8915        0.2913       32.9481       33.2394      13.347872       4.23105
  30     15.07       20.0899        0.3646       31.8942       32.2588      12.168946       3.04376
  29     18.79       20.3013        0.4462       30.9854       31.4317      11.130428       2.35464
  28     23.16       20.5340        0.5408       30.1559       30.6966      10.162605       1.87146
  27     28.12       20.7829        0.6480       29.4043       30.0523       9.269425       1.51834
  26     33.73       21.0301        0.7683       28.7514       29.5197       8.489661       1.17240
  25     40.54       21.2887        0.9139       28.1328       29.0467       7.758020       0.90768
  24     48.69       21.5613        1.0896       27.5340       28.6236       7.062323       0.71994
  23     57.69       21.8198        1.2828       26.9971       28.2798       6.460064       0.56453
  22     68.43       22.0790        1.5134       26.4694       27.9828       5.903768       0.43732
  21     81.20       22.3105        1.7909       25.9669       27.7578       5.447273       0.30165
  20     96.49       22.5089        2.1238       25.4748       27.5986       5.089729       0.19734
  19     114.6       22.7047        2.5164       24.9506       27.4670       4.762385       0.15285
  18     136.5       22.9114        2.9751       24.3745       27.3496       4.438218       0.12465
  17     162.9       23.1351        3.5129       23.7328       27.2458       4.110700       0.10469
  16     196.4       23.3659        4.2030       22.9761       27.1790       3.813172       0.07489
  15     218.7       23.4944        4.6483       22.5089       27.1572       3.662815       0.05708
  14     243.0       23.6232        5.1250       22.0192       27.1442       3.520959       0.04920
  13     269.0       23.7505        5.6336       21.5077       27.1413       3.390783       0.04223
  12     297.5       23.8752        6.1738       20.9749       27.1488       3.273534       0.03477
  11     328.5       24.0029        6.7453       20.4165       27.1618       3.158809       0.03119
  10     361.9       24.1331        7.3466       19.8338       27.1804       3.047280       0.02822
   9     398.1       24.2655        7.9780       19.2267       27.2047       2.939210       0.02518
   8     437.6       24.4008        8.6380       18.5955       27.2335       2.832694       0.02277
   7     480.5       24.5381        9.3255       17.9419       27.2674       2.729328       0.02030
   6     533.0       24.6977       10.1447       17.1671       27.3118       2.614056       0.01854
   5     589.8       24.8606       10.9937       16.3664       27.3601       2.499472       0.01701
   4     651.6       25.0271       11.8697       15.5420       27.4117       2.384617       0.01571
   3     718.7       25.1966       12.7687       14.6973       27.4659       2.269337       0.01449
   2     792.3       25.3681       13.6843       13.8375       27.5217       2.153600       0.01327
   1     891.5       25.5862       14.8494       12.7437       27.5931       2.006954       0.01248
   0    1013.0       25.8303       16.1419       11.5285       27.6704       1.840080       0.01159



 Wavenumbers: 38000. - 50000. cm-1, ATM      1
 LEVEL PRESSURE   UPWARD FLUX   DIFDOWN FLUX  DIRDOWN FLUX  DOWNWARD FLUX   NET FLUX    HEATING RATE
          mb          W/m2          W/m2          W/m2        W/m2          W/m2       degree/day
  51    .06700        0.0077        0.0000        2.8274        2.8274       2.819732       0.00000
  50    .07753        0.0076        0.0001        2.8250        2.8250       2.817394       1.87426
  49    .09103        0.0076        0.0002        2.8215        2.8216       2.814052       2.08853
  48    0.1069        0.0075        0.0003        2.8169        2.8172       2.809652       2.34203
  47    0.1255        0.0074        0.0004        2.8109        2.8113       2.803854       2.62885
  46    0.1487        0.0073        0.0005        2.8022        2.8027       2.795433       3.06948
  45    0.1794        0.0072        0.0007        2.7889        2.7896       2.782446       3.56531
  44    0.2165        0.0070        0.0009        2.7712        2.7721       2.765088       3.94851
  43    0.2613        0.0068        0.0012        2.7476        2.7487       2.741916       4.36792
  42    0.3336        0.0065        0.0015        2.7038        2.7053       2.698800       5.02689
  41    0.4307        0.0062        0.0020        2.6399        2.6419       2.635738       5.48307
  40    0.5894        0.0056        0.0027        2.5241        2.5268       2.521231       6.08937
  39     1.339        0.0038        0.0042        1.8543        1.8585       1.854685       7.50409
  38     1.782        0.0031        0.0041        1.4655        1.4696       1.466513       7.39018
  37     2.292        0.0024        0.0036        1.0872        1.0908       1.088339       6.26353
  36     2.964        0.0019        0.0030        0.7358        0.7388       0.736859       4.41214
  35     3.853        0.0015        0.0024        0.4711        0.4735       0.472010       2.51347
  34     5.035        0.0012        0.0019        0.2988        0.3008       0.299620       1.23148
  33     6.613        0.0009        0.0016        0.1889        0.1905       0.189608       0.58813
  32     8.786        0.0007        0.0013        0.1196        0.1208       0.120133       0.26981
  31     11.80        0.0005        0.0010        0.0741        0.0751       0.074563       0.12758
  30     15.07        0.0004        0.0008        0.0493        0.0501       0.049700       0.06419
  29     18.79        0.0003        0.0006        0.0330        0.0336       0.033348       0.03707
  28     23.16        0.0002        0.0004        0.0217        0.0221       0.021940       0.02206
  27     28.12        0.0001        0.0003        0.0140        0.0144       0.014212       0.01314
  26     33.73        0.0001        0.0002        0.0091        0.0093       0.009223       0.00750
  25     40.54        0.0001        0.0002        0.0057        0.0059       0.005793       0.00426
  24     48.69        0.0000        0.0001        0.0034        0.0035       0.003483       0.00239
  23     57.69        0.0000        0.0001        0.0020        0.0021       0.002088       0.00131
  22     68.43        0.0000        0.0000        0.0012        0.0012       0.001190       0.00071
  21     81.20        0.0000        0.0000        0.0006        0.0007       0.000647       0.00036
  20     96.49        0.0000        0.0000        0.0003        0.0003       0.000330       0.00018
  19     114.6        0.0000        0.0000        0.0001        0.0002       0.000151       0.00008
  18     136.5        0.0000        0.0000        0.0001        0.0001       0.000060       0.00003
  17     162.9        0.0000        0.0000        0.0000        0.0000       0.000020       0.00001
  16     196.4        0.0000        0.0000        0.0000        0.0000       0.000005       0.00000
  15     218.7        0.0000        0.0000        0.0000        0.0000       0.000002       0.00000
  14     243.0        0.0000        0.0000        0.0000        0.0000       0.000001       0.00000
  13     269.0        0.0000        0.0000        0.0000        0.0000       0.000000       0.00000
  12     297.5        0.0000        0.0000        0.0000        0.0000       0.000000       0.00000
  11     328.5        0.0000        0.0000        0.0000        0.0000       0.000000       0.00000
  10     361.9        0.0000        0.0000        0.0000        0.0000       0.000000       0.00000
   9     398.1        0.0000        0.0000        0.0000        0.0000       0.000000       0.00000
   8     437.6        0.0000        0.0000        0.0000        0.0000       0.000000       0.00000
   7     480.5        0.0000        0.0000        0.0000        0.0000       0.000000       0.00000
   6     533.0        0.0000        0.0000        0.0000        0.0000       0.000000       0.00000
   5     589.8        0.0000        0.0000        0.0000        0.0000       0.000000       0.00000
   4     651.6        0.0000        0.0000        0.0000        0.0000       0.000000       0.00000
   3     718.7        0.0000        0.0000        0.0000        0.0000       0.000000       0.00000
   2     792.3        0.0000        0.0000        0.0000        0.0000       0.000000       0.00000
   1     891.5        0.0000        0.0000        0.0000        0.0000       0.000000       0.00000
   0    1013.0        0.0000        0.0000        0.0000        0.0000       0.000000       0.00000



 Wavenumbers:   820. -  2600. cm-1, ATM      1
 LEVEL PRESSURE   UPWARD FLUX   DIFDOWN FLUX  DIRDOWN FLUX  DOWNWARD FLUX   NET FLUX    HEATING RATE
          mb          W/m2          W/m2          W/m2        W/m2          W/m2       degree/day
  51    .06700        0.0211        0.0000       13.2264       13.2264      13.205327       0.00000
  50    .07753        0.0211        0.0000       13.2194       13.2194      13.198305       5.62794
  49    .09103        0.0211        0.0000       13.2178       13.2178      13.196731       0.98409
  48    0.1069        0.0211        0.0000       13.2167       13.2167      13.195604       0.59956
  47    0.1255        0.0211        0.0000       13.2154       13.2154      13.194314       0.58514
  46    0.1487        0.0211        0.0000       13.2137       13.2137      13.192656       0.60400
  45    0.1794        0.0211        0.0000       13.2114       13.2114      13.190398       0.62011
  44    0.2165        0.0211        0.0000       13.2088       13.2088      13.187780       0.59555
  43    0.2613        0.0211        0.0000       13.2059       13.2059      13.184799       0.56187
  42    0.3336        0.0211        0.0000       13.2013       13.2013      13.180235       0.53209
  41    0.4307        0.0211        0.0000       13.1959       13.1959      13.174865       0.46695
  40    0.5894        0.0211        0.0000       13.1882       13.1882      13.167173       0.40901
  39     1.339        0.0211        0.0000       13.1557       13.1557      13.134638       0.36629
  38     1.782        0.0211        0.0000       13.1371       13.1371      13.116051       0.35386
  37     2.292        0.0211        0.0000       13.1162       13.1162      13.095106       0.34692
  36     2.964        0.0211        0.0000       13.0894       13.0894      13.068352       0.33584
  35     3.853        0.0211        0.0000       13.0549       13.0549      13.033851       0.32742
  34     5.035        0.0211        0.0000       13.0106       13.0106      12.989547       0.31649
  33     6.613        0.0211        0.0000       12.9545       12.9545      12.933431       0.30000
  32     8.786        0.0211        0.0000       12.8834       12.8834      12.862305       0.27623
  31     11.80        0.0211        0.0000       12.7885       12.7885      12.767405       0.26569
  30     15.07        0.0211        0.0000       12.6943       12.6944      12.673300       0.24296
  29     18.79        0.0211        0.0000       12.5999       12.5999      12.578844       0.21416
  28     23.16        0.0211        0.0000       12.5086       12.5086      12.487576       0.17648
  27     28.12        0.0211        0.0000       12.4288       12.4289      12.407802       0.13561
  26     33.73        0.0211        0.0000       12.3650       12.3650      12.343962       0.09598
  25     40.54        0.0211        0.0000       12.3120       12.3120      12.290946       0.06577
  24     48.69        0.0211        0.0000       12.2668       12.2668      12.245798       0.04672
  23     57.69        0.0211        0.0000       12.2260       12.2260      12.204952       0.03829
  22     68.43        0.0210        0.0000       12.1803       12.1803      12.159215       0.03596
  21     81.20        0.0210        0.0000       12.1270       12.1270      12.105975       0.03518
  20     96.49        0.0210        0.0000       12.0640       12.0640      12.042924       0.03480
  19     114.6        0.0210        0.0000       11.9885       11.9885      11.967500       0.03522
  18     136.5        0.0210        0.0000       11.8987       11.8988      11.877711       0.03453
  17     162.9        0.0210        0.0000       11.7817       11.7817      11.760701       0.03740
  16     196.4        0.0211        0.0000       11.5930       11.5930      11.571948       0.04751
  15     218.7        0.0211        0.0000       11.4055       11.4056      11.384505       0.07117
  14     243.0        0.0211        0.0000       11.1045       11.1045      11.083453       0.10441
  13     269.0        0.0211        0.0000       10.6901       10.6901      10.669037       0.13443
  12     297.5        0.0211        0.0000       10.2200       10.2201      10.198967       0.13942
  11     328.5        0.0211        0.0000        9.8187        9.8187       9.797614       0.10913
  10     361.9        0.0211        0.0000        9.4313        9.4313       9.410190       0.09802
   9     398.1        0.0212        0.0000        8.9858        8.9858       8.964595       0.10381
   8     437.6        0.0212        0.0000        8.4654        8.4654       8.444194       0.11127
   7     480.5        0.0213        0.0000        7.9394        7.9395       7.918160       0.10331
   6     533.0        0.0214        0.0000        7.4262        7.4262       7.404754       0.08259
   5     589.8        0.0216        0.0000        7.0503        7.0503       7.028729       0.05581
   4     651.6        0.0219        0.0000        6.7312        6.7313       6.709345       0.04368
   3     718.7        0.0224        0.0000        6.3693        6.3693       6.346869       0.04555
   2     792.3        0.0234        0.0000        5.9171        5.9172       5.893792       0.05196
   1     891.5        0.0258        0.0000        5.2716        5.2716       5.245787       0.05514
   0    1013.0        0.0325        0.0000        4.5136        4.5136       4.481126       0.05309

  Modules and versions used in this calculation:

       rrtmg_sw.1col.f90:  $Revision$                    rrtmg_sw_init.f90:  $Revision$        
     rrtmgsw_cldprop.f90:  $Revision$                  rrtmgsw_cldprmc.f90:  NOT USED          
     rrtmg_sw_reftra.f90:  $Revision$                  rrtmg_sw_spcvrt.f90:  NOT USED          
     rrtmg_sw_spcvmc.f90:  NOT USED                    rrtmgsw_setcoef.f90:  NOT USED          
     rrtmg_sw_taumol.f90:  $Revision$                  rrtmg_sw_vrtqdr.f90:  NOT USED          
                rrtatm.f:  NOT USED                             util_xxx.f:  NOT USED          
                 extra.f:  NOT USED                       rrtmg_sw_k_g.f90:  $Revision$        

