

 Wavenumbers:   820. - 50000. cm-1, ATM      1
 LEVEL PRESSURE   UPWARD FLUX   DIFDOWN FLUX  DIRDOWN FLUX  DOWNWARD FLUX   NET FLUX    HEATING RATE
          mb          W/m2          W/m2          W/m2        W/m2          W/m2       degree/day
  51    .06700      790.1359        0.0000     1360.8491     1360.8491     570.713287       0.00000
  50    .07753      790.1361        0.0019     1360.8273     1360.8291     570.693021      16.24328
  49    .09103      790.1365        0.0042     1360.8078     1360.8120     570.675475      10.96725
  48    0.1069      790.1370        0.0069     1360.7860     1360.7928     570.655877      10.43205
  47    0.1255      790.1376        0.0099     1360.7600     1360.7699     570.632298      10.68945
  46    0.1487      790.1386        0.0138     1360.7249     1360.7387     570.600109      11.73309
  45    0.1794      790.1401        0.0191     1360.6734     1360.6925     570.552479      13.07557
  44    0.2165      790.1421        0.0254     1360.6074     1360.6327     570.490675      14.05951
  43    0.2613      790.1448        0.0328     1360.5219     1360.5547     570.409945      15.21710
  42    0.3336      790.1499        0.0450     1360.3673     1360.4123     570.262399      17.20248
  41    0.4307      790.1577        0.0611     1360.1456     1360.2068     570.049102      18.54568
  40    0.5894      790.1724        0.0873     1359.7482     1359.8355     569.663140      20.52498
  39     1.339      790.2805        0.2077     1357.3733     1357.5811     567.300611      26.59778
  38     1.782      790.3713        0.2762     1355.8375     1356.1137     565.742402      29.66580
  37     2.292      790.5016        0.3544     1354.1208     1354.4752     563.973591      29.29611
  36     2.964      790.7112        0.4561     1352.1205     1352.5767     561.865475      26.46323
  35     3.853      791.0419        0.5898     1349.9734     1350.5633     559.521391      22.24579
  34     5.035      791.5344        0.7668     1347.7761     1348.5430     557.008564      17.95059
  33     6.613      792.2205        1.0027     1345.5290     1346.5316     554.311121      14.42054
  32     8.786      793.1197        1.3198     1343.2079     1344.5277     551.407967      11.27480
  31     11.80      794.3074        1.7726     1340.6494     1342.4220     548.114593       9.22041
  30     15.07      795.4684        2.2580     1338.4304     1340.6884     545.220048       7.47315
  29     18.79      796.6780        2.8053     1336.2864     1339.0918     542.413812       6.36260
  28     23.16      797.9736        3.4438     1334.1057     1337.5495     539.575879       5.48764
  27     28.12      799.3175        4.1733     1331.9136     1336.0869     536.769335       4.77094
  26     33.73      800.6171        4.9901     1329.7853     1334.7754     534.158316       3.92574
  25     40.54      801.9466        5.9774     1327.5375     1333.5148     531.568252       3.21327
  24     48.69      803.3151        7.1679     1325.1261     1332.2940     528.978934       2.67954
  23     57.69      804.5883        8.4757     1322.7388     1331.2145     526.626165       2.20537
  22     68.43      805.8517       10.0337     1320.1544     1330.1881     524.336383       1.80007
  21     81.20      806.9986       11.8923     1317.3916     1329.2839     522.285326       1.35531
  20     96.49      808.0265       14.1081     1314.3811     1328.4893     520.462794       1.00591
  19     114.6      809.0981       16.7346     1310.9471     1327.6816     518.583557       0.87747
  18     136.5      810.2449       19.8348     1306.9977     1326.8325     516.587573       0.76750
  17     162.9      811.4974       23.5087     1302.3518     1325.8605     514.363067       0.71104
  16     196.4      812.8688       28.2512     1296.2678     1324.5190     511.650218       0.68286
  15     218.7      813.6746       31.3485     1291.7724     1323.1209     509.446343       0.83673
  14     243.0      814.5069       34.6991     1286.1481     1320.8472     506.340278       1.07729
  13     269.0      815.3644       38.3117     1279.0245     1317.3363     501.971893       1.41708
  12     297.5      816.2513       42.1944     1270.1087     1312.3031     496.051772       1.75584
  11     328.5      817.1945       46.3641     1260.1713     1306.5354     489.340848       1.82468
  10     361.9      818.2001       50.8241     1249.4297     1300.2538     482.053625       1.84374
   9     398.1      819.2816       55.5904     1237.6382     1293.2286     473.947037       1.88865
   8     437.6      820.4619       60.6702     1224.3920     1285.0622     464.600287       1.99839
   7     480.5      821.7613       66.0720     1209.7358     1275.8079     454.046584       2.07271
   6     533.0      823.4430       72.6620     1191.2571     1263.9191     440.476130       2.18305
   5     589.8      825.4318       79.6921     1170.7333     1250.4255     424.993652       2.29811
   4     651.6      827.9659       87.1663     1147.0297     1234.1960     406.230131       2.56596
   3     718.7      831.3084       95.0890     1120.8952     1215.9842     384.675791       2.70878
   2     792.3      836.1000      103.4472     1092.1619     1195.6090     359.509001       2.88635
   1     891.5      845.8987      114.5219     1053.3991     1167.9210     322.022257       3.18994
   0    1013.0      867.4396      127.5184     1008.4859     1136.0043     268.564705       3.71183



 Wavenumbers:  2600. -  3250. cm-1, ATM      1
 LEVEL PRESSURE   UPWARD FLUX   DIFDOWN FLUX  DIRDOWN FLUX  DOWNWARD FLUX   NET FLUX    HEATING RATE
          mb          W/m2          W/m2          W/m2        W/m2          W/m2       degree/day
  51    .06700        0.0532        0.0000       11.9937       11.9937      11.940514       0.00000
  50    .07753        0.0532        0.0000       11.9937       11.9937      11.940506       0.00640
  49    .09103        0.0532        0.0000       11.9937       11.9937      11.940496       0.00627
  48    0.1069        0.0532        0.0000       11.9937       11.9937      11.940484       0.00613
  47    0.1255        0.0532        0.0000       11.9937       11.9937      11.940471       0.00600
  46    0.1487        0.0532        0.0000       11.9937       11.9937      11.940455       0.00608
  45    0.1794        0.0532        0.0000       11.9936       11.9936      11.940432       0.00625
  44    0.2165        0.0532        0.0000       11.9936       11.9936      11.940405       0.00613
  43    0.2613        0.0532        0.0000       11.9936       11.9936      11.940373       0.00601
  42    0.3336        0.0532        0.0000       11.9935       11.9935      11.940320       0.00619
  41    0.4307        0.0532        0.0000       11.9935       11.9935      11.940248       0.00622
  40    0.5894        0.0532        0.0000       11.9933       11.9933      11.940128       0.00640
  39     1.339        0.0532        0.0000       11.9926       11.9926      11.939412       0.00806
  38     1.782        0.0532        0.0000       11.9921       11.9921      11.938856       0.01057
  37     2.292        0.0532        0.0000       11.9913       11.9913      11.938116       0.01226
  36     2.964        0.0532        0.0000       11.9902       11.9902      11.937026       0.01368
  35     3.853        0.0532        0.0000       11.9886       11.9886      11.935442       0.01504
  34     5.035        0.0532        0.0000       11.9864       11.9864      11.933168       0.01624
  33     6.613        0.0532        0.0000       11.9832       11.9832      11.929953       0.01719
  32     8.786        0.0532        0.0000       11.9787       11.9787      11.925469       0.01741
  31     11.80        0.0532        0.0000       11.9722       11.9722      11.918997       0.01812
  30     15.07        0.0532        0.0000       11.9654       11.9654      11.912190       0.01757
  29     18.79        0.0532        0.0000       11.9581       11.9581      11.904902       0.01652
  28     23.16        0.0532        0.0000       11.9502       11.9502      11.896982       0.01532
  27     28.12        0.0532        0.0000       11.9418       11.9418      11.888647       0.01417
  26     33.73        0.0532        0.0000       11.9329       11.9329      11.879686       0.01347
  25     40.54        0.0532        0.0000       11.9222       11.9222      11.868992       0.01327
  24     48.69        0.0532        0.0000       11.9093       11.9093      11.856159       0.01328
  23     57.69        0.0532        0.0000       11.8949       11.8950      11.841773       0.01349
  22     68.43        0.0532        0.0000       11.8770       11.8771      11.823871       0.01407
  21     81.20        0.0532        0.0000       11.8544       11.8544      11.801210       0.01497
  20     96.49        0.0532        0.0000       11.8256       11.8257      11.772477       0.01586
  19     114.6        0.0532        0.0000       11.7886       11.7887      11.735480       0.01728
  18     136.5        0.0532        0.0000       11.7429       11.7430      11.689809       0.01756
  17     162.9        0.0532        0.0001       11.6869       11.6870      11.633815       0.01790
  16     196.4        0.0532        0.0001       11.6129       11.6130      11.559791       0.01863
  15     218.7        0.0532        0.0001       11.5605       11.5605      11.507373       0.01990
  14     243.0        0.0532        0.0001       11.4957       11.4958      11.442564       0.02248
  13     269.0        0.0532        0.0001       11.4130       11.4131      11.359895       0.02682
  12     297.5        0.0532        0.0001       11.3101       11.3102      11.256981       0.03052
  11     328.5        0.0533        0.0001       11.1933       11.1934      11.140063       0.03179
  10     361.9        0.0534        0.0001       11.0632       11.0633      11.009918       0.03293
   9     398.1        0.0535        0.0001       10.9149       10.9151      10.861556       0.03457
   8     437.6        0.0537        0.0001       10.7385       10.7387      10.685023       0.03774
   7     480.5        0.0539        0.0002       10.5233       10.5234      10.469535       0.04232
   6     533.0        0.0542        0.0002       10.2141       10.2142      10.160000       0.04979
   5     589.8        0.0547        0.0002        9.8147        9.8148       9.760094       0.05936
   4     651.6        0.0556        0.0002        9.2987        9.2989       9.243289       0.07067
   3     718.7        0.0570        0.0002        8.7065        8.7067       8.649711       0.07460
   2     792.3        0.0593        0.0002        8.0516        8.0518       7.992494       0.07538
   1     891.5        0.0648        0.0002        7.1628        7.1630       7.098151       0.07610
   0    1013.0        0.0807        0.0002        6.1112        6.1113       6.030671       0.07412



 Wavenumbers:  3250. -  4000. cm-1, ATM      1
 LEVEL PRESSURE   UPWARD FLUX   DIFDOWN FLUX  DIRDOWN FLUX  DOWNWARD FLUX   NET FLUX    HEATING RATE
          mb          W/m2          W/m2          W/m2        W/m2          W/m2       degree/day
  51    .06700        0.0006        0.0000       20.2197       20.2197      20.219096       0.00000
  50    .07753        0.0006        0.0000       20.2140       20.2140      20.213426       4.54406
  49    .09103        0.0006        0.0000       20.2088       20.2088      20.208196       3.26932
  48    0.1069        0.0006        0.0000       20.2043       20.2043      20.203772       2.35506
  47    0.1255        0.0006        0.0000       20.2005       20.2005      20.199892       1.75884
  46    0.1487        0.0006        0.0000       20.1965       20.1965      20.195970       1.42967
  45    0.1794        0.0006        0.0000       20.1921       20.1921      20.191527       1.21962
  44    0.2165        0.0006        0.0000       20.1875       20.1875      20.186961       1.03878
  43    0.2613        0.0006        0.0000       20.1827       20.1827      20.182121       0.91222
  42    0.3336        0.0006        0.0000       20.1757       20.1757      20.175099       0.81870
  41    0.4307        0.0006        0.0000       20.1678       20.1678      20.167205       0.68638
  40    0.5894        0.0006        0.0000       20.1571       20.1571      20.156511       0.56870
  39     1.339        0.0006        0.0000       20.1195       20.1195      20.118978       0.42255
  38     1.782        0.0006        0.0000       20.1017       20.1017      20.101147       0.33948
  37     2.292        0.0006        0.0000       20.0837       20.0837      20.083120       0.29857
  36     2.964        0.0006        0.0000       20.0629       20.0629      20.062370       0.26048
  35     3.853        0.0006        0.0000       20.0387       20.0387      20.038170       0.22966
  34     5.035        0.0006        0.0000       20.0099       20.0099      20.009328       0.20604
  33     6.613        0.0005        0.0000       19.9743       19.9743      19.973777       0.19005
  32     8.786        0.0005        0.0000       19.9279       19.9279      19.927374       0.18021
  31     11.80        0.0005        0.0000       19.8609       19.8609      19.860337       0.18768
  30     15.07        0.0005        0.0000       19.7861       19.7861      19.785544       0.19310
  29     18.79        0.0005        0.0000       19.6981       19.6981      19.697617       0.19936
  28     23.16        0.0005        0.0000       19.5924       19.5924      19.591896       0.20443
  27     28.12        0.0005        0.0000       19.4692       19.4692      19.468684       0.20945
  26     33.73        0.0005        0.0000       19.3318       19.3319      19.331359       0.20647
  25     40.54        0.0005        0.0001       19.1703       19.1704      19.169880       0.20033
  24     48.69        0.0005        0.0001       18.9874       18.9875      18.986992       0.18926
  23     57.69        0.0005        0.0001       18.8032       18.8032      18.802768       0.17268
  22     68.43        0.0005        0.0001       18.6047       18.6048      18.604360       0.15598
  21     81.20        0.0005        0.0001       18.3903       18.3904      18.389995       0.14165
  20     96.49        0.0004        0.0001       18.1531       18.1532      18.152753       0.13094
  19     114.6        0.0004        0.0001       17.8720       17.8722      17.871757       0.13121
  18     136.5        0.0004        0.0002       17.5464       17.5465      17.546154       0.12520
  17     162.9        0.0004        0.0002       17.1484       17.1486      17.148273       0.12718
  16     196.4        0.0003        0.0002       16.5656       16.5658      16.565507       0.14669
  15     218.7        0.0003        0.0002       16.0235       16.0238      16.023487       0.20579
  14     243.0        0.0003        0.0003       15.2654       15.2657      15.265390       0.26293
  13     269.0        0.0002        0.0003       14.2510       14.2513      14.251012       0.32906
  12     297.5        0.0002        0.0003       13.0349       13.0352      13.034929       0.36068
  11     328.5        0.0002        0.0003       11.8274       11.8277      11.827458       0.32831
  10     361.9        0.0002        0.0002       10.6546       10.6548      10.654618       0.29674
   9     398.1        0.0002        0.0002        9.4801        9.4803       9.480139       0.27363
   8     437.6        0.0001        0.0002        8.3186        8.3188       8.318668       0.24833
   7     480.5        0.0001        0.0002        7.2534        7.2537       7.253521       0.20919
   6     533.0        0.0001        0.0002        6.1288        6.1290       6.128869       0.18092
   5     589.8        0.0001        0.0002        5.0588        5.0590       5.058883       0.15882
   4     651.6        0.0001        0.0001        3.9729        3.9731       3.972950       0.14850
   3     718.7        0.0001        0.0001        2.9378        2.9379       2.937722       0.13010
   2     792.3        0.0002        0.0001        1.9615        1.9616       1.961394       0.11197
   1     891.5        0.0006        0.0000        0.9920        0.9920       0.991401       0.08254
   0    1013.0        0.0056        0.0000        0.3116        0.3117       0.306042       0.04759



 Wavenumbers:  4000. -  4650. cm-1, ATM      1
 LEVEL PRESSURE   UPWARD FLUX   DIFDOWN FLUX  DIRDOWN FLUX  DOWNWARD FLUX   NET FLUX    HEATING RATE
          mb          W/m2          W/m2          W/m2        W/m2          W/m2       degree/day
  51    .06700        0.2236        0.0000       23.7440       23.7440      23.520357       0.00000
  50    .07753        0.2236        0.0000       23.7440       23.7440      23.520356       0.00080
  49    .09103        0.2236        0.0000       23.7440       23.7440      23.520355       0.00078
  48    0.1069        0.2236        0.0000       23.7440       23.7440      23.520353       0.00076
  47    0.1255        0.2236        0.0000       23.7440       23.7440      23.520352       0.00075
  46    0.1487        0.2236        0.0000       23.7440       23.7440      23.520350       0.00076
  45    0.1794        0.2236        0.0000       23.7440       23.7440      23.520347       0.00078
  44    0.2165        0.2236        0.0000       23.7440       23.7440      23.520344       0.00076
  43    0.2613        0.2236        0.0000       23.7440       23.7440      23.520340       0.00075
  42    0.3336        0.2236        0.0000       23.7440       23.7440      23.520333       0.00077
  41    0.4307        0.2236        0.0000       23.7439       23.7439      23.520324       0.00077
  40    0.5894        0.2236        0.0000       23.7439       23.7439      23.520309       0.00080
  39     1.339        0.2236        0.0000       23.7438       23.7438      23.520220       0.00101
  38     1.782        0.2236        0.0000       23.7438       23.7438      23.520150       0.00133
  37     2.292        0.2236        0.0000       23.7437       23.7437      23.520056       0.00156
  36     2.964        0.2236        0.0000       23.7435       23.7435      23.519916       0.00176
  35     3.853        0.2236        0.0000       23.7433       23.7433      23.519707       0.00198
  34     5.035        0.2236        0.0000       23.7430       23.7430      23.519400       0.00219
  33     6.613        0.2236        0.0000       23.7425       23.7426      23.518948       0.00242
  32     8.786        0.2236        0.0000       23.7418       23.7419      23.518279       0.00260
  31     11.80        0.2236        0.0000       23.7408       23.7408      23.517227       0.00295
  30     15.07        0.2236        0.0001       23.7395       23.7396      23.515990       0.00319
  29     18.79        0.2236        0.0001       23.7380       23.7381      23.514490       0.00340
  28     23.16        0.2235        0.0001       23.7361       23.7362      23.512623       0.00361
  27     28.12        0.2235        0.0001       23.7338       23.7339      23.510355       0.00386
  26     33.73        0.2235        0.0001       23.7309       23.7311      23.507548       0.00422
  25     40.54        0.2235        0.0001       23.7271       23.7272      23.503722       0.00475
  24     48.69        0.2235        0.0002       23.7219       23.7221      23.498597       0.00530
  23     57.69        0.2234        0.0002       23.7157       23.7159      23.492483       0.00573
  22     68.43        0.2234        0.0002       23.7079       23.7082      23.484778       0.00606
  21     81.20        0.2234        0.0003       23.6983       23.6986      23.475223       0.00631
  20     96.49        0.2233        0.0003       23.6865       23.6868      23.463528       0.00645
  19     114.6        0.2233        0.0004       23.6717       23.6721      23.448823       0.00687
  18     136.5        0.2232        0.0005       23.6537       23.6542      23.431010       0.00685
  17     162.9        0.2231        0.0006       23.6317       23.6323      23.409101       0.00700
  16     196.4        0.2231        0.0007       23.6012       23.6019      23.378803       0.00763
  15     218.7        0.2230        0.0008       23.5777       23.5784      23.355407       0.00888
  14     243.0        0.2230        0.0009       23.5456       23.5464      23.323424       0.01109
  13     269.0        0.2230        0.0009       23.4995       23.5004      23.277407       0.01493
  12     297.5        0.2230        0.0010       23.4351       23.4361      23.213081       0.01908
  11     328.5        0.2231        0.0011       23.3555       23.3566      23.133530       0.02163
  10     361.9        0.2232        0.0013       23.2571       23.2584      23.035151       0.02489
   9     398.1        0.2234        0.0014       23.1295       23.1309      22.907512       0.02974
   8     437.6        0.2236        0.0015       22.9586       22.9601      22.736487       0.03657
   7     480.5        0.2239        0.0016       22.7369       22.7385      22.514614       0.04358
   6     533.0        0.2244        0.0017       22.4191       22.4208      22.196381       0.05119
   5     589.8        0.2252        0.0019       22.0335       22.0354      21.810274       0.05731
   4     651.6        0.2264        0.0020       21.5654       21.5675      21.341068       0.06417
   3     718.7        0.2284        0.0022       21.0164       21.0186      20.790141       0.06924
   2     792.3        0.2319        0.0023       20.2979       20.3001      20.068213       0.08280
   1     891.5        0.2405        0.0024       19.1088       19.1111      18.870602       0.10191
   0    1013.0        0.2646        0.0025       17.6373       17.6397      17.375131       0.10384



 Wavenumbers:  4650. -  5150. cm-1, ATM      1
 LEVEL PRESSURE   UPWARD FLUX   DIFDOWN FLUX  DIRDOWN FLUX  DOWNWARD FLUX   NET FLUX    HEATING RATE
          mb          W/m2          W/m2          W/m2        W/m2          W/m2       degree/day
  51    .06700        0.0629        0.0000       22.4748       22.4748      22.411888       0.00000
  50    .07753        0.0629        0.0000       22.4746       22.4746      22.411652       0.18925
  49    .09103        0.0629        0.0000       22.4743       22.4743      22.411356       0.18504
  48    0.1069        0.0629        0.0000       22.4739       22.4739      22.411017       0.18064
  47    0.1255        0.0629        0.0000       22.4735       22.4735      22.410628       0.17622
  46    0.1487        0.0629        0.0000       22.4730       22.4730      22.410139       0.17814
  45    0.1794        0.0629        0.0000       22.4724       22.4724      22.409475       0.18241
  44    0.2165        0.0629        0.0000       22.4716       22.4716      22.408693       0.17785
  43    0.2613        0.0629        0.0000       22.4707       22.4707      22.407774       0.17328
  42    0.3336        0.0629        0.0000       22.4692       22.4692      22.406268       0.17553
  41    0.4307        0.0629        0.0000       22.4672       22.4672      22.404300       0.17112
  40    0.5894        0.0629        0.0000       22.4641       22.4641      22.401154       0.16731
  39     1.339        0.0629        0.0000       22.4502       22.4502      22.387321       0.15573
  38     1.782        0.0629        0.0000       22.4428       22.4428      22.379950       0.14034
  37     2.292        0.0629        0.0000       22.4349       22.4350      22.372064       0.13062
  36     2.964        0.0629        0.0000       22.4255       22.4255      22.362635       0.11836
  35     3.853        0.0629        0.0000       22.4145       22.4145      22.351619       0.10454
  34     5.035        0.0629        0.0000       22.4019       22.4019      22.339070       0.08964
  33     6.613        0.0629        0.0000       22.3880       22.3881      22.325211       0.07409
  32     8.786        0.0629        0.0000       22.3731       22.3731      22.310260       0.05807
  31     11.80        0.0628        0.0001       22.3562       22.3563      22.293462       0.04703
  30     15.07        0.0628        0.0001       22.3413       22.3414      22.278543       0.03852
  29     18.79        0.0628        0.0001       22.3259       22.3260      22.263187       0.03482
  28     23.16        0.0628        0.0001       22.3082       22.3083      22.245493       0.03421
  27     28.12        0.0628        0.0002       22.2870       22.2872      22.224396       0.03586
  26     33.73        0.0627        0.0002       22.2617       22.2618      22.199115       0.03801
  25     40.54        0.0627        0.0002       22.2285       22.2287      22.166014       0.04107
  24     48.69        0.0627        0.0003       22.1852       22.1854      22.122778       0.04474
  23     57.69        0.0626        0.0003       22.1340       22.1344      22.071743       0.04784
  22     68.43        0.0626        0.0004       22.0694       22.0698      22.007214       0.05073
  21     81.20        0.0625        0.0004       21.9886       21.9891      21.926550       0.05330
  20     96.49        0.0624        0.0005       21.8895       21.8900      21.827578       0.05463
  19     114.6        0.0624        0.0006       21.7708       21.7714      21.709072       0.05533
  18     136.5        0.0623        0.0007       21.6320       21.6327      21.570464       0.05330
  17     162.9        0.0622        0.0008       21.4726       21.4734      21.411224       0.05090
  16     196.4        0.0621        0.0010       21.2786       21.2796      21.217536       0.04875
  15     218.7        0.0620        0.0011       21.1582       21.1593      21.097346       0.04563
  14     243.0        0.0619        0.0012       21.0313       21.0325      20.970584       0.04397
  13     269.0        0.0618        0.0014       20.8948       20.8961      20.834266       0.04422
  12     297.5        0.0618        0.0015       20.7434       20.7449      20.683093       0.04484
  11     328.5        0.0617        0.0016       20.5767       20.5783      20.516537       0.04529
  10     361.9        0.0617        0.0018       20.3907       20.3925      20.330795       0.04699
   9     398.1        0.0617        0.0019       20.1791       20.1810      20.119285       0.04928
   8     437.6        0.0618        0.0021       19.9341       19.9362      19.874453       0.05235
   7     480.5        0.0618        0.0022       19.6480       19.6502      19.588383       0.05618
   6     533.0        0.0620        0.0024       19.2600       19.2624      19.200322       0.06243
   5     589.8        0.0624        0.0026       18.7890       18.7915      18.729159       0.06994
   4     651.6        0.0630        0.0027       18.1977       18.2004      18.137447       0.08092
   3     718.7        0.0639        0.0028       17.4829       17.4857      17.421735       0.08995
   2     792.3        0.0656        0.0029       16.6464       16.6494      16.583802       0.09610
   1     891.5        0.0693        0.0030       15.4816       15.4846      15.415330       0.09943
   0    1013.0        0.0780        0.0031       14.1857       14.1888      14.110791       0.09058



 Wavenumbers:  5150. -  6150. cm-1, ATM      1
 LEVEL PRESSURE   UPWARD FLUX   DIFDOWN FLUX  DIRDOWN FLUX  DOWNWARD FLUX   NET FLUX    HEATING RATE
          mb          W/m2          W/m2          W/m2        W/m2          W/m2       degree/day
  51    .06700        0.5034        0.0000       56.3444       56.3444      55.840975       0.00000
  50    .07753        0.5034        0.0000       56.3444       56.3444      55.840935       0.03156
  49    .09103        0.5034        0.0000       56.3443       56.3443      55.840884       0.03205
  48    0.1069        0.5034        0.0000       56.3442       56.3442      55.840823       0.03256
  47    0.1255        0.5034        0.0000       56.3442       56.3442      55.840750       0.03307
  46    0.1487        0.5034        0.0000       56.3441       56.3441      55.840654       0.03484
  45    0.1794        0.5034        0.0000       56.3439       56.3439      55.840519       0.03710
  44    0.2165        0.5034        0.0000       56.3438       56.3438      55.840354       0.03767
  43    0.2613        0.5034        0.0000       56.3436       56.3436      55.840151       0.03826
  42    0.3336        0.5034        0.0000       56.3432       56.3432      55.839804       0.04045
  41    0.4307        0.5034        0.0000       56.3427       56.3427      55.839332       0.04103
  40    0.5894        0.5034        0.0000       56.3419       56.3419      55.838540       0.04209
  39     1.339        0.5034        0.0000       56.3381       56.3381      55.834710       0.04312
  38     1.782        0.5034        0.0000       56.3358       56.3358      55.832467       0.04270
  37     2.292        0.5034        0.0001       56.3332       56.3333      55.829917       0.04223
  36     2.964        0.5034        0.0001       56.3299       56.3300      55.826660       0.04089
  35     3.853        0.5033        0.0001       56.3257       56.3258      55.822491       0.03957
  34     5.035        0.5033        0.0001       56.3203       56.3204      55.817072       0.03871
  33     6.613        0.5033        0.0002       56.3131       56.3132      55.809958       0.03803
  32     8.786        0.5032        0.0002       56.3036       56.3038      55.800591       0.03638
  31     11.80        0.5031        0.0003       56.2905       56.2908      55.787649       0.03623
  30     15.07        0.5031        0.0004       56.2770       56.2774      55.774345       0.03435
  29     18.79        0.5030        0.0005       56.2626       56.2631      55.760075       0.03235
  28     23.16        0.5029        0.0006       56.2466       56.2472      55.744267       0.03057
  27     28.12        0.5028        0.0007       56.2292       56.2299      55.727137       0.02912
  26     33.73        0.5026        0.0008       56.2110       56.2119      55.709230       0.02692
  25     40.54        0.5025        0.0010       56.1906       56.1916      55.689133       0.02493
  24     48.69        0.5023        0.0012       56.1681       56.1693      55.667016       0.02289
  23     57.69        0.5021        0.0014       56.1451       56.1466      55.644466       0.02114
  22     68.43        0.5019        0.0017       56.1195       56.1213      55.619371       0.01973
  21     81.20        0.5016        0.0020       56.0907       56.0927      55.591078       0.01870
  20     96.49        0.5013        0.0024       56.0573       56.0597      55.558435       0.01802
  19     114.6        0.5009        0.0029       56.0182       56.0211      55.520222       0.01784
  18     136.5        0.5004        0.0034       55.9719       55.9753      55.474858       0.01744
  17     162.9        0.4999        0.0040       55.9013       55.9053      55.405420       0.02220
  16     196.4        0.4992        0.0049       55.7479       55.7527      55.253580       0.03822
  15     218.7        0.4987        0.0054       55.5243       55.5297      55.030985       0.08451
  14     243.0        0.4982        0.0059       55.1190       55.1249      54.626686       0.14022
  13     269.0        0.4977        0.0064       54.3924       54.3988      53.901071       0.23539
  12     297.5        0.4972        0.0069       53.2527       53.2596      52.762402       0.33772
  11     328.5        0.4967        0.0074       51.9857       51.9931      51.496383       0.34423
  10     361.9        0.4962        0.0079       50.6721       50.6800      50.183726       0.33212
   9     398.1        0.4958        0.0084       49.1893       49.1976      48.701892       0.34523
   8     437.6        0.4953        0.0088       47.4187       47.4275      46.932149       0.37838
   7     480.5        0.4950        0.0092       45.4500       45.4591      44.964172       0.38650
   6     533.0        0.4947        0.0096       43.0596       43.0692      42.574498       0.38442
   5     589.8        0.4947        0.0099       40.5463       40.5562      40.061526       0.37301
   4     651.6        0.4953        0.0103       37.8928       37.9031      37.407798       0.36290
   3     718.7        0.4971        0.0107       35.4719       35.4826      34.985491       0.30442
   2     792.3        0.5013        0.0112       33.4066       33.4178      32.916547       0.23728
   1     891.5        0.5138        0.0118       31.3475       31.3593      30.845496       0.17624
   0    1013.0        0.5566        0.0124       29.2817       29.2941      28.737482       0.14637



 Wavenumbers:  6150. -  7700. cm-1, ATM      1
 LEVEL PRESSURE   UPWARD FLUX   DIFDOWN FLUX  DIRDOWN FLUX  DOWNWARD FLUX   NET FLUX    HEATING RATE
          mb          W/m2          W/m2          W/m2        W/m2          W/m2       degree/day
  51    .06700        2.3134        0.0000      104.2111      104.2111     101.897711       0.00000
  50    .07753        2.3134        0.0000      104.2111      104.2111     101.897654       0.04554
  49    .09103        2.3134        0.0000      104.2110      104.2110     101.897581       0.04583
  48    0.1069        2.3134        0.0000      104.2109      104.2109     101.897494       0.04615
  47    0.1255        2.3134        0.0000      104.2108      104.2108     101.897391       0.04646
  46    0.1487        2.3134        0.0000      104.2107      104.2107     101.897258       0.04854
  45    0.1794        2.3134        0.0000      104.2105      104.2105     101.897071       0.05129
  44    0.2165        2.3134        0.0000      104.2102      104.2102     101.896844       0.05171
  43    0.2613        2.3134        0.0000      104.2099      104.2100     101.896567       0.05215
  42    0.3336        2.3134        0.0000      104.2095      104.2095     101.896097       0.05478
  41    0.4307        2.3134        0.0000      104.2088      104.2088     101.895461       0.05531
  40    0.5894        2.3134        0.0001      104.2077      104.2078     101.894399       0.05648
  39     1.339        2.3133        0.0001      104.2024      104.2026     101.889279       0.05764
  38     1.782        2.3132        0.0002      104.1993      104.1995     101.886282       0.05707
  37     2.292        2.3132        0.0002      104.1958      104.1961     101.882865       0.05659
  36     2.964        2.3131        0.0003      104.1913      104.1916     101.878479       0.05506
  35     3.853        2.3130        0.0004      104.1854      104.1859     101.872831       0.05360
  34     5.035        2.3129        0.0005      104.1778      104.1784     101.865459       0.05266
  33     6.613        2.3128        0.0007      104.1678      104.1685     101.855746       0.05193
  32     8.786        2.3125        0.0009      104.1545      104.1554     101.842890       0.04993
  31     11.80        2.3122        0.0013      104.1359      104.1372     101.824975       0.05016
  30     15.07        2.3119        0.0016      104.1166      104.1183     101.806354       0.04808
  29     18.79        2.3115        0.0020      104.0956      104.0976     101.786111       0.04590
  28     23.16        2.3111        0.0025      104.0720      104.0745     101.763365       0.04398
  27     28.12        2.3106        0.0030      104.0459      104.0489     101.738346       0.04253
  26     33.73        2.3100        0.0036      104.0181      104.0218     101.711734       0.04001
  25     40.54        2.3094        0.0044      103.9863      103.9907     101.681325       0.03773
  24     48.69        2.3085        0.0053      103.9504      103.9556     101.647107       0.03541
  23     57.69        2.3076        0.0062      103.9130      103.9192     101.611575       0.03331
  22     68.43        2.3066        0.0074      103.8705      103.8779     101.571343       0.03163
  21     81.20        2.3053        0.0087      103.8219      103.8306     101.525313       0.03042
  20     96.49        2.3038        0.0104      103.7651      103.7755     101.471734       0.02957
  19     114.6        2.3019        0.0123      103.6981      103.7105     101.408509       0.02952
  18     136.5        2.2998        0.0146      103.6182      103.6328     101.333014       0.02903
  17     162.9        2.2972        0.0174      103.5018      103.5191     101.221938       0.03550
  16     196.4        2.2939        0.0209      103.2601      103.2810     100.987098       0.05911
  15     218.7        2.2917        0.0232      102.9097      102.9329     100.641161       0.13134
  14     243.0        2.2895        0.0256      102.2732      102.2988     100.009324       0.21914
  13     269.0        2.2871        0.0279      101.2641      101.2920      99.004929       0.32582
  12     297.5        2.2847        0.0302       99.6695       99.6997      97.414954       0.47157
  11     328.5        2.2824        0.0324       97.6082       97.6407      95.358276       0.55921
  10     361.9        2.2802        0.0347       95.2483       95.2830      93.002828       0.59595
   9     398.1        2.2781        0.0369       92.6564       92.6933      90.415182       0.60286
   8     437.6        2.2765        0.0389       89.7047       89.7436      87.467110       0.63032
   7     480.5        2.2755        0.0407       86.3265       86.3672      84.091738       0.66291
   6     533.0        2.2757        0.0426       81.9787       82.0213      79.745635       0.69915
   5     589.8        2.2784        0.0441       77.1953       77.2394      74.960954       0.71020
   4     651.6        2.2867        0.0451       71.7796       71.8247      69.538055       0.74160
   3     718.7        2.3045        0.0458       66.2294       66.2751      63.970619       0.69967
   2     792.3        2.3414        0.0461       60.7106       60.7567      58.415283       0.63713
   1     891.5        2.4452        0.0463       54.2338       54.2801      51.834916       0.55996
   0    1013.0        2.7866        0.0466       47.9982       48.0448      45.258217       0.45665



 Wavenumbers:  7700. -  8050. cm-1, ATM      1
 LEVEL PRESSURE   UPWARD FLUX   DIFDOWN FLUX  DIRDOWN FLUX  DOWNWARD FLUX   NET FLUX    HEATING RATE
          mb          W/m2          W/m2          W/m2        W/m2          W/m2       degree/day
  51    .06700        4.9323        0.0000       24.6282       24.6282      19.695878       0.00000
  50    .07753        4.9323        0.0000       24.6282       24.6282      19.695856       0.01704
  49    .09103        4.9323        0.0000       24.6281       24.6281      19.695830       0.01670
  48    0.1069        4.9323        0.0000       24.6281       24.6281      19.695799       0.01635
  47    0.1255        4.9323        0.0000       24.6281       24.6281      19.695764       0.01600
  46    0.1487        4.9323        0.0000       24.6280       24.6281      19.695719       0.01624
  45    0.1794        4.9323        0.0000       24.6280       24.6280      19.695658       0.01671
  44    0.2165        4.9324        0.0000       24.6279       24.6279      19.695586       0.01639
  43    0.2613        4.9324        0.0000       24.6279       24.6279      19.695501       0.01608
  42    0.3336        4.9324        0.0000       24.6277       24.6277      19.695360       0.01646
  41    0.4307        4.9324        0.0000       24.6276       24.6276      19.695173       0.01628
  40    0.5894        4.9325        0.0000       24.6273       24.6273      19.694867       0.01626
  39     1.339        4.9327        0.0001       24.6260       24.6261      19.693420       0.01629
  38     1.782        4.9328        0.0001       24.6253       24.6254      19.692569       0.01619
  37     2.292        4.9330        0.0001       24.6244       24.6245      19.691585       0.01630
  36     2.964        4.9332        0.0002       24.6233       24.6235      19.690293       0.01623
  35     3.853        4.9334        0.0002       24.6218       24.6220      19.688584       0.01621
  34     5.035        4.9338        0.0003       24.6198       24.6201      19.686315       0.01622
  33     6.613        4.9342        0.0003       24.6172       24.6175      19.683281       0.01622
  32     8.786        4.9349        0.0005       24.6136       24.6140      19.679192       0.01588
  31     11.80        4.9357        0.0006       24.6085       24.6091      19.673340       0.01638
  30     15.07        4.9367        0.0008       24.6030       24.6038      19.667054       0.01623
  29     18.79        4.9378        0.0010       24.5968       24.5978      19.659951       0.01610
  28     23.16        4.9391        0.0012       24.5895       24.5907      19.651653       0.01605
  27     28.12        4.9406        0.0015       24.5812       24.5827      19.642162       0.01613
  26     33.73        4.9422        0.0018       24.5720       24.5737      19.631539       0.01597
  25     40.54        4.9442        0.0021       24.5608       24.5629      19.618707       0.01592
  24     48.69        4.9466        0.0026       24.5473       24.5499      19.603239       0.01601
  23     57.69        4.9493        0.0030       24.5326       24.5356      19.586254       0.01592
  22     68.43        4.9526        0.0036       24.5150       24.5186      19.566035       0.01589
  21     81.20        4.9564        0.0043       24.4941       24.4984      19.541966       0.01590
  20     96.49        4.9611        0.0050       24.4694       24.4744      19.513316       0.01581
  19     114.6        4.9667        0.0060       24.4400       24.4460      19.479343       0.01586
  18     136.5        4.9734        0.0071       24.4054       24.4125      19.439142       0.01546
  17     162.9        4.9815        0.0084       24.3644       24.3729      19.391357       0.01527
  16     196.4        4.9922        0.0102       24.3116       24.3218      19.329522       0.01556
  15     218.7        4.9994        0.0113       24.2771       24.2884      19.288964       0.01540
  14     243.0        5.0073        0.0125       24.2397       24.2522      19.244876       0.01529
  13     269.0        5.0161        0.0139       24.1993       24.2131      19.197023       0.01552
  12     297.5        5.0258        0.0153       24.1556       24.1709      19.145108       0.01540
  11     328.5        5.0366        0.0169       24.1084       24.1253      19.088732       0.01533
  10     361.9        5.0485        0.0185       24.0575       24.0761      19.027592       0.01547
   9     398.1        5.0618        0.0203       24.0026       24.0229      18.961088       0.01549
   8     437.6        5.0768        0.0223       23.9430       23.9653      18.888505       0.01552
   7     480.5        5.0936        0.0244       23.8783       23.9027      18.809120       0.01559
   6     533.0        5.1156        0.0269       23.7972       23.8241      18.708580       0.01617
   5     589.8        5.1413        0.0297       23.7068       23.7365      18.595239       0.01682
   4     651.6        5.1722        0.0326       23.6034       23.6361      18.463826       0.01797
   3     718.7        5.2104        0.0358       23.4831       23.5189      18.308482       0.01952
   2     792.3        5.2592        0.0391       23.3388       23.3780      18.118704       0.02177
   1     891.5        5.3429        0.0435       23.1128       23.1563      17.813414       0.02598
   0    1013.0        5.4792        0.0486       22.7908       22.8394      17.360207       0.03147



 Wavenumbers:  8050. - 12850. cm-1, ATM      1
 LEVEL PRESSURE   UPWARD FLUX   DIFDOWN FLUX  DIRDOWN FLUX  DOWNWARD FLUX   NET FLUX    HEATING RATE
          mb          W/m2          W/m2          W/m2        W/m2          W/m2       degree/day
  51    .06700      158.8147        0.0000      344.8128      344.8128     185.998104       0.00000
  50    .07753      158.8147        0.0000      344.8128      344.8128     185.998104       0.00000
  49    .09103      158.8147        0.0001      344.8127      344.8128     185.998104      -0.00000
  48    0.1069      158.8147        0.0001      344.8127      344.8128     185.998104       0.00000
  47    0.1255      158.8147        0.0002      344.8126      344.8128     185.998104      -0.00000
  46    0.1487      158.8147        0.0003      344.8125      344.8128     185.998104       0.00000
  45    0.1794      158.8147        0.0004      344.8124      344.8128     185.998104       0.00000
  44    0.2165      158.8147        0.0005      344.8122      344.8128     185.998104      -0.00000
  43    0.2613      158.8146        0.0007      344.8121      344.8127     185.998104       0.00000
  42    0.3336      158.8146        0.0009      344.8118      344.8127     185.998104      -0.00000
  41    0.4307      158.8145        0.0013      344.8114      344.8126     185.998104       0.00000
  40    0.5894      158.8145        0.0018      344.8108      344.8126     185.998104      -0.00000
  39     1.339      158.8141        0.0044      344.8078      344.8122     185.998104       0.00000
  38     1.782      158.8139        0.0059      344.8061      344.8120     185.998104      -0.00000
  37     2.292      158.8136        0.0076      344.8041      344.8117     185.998104       0.00000
  36     2.964      158.8133        0.0099      344.8014      344.8114     185.998104       0.00000
  35     3.853      158.8128        0.0130      344.7979      344.8109     185.998104      -0.00000
  34     5.035      158.8122        0.0170      344.7933      344.8103     185.998104       0.00000
  33     6.613      158.8114        0.0224      344.7871      344.8095     185.998104      -0.00000
  32     8.786      158.8103        0.0297      344.7787      344.8084     185.998104       0.00000
  31     11.80      158.8088        0.0401      344.7667      344.8069     185.998104       0.00000
  30     15.07      158.8071        0.0513      344.7539      344.8052     185.998104       0.00000
  29     18.79      158.8052        0.0640      344.7393      344.8033     185.998104      -0.00000
  28     23.16      158.8030        0.0788      344.7223      344.8011     185.998104      -0.00000
  27     28.12      158.8005        0.0958      344.7028      344.7986     185.998104       0.00000
  26     33.73      158.7976        0.1148      344.6809      344.7957     185.998104       0.00000
  25     40.54      158.7942        0.1378      344.6545      344.7923     185.998104      -0.00000
  24     48.69      158.7900        0.1656      344.6225      344.7882     185.998104       0.00000
  23     57.69      158.7855        0.1962      344.5874      344.7836     185.998104      -0.00000
  22     68.43      158.7800        0.2326      344.5455      344.7781     185.998104      -0.00000
  21     81.20      158.7735        0.2762      344.4955      344.7717     185.998104       0.00000
  20     96.49      158.7658        0.3281      344.4358      344.7639     185.998104      -0.00000
  19     114.6      158.7569        0.3899      344.3587      344.7486     185.991733       0.00297
  18     136.5      158.7463        0.4634      344.2667      344.7301     185.983822       0.00304
  17     162.9      158.7337        0.5511      344.1533      344.7043     185.970690       0.00420
  16     196.4      158.7175        0.6652      343.9892      344.6544     185.936957       0.00849
  15     218.7      158.7072        0.7402      343.8402      344.5805     185.873291       0.02417
  14     243.0      158.6970        0.8219      343.5933      344.4152     185.718184       0.05380
  13     269.0      158.6885        0.9103      343.1662      344.0765     185.387996       0.10711
  12     297.5      158.6842        1.0057      342.4819      343.4876     184.803432       0.17338
  11     328.5      158.6857        1.1087      341.5922      342.7009     184.015162       0.21433
  10     361.9      158.6966        1.2195      340.5080      341.7274     183.030824       0.24905
   9     398.1      158.7225        1.3383      339.1885      340.5268     181.804286       0.28576
   8     437.6      158.7731        1.4651      337.5272      338.9923     180.219179       0.33891
   7     480.5      158.8601        1.5999      335.4327      337.0326     178.172549       0.40195
   6     533.0      159.0287        1.7638      332.3652      334.1290     175.100237       0.49424
   5     589.8      159.3241        1.9371      328.3420      330.2791     170.954975       0.61529
   4     651.6      159.8809        2.1166      322.7671      324.8837     165.002805       0.81398
   3     718.7      160.8796        2.3011      315.5619      317.8630     156.983353       1.00782
   2     792.3      162.7293        2.4870      306.5104      308.9973     146.268051       1.22893
   1     891.5      167.4577        2.7170      292.9732      295.6902     128.232481       1.53474
   0    1013.0      180.4128        2.9694      276.3074      279.2768      98.863995       2.03920



 Wavenumbers: 12850. - 16000. cm-1, ATM      1
 LEVEL PRESSURE   UPWARD FLUX   DIFDOWN FLUX  DIRDOWN FLUX  DOWNWARD FLUX   NET FLUX    HEATING RATE
          mb          W/m2          W/m2          W/m2        W/m2          W/m2       degree/day
  51    .06700      168.4135        0.0000      216.0557      216.0557      47.642172       0.00000
  50    .07753      168.4136        0.0001      216.0548      216.0549      47.641357       0.65320
  49    .09103      168.4137        0.0002      216.0538      216.0540      47.640324       0.64586
  48    0.1069      168.4137        0.0004      216.0525      216.0529      47.639123       0.63910
  47    0.1255      168.4139        0.0005      216.0510      216.0516      47.637726       0.63328
  46    0.1487      168.4140        0.0007      216.0492      216.0500      47.635937       0.65203
  45    0.1794      168.4143        0.0010      216.0467      216.0477      47.633463       0.67937
  44    0.2165      168.4146        0.0013      216.0438      216.0451      47.630493       0.67548
  43    0.2613      168.4151        0.0017      216.0403      216.0420      47.626923       0.67294
  42    0.3336      168.4159        0.0024      216.0345      216.0369      47.620930       0.69880
  41    0.4307      168.4172        0.0033      216.0269      216.0301      47.612905       0.69775
  40    0.5894      168.4197        0.0047      216.0146      216.0193      47.599612       0.70691
  39     1.339      168.4377        0.0114      215.9584      215.9697      47.532010       0.76107
  38     1.782      168.4530        0.0153      215.9258      215.9412      47.488194       0.83418
  37     2.292      168.4749        0.0199      215.8879      215.9078      47.432861       0.91646
  36     2.964      168.5105        0.0259      215.8370      215.8629      47.352421       1.00977
  35     3.853      168.5668        0.0338      215.7678      215.8016      47.234844       1.11583
  34     5.035      168.6508        0.0443      215.6752      215.7195      47.068706       1.18682
  33     6.613      168.7678        0.0583      215.5548      215.6131      46.845326       1.19419
  32     8.786      168.9204        0.0772      215.4027      215.4799      46.559461       1.11020
  31     11.80      169.1205        0.1043      215.2043      215.3086      46.188053       1.03983
  30     15.07      169.3140        0.1333      215.0098      215.1432      45.829151       0.92661
  29     18.79      169.5134        0.1662      214.8056      214.9718      45.458337       0.84075
  28     23.16      169.7243        0.2046      214.5841      214.7887      45.064417       0.76171
  27     28.12      169.9395        0.2485      214.3504      214.5989      44.659352       0.68858
  26     33.73      170.1434        0.2977      214.1164      214.4141      44.270681       0.58438
  25     40.54      170.3470        0.3573      213.8655      214.2228      43.875772       0.48993
  24     48.69      170.5508        0.4292      213.5943      214.0234      43.472659       0.41716
  23     57.69      170.7343        0.5083      213.3269      213.8352      43.100840       0.34852
  22     68.43      170.9093        0.6027      213.0419      213.6446      42.735326       0.28734
  21     81.20      171.0579        0.7155      212.7488      213.4643      42.406458       0.21731
  20     96.49      171.1795        0.8503      212.4447      213.2949      42.115444       0.16062
  19     114.6      171.3226        1.0126      212.1101      213.1227      41.800152       0.14722
  18     136.5      171.4679        1.2054      211.7382      212.9437      41.475731       0.12475
  17     162.9      171.6188        1.4354      211.3198      212.7552      41.136425       0.10846
  16     196.4      171.7672        1.7345      210.8156      212.5501      40.782820       0.08901
  15     218.7      171.8479        1.9313      210.4965      212.4278      40.579845       0.07706
  14     243.0      171.9287        2.1456      210.1519      212.2976      40.368830       0.07319
  13     269.0      172.0100        2.3783      209.7781      212.1564      40.146348       0.07217
  12     297.5      172.0936        2.6303      209.3683      211.9986      39.904971       0.07159
  11     328.5      172.1848        2.9031      208.9170      211.8201      39.635280       0.07333
  10     361.9      172.2862        3.1975      208.4189      211.6165      39.330278       0.07717
   9     398.1      172.4019        3.5152      207.8679      211.3831      38.981135       0.08134
   8     437.6      172.5396        3.8571      207.2544      211.1115      38.571875       0.08750
   7     480.5      172.7067        4.2246      206.5713      210.7959      38.089143       0.09481
   6     533.0      172.9503        4.6780      205.6883      210.3664      37.416128       0.10827
   5     589.8      173.2830        5.1679      204.6670      209.8349      36.551858       0.12829
   4     651.6      173.7839        5.6945      203.4324      209.1269      35.343062       0.16531
   3     718.7      174.5102        6.2563      201.9561      208.2124      33.702202       0.20621
   2     792.3      175.6368        6.8492      200.1346      206.9838      31.346945       0.27012
   1     891.5      178.0157        7.6301      197.2502      204.8803      26.864560       0.38143
   0    1013.0      182.7890        8.5401      193.2807      201.8207      19.031693       0.54388



 Wavenumbers: 16000. - 22650. cm-1, ATM      1
 LEVEL PRESSURE   UPWARD FLUX   DIFDOWN FLUX  DIRDOWN FLUX  DOWNWARD FLUX   NET FLUX    HEATING RATE
          mb          W/m2          W/m2          W/m2        W/m2          W/m2       degree/day
  51    .06700      308.5562        0.0000      344.4769      344.4769      35.920683       0.00000
  50    .07753      308.5565        0.0006      344.4763      344.4769      35.920457       0.18115
  49    .09103      308.5568        0.0013      344.4756      344.4769      35.920128       0.20547
  48    0.1069      308.5572        0.0021      344.4748      344.4769      35.919688       0.23430
  47    0.1255      308.5577        0.0031      344.4737      344.4768      35.919099       0.26707
  46    0.1487      308.5585        0.0043      344.4724      344.4767      35.918230       0.31648
  45    0.1794      308.5596        0.0059      344.4705      344.4764      35.916873       0.37263
  44    0.2165      308.5610        0.0079      344.4682      344.4761      35.915032       0.41880
  43    0.2613      308.5630        0.0102      344.4653      344.4755      35.912534       0.47084
  42    0.3336      308.5666        0.0140      344.4603      344.4743      35.907785       0.55370
  41    0.4307      308.5719        0.0191      344.4534      344.4725      35.900626       0.62244
  40    0.5894      308.5818        0.0274      344.4414      344.4688      35.886973       0.72607
  39     1.339      308.6516        0.0667      344.3711      344.4377      35.786083       1.13584
  38     1.782      308.7096        0.0897      344.3200      344.4097      35.700114       1.63670
  37     2.292      308.7924        0.1164      344.2517      344.3681      35.575640       2.06161
  36     2.964      308.9255        0.1514      344.1480      344.2994      35.373910       2.53232
  35     3.853      309.1353        0.1977      343.9913      344.1889      35.053616       3.03965
  34     5.035      309.4478        0.2591      343.7640      344.0231      34.575318       3.41676
  33     6.613      309.8825        0.3411      343.4511      343.7923      33.909748       3.55814
  32     8.786      310.4505        0.4517      343.0410      343.4927      33.042167       3.36937
  31     11.80      311.1969        0.6099      342.4947      343.1045      31.907586       3.17647
  30     15.07      311.9211        0.7797      341.9547      342.7344      30.813332       2.82515
  29     18.79      312.6696        0.9716      341.3868      342.3585      29.688906       2.54942
  28     23.16      313.4634        1.1959      340.7717      341.9676      28.504190       2.29086
  27     28.12      314.2774        1.4525      340.1241      341.5766      27.299242       2.04833
  26     33.73      315.0534        1.7401      339.4775      341.2176      26.164181       1.70660
  25     40.54      315.8347        2.0879      338.7859      340.8738      25.039101       1.39579
  24     48.69      316.6248        2.5079      338.0389      340.5467      23.921927       1.15610
  23     57.69      317.3456        2.9698      337.3015      340.2713      22.925695       0.93382
  22     68.43      318.0454        3.5209      336.5123      340.0332      21.987761       0.73734
  21     81.20      318.6614        4.1789      335.6921      339.8710      21.209611       0.51419
  20     96.49      319.1930        4.9646      334.8256      339.7903      20.597224       0.33799
  19     114.6      319.7185        5.8981      333.8560      339.7542      20.035645       0.26222
  18     136.5      320.2700        7.0049      332.7466      339.7515      19.481466       0.21310
  17     162.9      320.8608        8.3227      331.4625      339.7852      18.924377       0.17807
  16     196.4      321.4857       10.0327      329.8743      339.9070      18.421264       0.12664
  15     218.7      321.8435       11.1560      328.8601      340.0160      18.172509       0.09444
  14     243.0      322.2075       12.3768      327.7715      340.1483      17.940818       0.08036
  13     269.0      322.5758       13.6999      326.6061      340.3060      17.730224       0.06832
  12     297.5      322.9486       15.1297      325.3603      340.4900      17.541472       0.05598
  11     328.5      323.3386       16.6746      324.0212      340.6958      17.357241       0.05009
  10     361.9      323.7461       18.3380      322.5859      340.9239      17.177770       0.04541
   9     398.1      324.1735       20.1282      321.0470      341.1751      17.001617       0.04104
   8     437.6      324.6250       22.0508      319.3978      341.4486      16.823593       0.03806
   7     480.5      325.1018       24.1120      317.6330      341.7450      16.643170       0.03543
   6     533.0      325.6842       26.6501      315.4613      342.1114      16.427252       0.03473
   5     589.8      326.3159       29.3878      313.1151      342.5029      16.186963       0.03567
   4     651.6      327.0155       32.3337      310.5763      342.9099      15.894471       0.04000
   3     718.7      327.8014       35.4975      307.8270      343.3245      15.523152       0.04666
   2     792.3      328.7164       38.8839      304.8404      343.7244      15.008007       0.05908
   1     891.5      330.1360       43.4491      300.7148      344.1639      14.027904       0.08340
   0    1013.0      332.1490       48.9218      295.6311      344.5530      12.403906       0.11276



 Wavenumbers: 22650. - 29000. cm-1, ATM      1
 LEVEL PRESSURE   UPWARD FLUX   DIFDOWN FLUX  DIRDOWN FLUX  DOWNWARD FLUX   NET FLUX    HEATING RATE
          mb          W/m2          W/m2          W/m2        W/m2          W/m2       degree/day
  51    .06700      126.2078        0.0000      129.9930      129.9930       3.785227       0.00000
  50    .07753      126.2079        0.0007      129.9925      129.9932       3.785227       0.00000
  49    .09103      126.2081        0.0015      129.9918      129.9933       3.785227       0.00000
  48    0.1069      126.2083        0.0025      129.9910      129.9935       3.785227      -0.00000
  47    0.1255      126.2085        0.0036      129.9901      129.9937       3.785227       0.00000
  46    0.1487      126.2088        0.0051      129.9889      129.9940       3.785227      -0.00000
  45    0.1794      126.2091        0.0070      129.9874      129.9943       3.785227       0.00000
  44    0.2165      126.2095        0.0093      129.9855      129.9948       3.785227      -0.00000
  43    0.2613      126.2101        0.0120      129.9833      129.9953       3.785227       0.00000
  42    0.3336      126.2109        0.0165      129.9796      129.9961       3.785227       0.00000
  41    0.4307      126.2120        0.0225      129.9747      129.9972       3.785227       0.00000
  40    0.5894      126.2138        0.0322      129.9668      129.9990       3.785227      -0.00000
  39     1.339      126.2224        0.0784      129.9292      130.0076       3.785227      -0.00000
  38     1.782      126.2274        0.1055      129.9071      130.0126       3.785227       0.00000
  37     2.292      126.2333        0.1369      129.8815      130.0185       3.785227       0.00000
  36     2.964      126.2409        0.1782      129.8480      130.0261       3.785227      -0.00000
  35     3.853      126.2510        0.2326      129.8036      130.0362       3.785227       0.00000
  34     5.035      126.2645        0.3050      129.7447      130.0497       3.785227      -0.00000
  33     6.613      126.2824        0.4016      129.6660      130.0676       3.785227      -0.00000
  32     8.786      126.3066        0.5319      129.5599      130.0918       3.785227       0.00000
  31     11.80      126.3412        0.7182      129.4082      130.1264       3.785227      -0.00000
  30     15.07      126.3783        0.9183      129.2453      130.1635       3.785227       0.00000
  29     18.79      126.4202        1.1442      129.0613      130.2055       3.785227      -0.00000
  28     23.16      126.4692        1.4079      128.8465      130.2544       3.785227       0.00000
  27     28.12      126.5251        1.7093      128.6010      130.3103       3.785227      -0.00000
  26     33.73      126.5876        2.0463      128.3266      130.3729       3.785227       0.00000
  25     40.54      126.6631        2.4530      127.9953      130.4483       3.785227       0.00000
  24     48.69      126.7539        2.9426      127.5965      130.5391       3.785227      -0.00000
  23     57.69      126.8534        3.4793      127.1593      130.6386       3.785227      -0.00000
  22     68.43      126.9716        4.1171      126.6397      130.7568       3.785227       0.00000
  21     81.20      127.1119        4.8747      126.0224      130.8971       3.785227       0.00000
  20     96.49      127.2784        5.7741      125.2896      131.0637       3.785227      -0.00000
  19     114.6      127.4751        6.8369      124.4234      131.2603       3.785227       0.00000
  18     136.5      127.7068        8.0896      123.4024      131.4920       3.785227       0.00000
  17     162.9      127.9805        9.5710      122.1947      131.7657       3.785227       0.00000
  16     196.4      128.3320       11.4754      120.6419      132.1173       3.785227       0.00000
  15     218.7      128.5608       12.7157      119.6303      132.3460       3.785227      -0.00000
  14     243.0      128.8075       14.0549      118.5379      132.5927       3.785227       0.00000
  13     269.0      129.0727       15.4956      117.3624      132.8579       3.785227      -0.00000
  12     297.5      129.3568       17.0402      116.1018      133.1420       3.785227       0.00000
  11     328.5      129.6608       18.6955      114.7505      133.4461       3.785227       0.00000
  10     361.9      129.9849       20.4618      113.3083      133.7701       3.785227       0.00000
   9     398.1      130.3299       22.3446      111.7705      134.1151       3.785227       0.00000
   8     437.6      130.6961       24.3460      110.1353      134.4813       3.785227       0.00000
   7     480.5      131.0837       26.4679      108.4010      134.8689       3.785227      -0.00000
   6     533.0      131.5541       29.0476      106.2917      135.3393       3.785227       0.00000
   5     589.8      132.0529       31.7899      104.0483      135.8382       3.785227      -0.00000
   4     651.6      132.5802       34.6955      101.6700      136.3654       3.785227       0.00000
   3     718.7      133.1357       37.7652       99.1558      136.9209       3.785227       0.00000
   2     792.3      133.7185       40.9954       96.5083      137.5037       3.785227       0.00000
   1     891.5      134.4856       45.2644       93.0064      138.2708       3.785227       0.00000
   0    1013.0      135.3775       50.2545       88.9082      139.1627       3.785227       0.00000



 Wavenumbers: 29000. - 38000. cm-1, ATM      1
 LEVEL PRESSURE   UPWARD FLUX   DIFDOWN FLUX  DIRDOWN FLUX  DOWNWARD FLUX   NET FLUX    HEATING RATE
          mb          W/m2          W/m2          W/m2        W/m2          W/m2       degree/day
  51    .06700       20.0169        0.0000       45.8410       45.8410      25.824075       0.00000
  50    .07753       20.0168        0.0004       45.8366       45.8370      25.820242       3.07208
  49    .09103       20.0167        0.0009       45.8305       45.8314      25.814663       3.48731
  48    0.1069       20.0166        0.0015       45.8223       45.8238      25.807187       3.97940
  47    0.1255       20.0165        0.0021       45.8116       45.8137      25.797177       4.53776
  46    0.1487       20.0164        0.0029       45.7959       45.7988      25.782427       5.37683
  45    0.1794       20.0163        0.0041       45.7716       45.7757      25.759390       6.32398
  44    0.2165       20.0163        0.0054       45.7391       45.7445      25.728215       7.09188
  43    0.2613       20.0163        0.0069       45.6954       45.7023      25.686067       7.94477
  42    0.3336       20.0164        0.0095       45.6134       45.6229      25.606488       9.27813
  41    0.4307       20.0168        0.0129       45.4920       45.5049      25.488045      10.29835
  40    0.5894       20.0180        0.0183       45.2670       45.2853      25.267363      11.73558
  39     1.339       20.0317        0.0425       43.8242       43.8666      23.834975      16.12608
  38     1.782       20.0452        0.0554       42.8351       42.8905      22.845227      18.84320
  37     2.292       20.0657        0.0695       41.6852       41.7547      21.689041      19.14946
  36     2.964       20.0998        0.0872       40.2943       40.3815      20.281675      17.66670
  35     3.853       20.1549        0.1096       38.7687       38.8783      18.723346      14.78883
  34     5.035       20.2383        0.1385       37.2304       37.3689      17.130680      11.37735
  33     6.613       20.3556        0.1763       35.7405       35.9168      15.561254       8.39016
  32     8.786       20.5108        0.2263       34.3295       34.5558      14.044966       5.88871
  31     11.80       20.7187        0.2968       32.9481       33.2449      12.526121       4.25229
  30     15.07       20.9262        0.3716       31.8942       32.2659      11.339666       3.06320
  29     18.79       21.1473        0.4551       30.9854       31.4405      10.293164       2.37274
  28     23.16       21.3909        0.5516       30.1559       30.7075       9.316597       1.88837
  27     28.12       21.6515        0.6613       29.4043       30.0656       8.414122       1.53415
  26     33.73       21.9106        0.7843       28.7514       29.5357       7.625178       1.18620
  25     40.54       22.1821        0.9332       28.1328       29.0661       6.883989       0.91953
  24     48.69       22.4687        1.1130       27.5340       28.6470       6.178300       0.73028
  23     57.69       22.7411        1.3107       26.9971       28.3078       5.566649       0.57333
  22     68.43       23.0152        1.5469       26.4694       28.0163       5.001042       0.44464
  21     81.20       23.2615        1.8311       25.9669       27.7979       4.536422       0.30701
  20     96.49       23.4747        2.1721       25.4748       27.6469       4.172174       0.20104
  19     114.6       23.6867        2.5745       24.9506       27.5251       3.838396       0.15585
  18     136.5       23.9118        3.0449       24.3745       27.4194       3.507560       0.12721
  17     162.9       24.1567        3.5968       23.7328       27.3296       3.172955       0.10695
  16     196.4       24.4129        4.3054       22.9761       27.2815       2.868619       0.07661
  15     218.7       24.5573        4.7631       22.5089       27.2720       2.714702       0.05844
  14     243.0       24.7032        5.2534       22.0192       27.2726       2.569381       0.05040
  13     269.0       24.8486        5.7768       21.5077       27.2845       2.435928       0.04329
  12     297.5       24.9925        6.3332       20.9749       27.3082       2.315632       0.03568
  11     328.5       25.1409        6.9223       20.4165       27.3388       2.197831       0.03203
  10     361.9       25.2933        7.5427       19.8338       27.3765       2.083211       0.02900
   9     398.1       25.4495        8.1949       19.2267       27.4215       1.972044       0.02590
   8     437.6       25.6105        8.8773       18.5955       27.4729       1.862370       0.02345
   7     480.5       25.7753        9.5892       17.9419       27.5311       1.755829       0.02092
   6     533.0       25.9689       10.4387       17.1671       27.6058       1.636870       0.01914
   5     589.8       26.1688       11.3209       16.3664       27.6873       1.518466       0.01758
   4     651.6       26.3754       12.2330       15.5420       27.7750       1.399604       0.01625
   3     718.7       26.5885       13.1714       14.6973       27.8686       1.280115       0.01502
   2     792.3       26.8073       14.1298       13.8375       27.9673       1.159955       0.01378
   1     891.5       27.0903       15.3540       12.7437       28.0977       1.007384       0.01298
   0    1013.0       27.4144       16.7192       11.5285       28.2477       0.833307       0.01209



 Wavenumbers: 38000. - 50000. cm-1, ATM      1
 LEVEL PRESSURE   UPWARD FLUX   DIFDOWN FLUX  DIRDOWN FLUX  DOWNWARD FLUX   NET FLUX    HEATING RATE
          mb          W/m2          W/m2          W/m2        W/m2          W/m2       degree/day
  51    .06700        0.0077        0.0000        2.8274        2.8274       2.819732       0.00000
  50    .07753        0.0076        0.0001        2.8250        2.8250       2.817394       1.87426
  49    .09103        0.0076        0.0002        2.8215        2.8216       2.814052       2.08853
  48    0.1069        0.0075        0.0003        2.8169        2.8172       2.809652       2.34203
  47    0.1255        0.0074        0.0004        2.8109        2.8113       2.803854       2.62885
  46    0.1487        0.0073        0.0005        2.8022        2.8027       2.795433       3.06948
  45    0.1794        0.0072        0.0007        2.7889        2.7896       2.782446       3.56531
  44    0.2165        0.0070        0.0009        2.7712        2.7721       2.765088       3.94851
  43    0.2613        0.0068        0.0012        2.7476        2.7487       2.741916       4.36792
  42    0.3336        0.0065        0.0015        2.7038        2.7053       2.698800       5.02689
  41    0.4307        0.0062        0.0020        2.6399        2.6419       2.635738       5.48307
  40    0.5894        0.0056        0.0027        2.5241        2.5268       2.521231       6.08937
  39     1.339        0.0038        0.0042        1.8543        1.8585       1.854685       7.50409
  38     1.782        0.0031        0.0041        1.4655        1.4696       1.466513       7.39018
  37     2.292        0.0024        0.0036        1.0872        1.0908       1.088339       6.26353
  36     2.964        0.0019        0.0030        0.7358        0.7388       0.736859       4.41214
  35     3.853        0.0015        0.0024        0.4711        0.4735       0.472010       2.51347
  34     5.035        0.0012        0.0019        0.2988        0.3008       0.299620       1.23148
  33     6.613        0.0009        0.0016        0.1889        0.1905       0.189608       0.58813
  32     8.786        0.0007        0.0013        0.1196        0.1208       0.120133       0.26981
  31     11.80        0.0005        0.0010        0.0741        0.0751       0.074563       0.12758
  30     15.07        0.0004        0.0008        0.0493        0.0501       0.049700       0.06419
  29     18.79        0.0003        0.0006        0.0330        0.0336       0.033348       0.03707
  28     23.16        0.0002        0.0004        0.0217        0.0221       0.021940       0.02206
  27     28.12        0.0001        0.0003        0.0140        0.0144       0.014212       0.01314
  26     33.73        0.0001        0.0002        0.0091        0.0093       0.009223       0.00750
  25     40.54        0.0001        0.0002        0.0057        0.0059       0.005793       0.00426
  24     48.69        0.0000        0.0001        0.0034        0.0035       0.003483       0.00239
  23     57.69        0.0000        0.0001        0.0020        0.0021       0.002088       0.00131
  22     68.43        0.0000        0.0000        0.0012        0.0012       0.001190       0.00071
  21     81.20        0.0000        0.0000        0.0006        0.0007       0.000647       0.00036
  20     96.49        0.0000        0.0000        0.0003        0.0003       0.000330       0.00018
  19     114.6        0.0000        0.0000        0.0001        0.0002       0.000151       0.00008
  18     136.5        0.0000        0.0000        0.0001        0.0001       0.000060       0.00003
  17     162.9        0.0000        0.0000        0.0000        0.0000       0.000020       0.00001
  16     196.4        0.0000        0.0000        0.0000        0.0000       0.000005       0.00000
  15     218.7        0.0000        0.0000        0.0000        0.0000       0.000002       0.00000
  14     243.0        0.0000        0.0000        0.0000        0.0000       0.000001       0.00000
  13     269.0        0.0000        0.0000        0.0000        0.0000       0.000000       0.00000
  12     297.5        0.0000        0.0000        0.0000        0.0000       0.000000       0.00000
  11     328.5        0.0000        0.0000        0.0000        0.0000       0.000000       0.00000
  10     361.9        0.0000        0.0000        0.0000        0.0000       0.000000       0.00000
   9     398.1        0.0000        0.0000        0.0000        0.0000       0.000000       0.00000
   8     437.6        0.0000        0.0000        0.0000        0.0000       0.000000       0.00000
   7     480.5        0.0000        0.0000        0.0000        0.0000       0.000000       0.00000
   6     533.0        0.0000        0.0000        0.0000        0.0000       0.000000       0.00000
   5     589.8        0.0000        0.0000        0.0000        0.0000       0.000000       0.00000
   4     651.6        0.0000        0.0000        0.0000        0.0000       0.000000       0.00000
   3     718.7        0.0000        0.0000        0.0000        0.0000       0.000000       0.00000
   2     792.3        0.0000        0.0000        0.0000        0.0000       0.000000       0.00000
   1     891.5        0.0000        0.0000        0.0000        0.0000       0.000000       0.00000
   0    1013.0        0.0000        0.0000        0.0000        0.0000       0.000000       0.00000



 Wavenumbers:   820. -  2600. cm-1, ATM      1
 LEVEL PRESSURE   UPWARD FLUX   DIFDOWN FLUX  DIRDOWN FLUX  DOWNWARD FLUX   NET FLUX    HEATING RATE
          mb          W/m2          W/m2          W/m2        W/m2          W/m2       degree/day
  51    .06700        0.0295        0.0000       13.2264       13.2264      13.196877       0.00000
  50    .07753        0.0295        0.0000       13.2194       13.2194      13.189855       5.62794
  49    .09103        0.0295        0.0000       13.2178       13.2178      13.188281       0.98409
  48    0.1069        0.0295        0.0000       13.2167       13.2167      13.187154       0.59956
  47    0.1255        0.0295        0.0000       13.2154       13.2154      13.185864       0.58514
  46    0.1487        0.0295        0.0000       13.2137       13.2137      13.184207       0.60400
  45    0.1794        0.0295        0.0000       13.2114       13.2114      13.181948       0.62011
  44    0.2165        0.0295        0.0000       13.2088       13.2088      13.179330       0.59555
  43    0.2613        0.0295        0.0000       13.2059       13.2059      13.176349       0.56187
  42    0.3336        0.0295        0.0000       13.2013       13.2013      13.171785       0.53209
  41    0.4307        0.0295        0.0000       13.1959       13.1959      13.166415       0.46695
  40    0.5894        0.0295        0.0000       13.1882       13.1882      13.158723       0.40901
  39     1.339        0.0295        0.0000       13.1557       13.1557      13.126188       0.36629
  38     1.782        0.0295        0.0000       13.1371       13.1371      13.107601       0.35386
  37     2.292        0.0295        0.0000       13.1162       13.1162      13.086656       0.34692
  36     2.964        0.0295        0.0000       13.0894       13.0894      13.059902       0.33584
  35     3.853        0.0295        0.0000       13.0549       13.0549      13.025401       0.32742
  34     5.035        0.0295        0.0000       13.0106       13.0106      12.981097       0.31649
  33     6.613        0.0295        0.0000       12.9545       12.9545      12.924981       0.30000
  32     8.786        0.0295        0.0000       12.8834       12.8834      12.853854       0.27623
  31     11.80        0.0295        0.0000       12.7885       12.7885      12.758954       0.26569
  30     15.07        0.0295        0.0000       12.6943       12.6944      12.664850       0.24296
  29     18.79        0.0295        0.0000       12.5999       12.5999      12.570394       0.21416
  28     23.16        0.0295        0.0000       12.5086       12.5086      12.479125       0.17648
  27     28.12        0.0295        0.0000       12.4288       12.4289      12.399351       0.13561
  26     33.73        0.0295        0.0000       12.3650       12.3650      12.335511       0.09598
  25     40.54        0.0295        0.0000       12.3120       12.3120      12.282494       0.06577
  24     48.69        0.0295        0.0000       12.2668       12.2668      12.237346       0.04672
  23     57.69        0.0295        0.0000       12.2260       12.2260      12.196500       0.03829
  22     68.43        0.0295        0.0000       12.1803       12.1803      12.150763       0.03596
  21     81.20        0.0295        0.0000       12.1270       12.1270      12.097522       0.03518
  20     96.49        0.0295        0.0000       12.0640       12.0640      12.034470       0.03480
  19     114.6        0.0295        0.0000       11.9885       11.9885      11.959046       0.03522
  18     136.5        0.0295        0.0000       11.8987       11.8988      11.869256       0.03453
  17     162.9        0.0295        0.0000       11.7817       11.7817      11.752245       0.03740
  16     196.4        0.0295        0.0000       11.5930       11.5930      11.563490       0.04751
  15     218.7        0.0295        0.0000       11.4055       11.4056      11.376044       0.07117
  14     243.0        0.0295        0.0000       11.1045       11.1045      11.074989       0.10442
  13     269.0        0.0295        0.0000       10.6901       10.6901      10.660569       0.13444
  12     297.5        0.0296        0.0000       10.2200       10.2201      10.190490       0.13942
  11     328.5        0.0296        0.0000        9.8187        9.8187       9.789127       0.10913
  10     361.9        0.0296        0.0000        9.4313        9.4313       9.401688       0.09803
   9     398.1        0.0297        0.0000        8.9858        8.9858       8.956074       0.10382
   8     437.6        0.0298        0.0000        8.4654        8.4654       8.435647       0.11127
   7     480.5        0.0299        0.0000        7.9394        7.9395       7.909583       0.10332
   6     533.0        0.0301        0.0000        7.4262        7.4262       7.396130       0.08260
   5     589.8        0.0303        0.0000        7.0503        7.0503       7.020035       0.05582
   4     651.6        0.0307        0.0000        6.7312        6.7313       6.700529       0.04369
   3     718.7        0.0315        0.0000        6.3693        6.3693       6.337842       0.04558
   2     792.3        0.0328        0.0000        5.9171        5.9172       5.884381       0.05201
   1     891.5        0.0362        0.0000        5.2716        5.2716       5.235391       0.05523
   0    1013.0        0.0456        0.0000        4.5136        4.5136       4.468036       0.05328

  Modules and versions used in this calculation:

       rrtmg_sw.1col.f90:  $Revision$                    rrtmg_sw_init.f90:  $Revision$        
     rrtmgsw_cldprop.f90:  $Revision$                  rrtmgsw_cldprmc.f90:  NOT USED          
     rrtmg_sw_reftra.f90:  $Revision$                  rrtmg_sw_spcvrt.f90:  NOT USED          
     rrtmg_sw_spcvmc.f90:  NOT USED                    rrtmgsw_setcoef.f90:  NOT USED          
     rrtmg_sw_taumol.f90:  $Revision$                  rrtmg_sw_vrtqdr.f90:  NOT USED          
                rrtatm.f:  NOT USED                             util_xxx.f:  NOT USED          
                 extra.f:  NOT USED                       rrtmg_sw_k_g.f90:  $Revision$        

