

 Wavenumbers:   820. - 50000. cm-1, ATM      1
 LEVEL PRESSURE   UPWARD FLUX   DIFDOWN FLUX  DIRDOWN FLUX  DOWNWARD FLUX   NET FLUX    HEATING RATE
          mb          W/m2          W/m2          W/m2        W/m2          W/m2       degree/day
  51    .06700      539.4875        0.0000     1360.8491     1360.8491     821.361680       0.00000
  50    .07753      539.4875        0.0017     1360.8273     1360.8290     821.341463      16.20483
  49    .09103      539.4876        0.0038     1360.8078     1360.8116     821.323985      10.92391
  48    0.1069      539.4878        0.0063     1360.7860     1360.7922     821.304480      10.38289
  47    0.1255      539.4880        0.0091     1360.7600     1360.7690     821.281024      10.63365
  46    0.1487      539.4884        0.0126     1360.7249     1360.7375     821.249016      11.66720
  45    0.1794      539.4892        0.0174     1360.6734     1360.6908     821.201668      12.99816
  44    0.2165      539.4902        0.0231     1360.6074     1360.6305     821.140245      13.97265
  43    0.2613      539.4918        0.0299     1360.5219     1360.5518     821.060034      15.11955
  42    0.3336      539.4948        0.0410     1360.3673     1360.4083     820.913471      17.08781
  41    0.4307      539.4997        0.0557     1360.1456     1360.2013     820.701657      18.41674
  40    0.5894      539.5092        0.0795     1359.7482     1359.8277     820.318524      20.37453
  39     1.339      539.5852        0.1887     1357.3733     1357.5621     817.976872      26.36274
  38     1.782      539.6517        0.2507     1355.8375     1356.0881     816.436395      29.32820
  37     2.292      539.7489        0.3212     1354.1208     1354.4421     814.693181      28.87217
  36     2.964      539.9071        0.4130     1352.1205     1352.5335     812.626446      25.94376
  35     3.853      540.1590        0.5335     1349.9734     1350.5069     810.347969      21.62317
  34     5.035      540.5360        0.6930     1347.7761     1348.4691     807.933073      17.25101
  33     6.613      541.0623        0.9054     1345.5290     1346.4343     805.372025      13.69137
  32     8.786      541.7517        1.1909     1343.2079     1344.3987     802.647072      10.58273
  31     11.80      542.6601        1.5984     1340.6494     1342.2478     799.587678       8.56534
  30     15.07      543.5454        2.0351     1338.4304     1340.4655     796.920044       6.88731
  29     18.79      544.4653        2.5272     1336.2864     1338.8136     794.348371       5.83077
  28     23.16      545.4474        3.1011     1334.1057     1337.2068     791.759351       5.00633
  27     28.12      546.4619        3.7565     1331.9136     1335.6700     789.208067       4.33701
  26     33.73      547.4356        4.4900     1329.7853     1334.2753     786.839773       3.56079
  25     40.54      548.4211        5.3764     1327.5375     1332.9138     784.492757       2.91174
  24     48.69      549.4233        6.4447     1325.1261     1331.5708     782.147532       2.42694
  23     57.69      550.3414        7.6178     1322.7388     1330.3565     780.015091       1.99884
  22     68.43      551.2334        9.0145     1320.1544     1329.1688     777.935427       1.63489
  21     81.20      552.0100       10.6798     1317.3916     1328.0715     776.061486       1.23827
  20     96.49      552.6641       12.6642     1314.3811     1327.0453     774.381198       0.92740
  19     114.6      553.3154       15.0138     1310.9471     1325.9608     772.645449       0.81047
  18     136.5      553.9886       17.7845     1306.9977     1324.7822     770.793676       0.71205
  17     162.9      554.6988       21.0643     1302.3518     1323.4161     768.717257       0.66371
  16     196.4      555.4164       25.2924     1296.2678     1321.5602     766.143791       0.64777
  15     218.7      555.8104       28.0502     1291.7724     1319.8226     764.012195       0.80929
  14     243.0      556.2017       31.0302     1286.1481     1317.1783     760.976556       1.05286
  13     269.0      556.5871       34.2395     1279.0245     1313.2641     756.676992       1.39476
  12     297.5      556.9668       37.6843     1270.1087     1307.7930     750.826149       1.73530
  11     328.5      557.3585       41.3785     1260.1713     1301.5498     744.191238       1.80401
  10     361.9      557.7636       45.3238     1249.4297     1294.7535     736.989953       1.82200
   9     398.1      558.1864       49.5331     1237.6382     1287.1713     728.984855       1.86501
   8     437.6      558.6376       54.0110     1224.3920     1278.4030     719.765391       1.97118
   7     480.5      559.1237       58.7633     1209.7358     1268.4991     709.375440       2.04055
   6     533.0      559.7435       64.5473     1191.2571     1255.8044     696.060949       2.14188
   5     589.8      560.4759       70.7008     1170.7333     1241.4341     680.958200       2.24174
   4     651.6      561.4294       77.2229     1147.0297     1224.2526     662.823210       2.48001
   3     718.7      562.7147       84.1141     1120.8952     1205.0092     642.294552       2.57988
   2     792.3      564.6170       91.3583     1092.1619     1183.5202     618.903183       2.68273
   1     891.5      568.6354      100.9157     1053.3991     1154.3148     585.679370       2.82719
   0    1013.0      577.7281      112.0674     1008.4859     1120.5533     542.825179       2.97559



 Wavenumbers:  2600. -  3250. cm-1, ATM      1
 LEVEL PRESSURE   UPWARD FLUX   DIFDOWN FLUX  DIRDOWN FLUX  DOWNWARD FLUX   NET FLUX    HEATING RATE
          mb          W/m2          W/m2          W/m2        W/m2          W/m2       degree/day
  51    .06700        0.3395        0.0000       11.9937       11.9937      11.654204       0.00000
  50    .07753        0.3395        0.0000       11.9937       11.9937      11.654196       0.00640
  49    .09103        0.3395        0.0000       11.9937       11.9937      11.654186       0.00627
  48    0.1069        0.3395        0.0000       11.9937       11.9937      11.654175       0.00613
  47    0.1255        0.3395        0.0000       11.9937       11.9937      11.654161       0.00600
  46    0.1487        0.3395        0.0000       11.9937       11.9937      11.654145       0.00608
  45    0.1794        0.3395        0.0000       11.9936       11.9936      11.654122       0.00625
  44    0.2165        0.3395        0.0000       11.9936       11.9936      11.654095       0.00613
  43    0.2613        0.3395        0.0000       11.9936       11.9936      11.654063       0.00601
  42    0.3336        0.3395        0.0000       11.9935       11.9935      11.654010       0.00619
  41    0.4307        0.3395        0.0000       11.9935       11.9935      11.653939       0.00622
  40    0.5894        0.3395        0.0000       11.9933       11.9933      11.653818       0.00640
  39     1.339        0.3395        0.0000       11.9926       11.9926      11.653102       0.00806
  38     1.782        0.3395        0.0000       11.9921       11.9921      11.652547       0.01057
  37     2.292        0.3395        0.0000       11.9913       11.9913      11.651806       0.01226
  36     2.964        0.3395        0.0000       11.9902       11.9902      11.650717       0.01368
  35     3.853        0.3395        0.0000       11.9886       11.9886      11.649132       0.01504
  34     5.035        0.3395        0.0000       11.9864       11.9864      11.646858       0.01624
  33     6.613        0.3395        0.0000       11.9832       11.9832      11.643643       0.01719
  32     8.786        0.3395        0.0000       11.9787       11.9787      11.639159       0.01741
  31     11.80        0.3395        0.0000       11.9722       11.9722      11.632687       0.01812
  30     15.07        0.3395        0.0000       11.9654       11.9654      11.625880       0.01757
  29     18.79        0.3395        0.0000       11.9581       11.9581      11.618591       0.01652
  28     23.16        0.3395        0.0000       11.9502       11.9502      11.610670       0.01532
  27     28.12        0.3395        0.0000       11.9418       11.9418      11.602334       0.01417
  26     33.73        0.3395        0.0000       11.9329       11.9329      11.593372       0.01347
  25     40.54        0.3395        0.0000       11.9222       11.9222      11.582676       0.01327
  24     48.69        0.3395        0.0000       11.9093       11.9093      11.569840       0.01328
  23     57.69        0.3395        0.0000       11.8949       11.8950      11.555449       0.01349
  22     68.43        0.3395        0.0000       11.8770       11.8771      11.537541       0.01408
  21     81.20        0.3395        0.0000       11.8544       11.8544      11.514870       0.01498
  20     96.49        0.3395        0.0000       11.8256       11.8257      11.486124       0.01587
  19     114.6        0.3395        0.0000       11.7886       11.7887      11.449109       0.01728
  18     136.5        0.3396        0.0001       11.7429       11.7430      11.403412       0.01757
  17     162.9        0.3396        0.0001       11.6869       11.6870      11.347380       0.01791
  16     196.4        0.3397        0.0001       11.6129       11.6130      11.273291       0.01865
  15     218.7        0.3397        0.0001       11.5605       11.5606      11.220808       0.01993
  14     243.0        0.3399        0.0001       11.4957       11.4958      11.155887       0.02252
  13     269.0        0.3401        0.0001       11.4130       11.4131      11.073046       0.02687
  12     297.5        0.3404        0.0001       11.3101       11.3102      10.969875       0.03060
  11     328.5        0.3408        0.0001       11.1933       11.1934      10.852601       0.03189
  10     361.9        0.3413        0.0001       11.0632       11.0633      10.721969       0.03305
   9     398.1        0.3421        0.0001       10.9149       10.9151      10.572945       0.03472
   8     437.6        0.3432        0.0001       10.7385       10.7387      10.395507       0.03794
   7     480.5        0.3446        0.0002       10.5233       10.5234      10.178785       0.04256
   6     533.0        0.3470        0.0002       10.2141       10.2142       9.867274       0.05011
   5     589.8        0.3504        0.0002        9.8147        9.8149       9.464418       0.05980
   4     651.6        0.3560        0.0002        9.2987        9.2989       8.942896       0.07132
   3     718.7        0.3648        0.0002        8.7065        8.7067       8.341877       0.07553
   2     792.3        0.3796        0.0002        8.0516        8.0518       7.672136       0.07681
   1     891.5        0.4154        0.0002        7.1628        7.1630       6.747611       0.07867
   0    1013.0        0.5170        0.0002        6.1112        6.1114       5.594332       0.08008



 Wavenumbers:  3250. -  4000. cm-1, ATM      1
 LEVEL PRESSURE   UPWARD FLUX   DIFDOWN FLUX  DIRDOWN FLUX  DOWNWARD FLUX   NET FLUX    HEATING RATE
          mb          W/m2          W/m2          W/m2        W/m2          W/m2       degree/day
  51    .06700        0.0034        0.0000       20.2197       20.2197      20.216262       0.00000
  50    .07753        0.0034        0.0000       20.2140       20.2140      20.210592       4.54406
  49    .09103        0.0034        0.0000       20.2088       20.2088      20.205362       3.26932
  48    0.1069        0.0034        0.0000       20.2043       20.2043      20.200937       2.35506
  47    0.1255        0.0034        0.0000       20.2005       20.2005      20.197058       1.75884
  46    0.1487        0.0034        0.0000       20.1965       20.1965      20.193136       1.42967
  45    0.1794        0.0034        0.0000       20.1921       20.1921      20.188693       1.21962
  44    0.2165        0.0034        0.0000       20.1875       20.1875      20.184127       1.03878
  43    0.2613        0.0034        0.0000       20.1827       20.1827      20.179287       0.91222
  42    0.3336        0.0034        0.0000       20.1757       20.1757      20.172265       0.81870
  41    0.4307        0.0034        0.0000       20.1678       20.1678      20.164371       0.68638
  40    0.5894        0.0034        0.0000       20.1571       20.1571      20.153677       0.56870
  39     1.339        0.0034        0.0000       20.1195       20.1195      20.116144       0.42255
  38     1.782        0.0034        0.0000       20.1017       20.1017      20.098313       0.33948
  37     2.292        0.0034        0.0000       20.0837       20.0837      20.080286       0.29857
  36     2.964        0.0034        0.0000       20.0629       20.0629      20.059536       0.26048
  35     3.853        0.0034        0.0000       20.0387       20.0387      20.035336       0.22966
  34     5.035        0.0034        0.0000       20.0099       20.0099      20.006494       0.20604
  33     6.613        0.0034        0.0000       19.9743       19.9743      19.970943       0.19005
  32     8.786        0.0034        0.0000       19.9279       19.9279      19.924540       0.18021
  31     11.80        0.0034        0.0000       19.8609       19.8609      19.857503       0.18768
  30     15.07        0.0034        0.0000       19.7861       19.7861      19.782709       0.19310
  29     18.79        0.0034        0.0000       19.6981       19.6981      19.694782       0.19936
  28     23.16        0.0034        0.0000       19.5924       19.5924      19.589062       0.20443
  27     28.12        0.0034        0.0000       19.4692       19.4692      19.465849       0.20945
  26     33.73        0.0033        0.0000       19.3318       19.3319      19.328525       0.20647
  25     40.54        0.0033        0.0001       19.1703       19.1704      19.167046       0.20033
  24     48.69        0.0033        0.0001       18.9874       18.9875      18.984158       0.18926
  23     57.69        0.0033        0.0001       18.8032       18.8032      18.799934       0.17268
  22     68.43        0.0033        0.0001       18.6047       18.6048      18.601526       0.15598
  21     81.20        0.0033        0.0001       18.3903       18.3904      18.387160       0.14165
  20     96.49        0.0033        0.0001       18.1531       18.1532      18.149919       0.13094
  19     114.6        0.0032        0.0001       17.8720       17.8722      17.868923       0.13121
  18     136.5        0.0032        0.0002       17.5464       17.5465      17.543320       0.12520
  17     162.9        0.0032        0.0002       17.1484       17.1486      17.145439       0.12718
  16     196.4        0.0032        0.0002       16.5656       16.5658      16.562673       0.14669
  15     218.7        0.0031        0.0002       16.0235       16.0238      16.020652       0.20579
  14     243.0        0.0031        0.0003       15.2654       15.2657      15.262554       0.26293
  13     269.0        0.0031        0.0003       14.2510       14.2513      14.248173       0.32906
  12     297.5        0.0031        0.0003       13.0349       13.0352      13.032084       0.36068
  11     328.5        0.0031        0.0003       11.8274       11.8277      11.824602       0.32831
  10     361.9        0.0031        0.0002       10.6546       10.6548      10.651744       0.29674
   9     398.1        0.0031        0.0002        9.4801        9.4803       9.477236       0.27363
   8     437.6        0.0031        0.0002        8.3186        8.3188       8.315716       0.24834
   7     480.5        0.0032        0.0002        7.2534        7.2537       7.250489       0.20921
   6     533.0        0.0033        0.0002        6.1288        6.1290       6.125685       0.18095
   5     589.8        0.0036        0.0002        5.0588        5.0590       5.055420       0.15886
   4     651.6        0.0042        0.0001        3.9729        3.9731       3.968905       0.14858
   3     718.7        0.0055        0.0001        2.9378        2.9379       2.932397       0.13026
   2     792.3        0.0089        0.0001        1.9615        1.9616       1.952697       0.11236
   1     891.5        0.0273        0.0000        0.9920        0.9920       0.964686       0.08407
   0    1013.0        0.2634        0.0000        0.3116        0.3117       0.048275       0.06363



 Wavenumbers:  4000. -  4650. cm-1, ATM      1
 LEVEL PRESSURE   UPWARD FLUX   DIFDOWN FLUX  DIRDOWN FLUX  DOWNWARD FLUX   NET FLUX    HEATING RATE
          mb          W/m2          W/m2          W/m2        W/m2          W/m2       degree/day
  51    .06700        0.6706        0.0000       23.7440       23.7440      23.073393       0.00000
  50    .07753        0.6706        0.0000       23.7440       23.7440      23.073392       0.00080
  49    .09103        0.6706        0.0000       23.7440       23.7440      23.073391       0.00078
  48    0.1069        0.6706        0.0000       23.7440       23.7440      23.073389       0.00076
  47    0.1255        0.6706        0.0000       23.7440       23.7440      23.073388       0.00075
  46    0.1487        0.6706        0.0000       23.7440       23.7440      23.073385       0.00076
  45    0.1794        0.6706        0.0000       23.7440       23.7440      23.073383       0.00078
  44    0.2165        0.6706        0.0000       23.7440       23.7440      23.073379       0.00076
  43    0.2613        0.6706        0.0000       23.7440       23.7440      23.073375       0.00075
  42    0.3336        0.6706        0.0000       23.7440       23.7440      23.073369       0.00077
  41    0.4307        0.6706        0.0000       23.7439       23.7439      23.073360       0.00077
  40    0.5894        0.6706        0.0000       23.7439       23.7439      23.073345       0.00080
  39     1.339        0.6706        0.0000       23.7438       23.7438      23.073256       0.00101
  38     1.782        0.6706        0.0000       23.7438       23.7438      23.073186       0.00133
  37     2.292        0.6706        0.0000       23.7437       23.7437      23.073092       0.00156
  36     2.964        0.6706        0.0000       23.7435       23.7435      23.072951       0.00176
  35     3.853        0.6706        0.0000       23.7433       23.7433      23.072743       0.00198
  34     5.035        0.6706        0.0000       23.7430       23.7430      23.072436       0.00219
  33     6.613        0.6706        0.0000       23.7425       23.7426      23.071983       0.00242
  32     8.786        0.6706        0.0000       23.7418       23.7419      23.071315       0.00260
  31     11.80        0.6706        0.0000       23.7408       23.7408      23.070262       0.00295
  30     15.07        0.6705        0.0001       23.7395       23.7396      23.069025       0.00319
  29     18.79        0.6705        0.0001       23.7380       23.7381      23.067525       0.00340
  28     23.16        0.6705        0.0001       23.7361       23.7362      23.065657       0.00361
  27     28.12        0.6705        0.0001       23.7338       23.7339      23.063388       0.00386
  26     33.73        0.6705        0.0001       23.7309       23.7311      23.060579       0.00422
  25     40.54        0.6705        0.0001       23.7271       23.7272      23.056752       0.00475
  24     48.69        0.6704        0.0002       23.7219       23.7221      23.051622       0.00531
  23     57.69        0.6704        0.0002       23.7157       23.7159      23.045504       0.00574
  22     68.43        0.6704        0.0003       23.7079       23.7082      23.037791       0.00606
  21     81.20        0.6704        0.0003       23.6983       23.6986      23.028225       0.00632
  20     96.49        0.6703        0.0004       23.6865       23.6869      23.016515       0.00646
  19     114.6        0.6703        0.0004       23.6717       23.6721      23.001787       0.00688
  18     136.5        0.6703        0.0005       23.6537       23.6542      22.983940       0.00686
  17     162.9        0.6703        0.0006       23.6317       23.6323      22.961982       0.00702
  16     196.4        0.6703        0.0007       23.6012       23.6019      22.931599       0.00765
  15     218.7        0.6703        0.0008       23.5777       23.5785      22.908126       0.00891
  14     243.0        0.6704        0.0009       23.5456       23.5465      22.876029       0.01113
  13     269.0        0.6706        0.0010       23.4995       23.5004      22.829840       0.01498
  12     297.5        0.6709        0.0011       23.4351       23.4362      22.765263       0.01915
  11     328.5        0.6713        0.0012       23.3555       23.3567      22.685365       0.02172
  10     361.9        0.6719        0.0013       23.2571       23.2584      22.586532       0.02501
   9     398.1        0.6726        0.0014       23.1295       23.1309      22.458330       0.02987
   8     437.6        0.6736        0.0015       22.9586       22.9601      22.286597       0.03672
   7     480.5        0.6747        0.0017       22.7369       22.7386      22.063839       0.04375
   6     533.0        0.6766        0.0018       22.4191       22.4209      21.744278       0.05141
   5     589.8        0.6792        0.0020       22.0335       22.0355      21.356313       0.05759
   4     651.6        0.6833        0.0021       21.5654       21.5675      20.884255       0.06456
   3     718.7        0.6898        0.0022       21.0164       21.0186      20.328843       0.06980
   2     792.3        0.7008        0.0024       20.2979       20.3002      19.599388       0.08366
   1     891.5        0.7274        0.0025       19.1088       19.1112      18.383836       0.10344
   0    1013.0        0.8008        0.0026       17.6373       17.6398      16.838973       0.10727



 Wavenumbers:  4650. -  5150. cm-1, ATM      1
 LEVEL PRESSURE   UPWARD FLUX   DIFDOWN FLUX  DIRDOWN FLUX  DOWNWARD FLUX   NET FLUX    HEATING RATE
          mb          W/m2          W/m2          W/m2        W/m2          W/m2       degree/day
  51    .06700        0.5168        0.0000       22.4748       22.4748      21.957999       0.00000
  50    .07753        0.5168        0.0000       22.4746       22.4746      21.957763       0.18925
  49    .09103        0.5168        0.0000       22.4743       22.4743      21.957467       0.18504
  48    0.1069        0.5168        0.0000       22.4739       22.4739      21.957127       0.18064
  47    0.1255        0.5168        0.0000       22.4735       22.4735      21.956739       0.17622
  46    0.1487        0.5168        0.0000       22.4730       22.4730      21.956250       0.17814
  45    0.1794        0.5168        0.0000       22.4724       22.4724      21.955585       0.18241
  44    0.2165        0.5168        0.0000       22.4716       22.4716      21.954804       0.17785
  43    0.2613        0.5168        0.0000       22.4707       22.4707      21.953884       0.17328
  42    0.3336        0.5168        0.0000       22.4692       22.4692      21.952379       0.17553
  41    0.4307        0.5168        0.0000       22.4672       22.4672      21.950411       0.17112
  40    0.5894        0.5168        0.0000       22.4641       22.4641      21.947265       0.16731
  39     1.339        0.5168        0.0000       22.4502       22.4502      21.933432       0.15573
  38     1.782        0.5168        0.0000       22.4428       22.4428      21.926060       0.14034
  37     2.292        0.5168        0.0000       22.4349       22.4350      21.918174       0.13062
  36     2.964        0.5168        0.0000       22.4255       22.4255      21.908745       0.11836
  35     3.853        0.5168        0.0000       22.4145       22.4145      21.897729       0.10454
  34     5.035        0.5168        0.0000       22.4019       22.4019      21.885180       0.08965
  33     6.613        0.5168        0.0000       22.3880       22.3881      21.871320       0.07410
  32     8.786        0.5168        0.0000       22.3731       22.3731      21.856367       0.05807
  31     11.80        0.5167        0.0001       22.3562       22.3563      21.839567       0.04703
  30     15.07        0.5167        0.0001       22.3413       22.3414      21.824645       0.03853
  29     18.79        0.5167        0.0001       22.3259       22.3260      21.809284       0.03483
  28     23.16        0.5167        0.0001       22.3082       22.3083      21.791585       0.03422
  27     28.12        0.5167        0.0002       22.2870       22.2872      21.770480       0.03588
  26     33.73        0.5167        0.0002       22.2617       22.2619      21.745188       0.03803
  25     40.54        0.5166        0.0002       22.2285       22.2287      21.712071       0.04109
  24     48.69        0.5166        0.0003       22.1852       22.1854      21.668814       0.04476
  23     57.69        0.5166        0.0003       22.1340       22.1344      21.617751       0.04786
  22     68.43        0.5166        0.0004       22.0694       22.0698      21.553183       0.05076
  21     81.20        0.5166        0.0004       21.9886       21.9891      21.472466       0.05334
  20     96.49        0.5166        0.0005       21.8895       21.8900      21.373421       0.05467
  19     114.6        0.5166        0.0006       21.7708       21.7715      21.254813       0.05538
  18     136.5        0.5167        0.0007       21.6320       21.6328      21.116067       0.05335
  17     162.9        0.5168        0.0009       21.4726       21.4734      20.956636       0.05096
  16     196.4        0.5170        0.0010       21.2786       21.2796      20.762655       0.04883
  15     218.7        0.5171        0.0012       21.1582       21.1594      20.642235       0.04572
  14     243.0        0.5174        0.0013       21.0313       21.0325      20.515174       0.04407
  13     269.0        0.5177        0.0014       20.8948       20.8961      20.378452       0.04435
  12     297.5        0.5182        0.0015       20.7434       20.7449      20.226714       0.04500
  11     328.5        0.5189        0.0017       20.5767       20.5783      20.059421       0.04549
  10     361.9        0.5198        0.0018       20.3907       20.3926      19.872730       0.04723
   9     398.1        0.5211        0.0020       20.1791       20.1811      19.659990       0.04956
   8     437.6        0.5227        0.0021       19.9341       19.9363      19.413563       0.05269
   7     480.5        0.5249        0.0023       19.6480       19.6503      19.125427       0.05659
   6     533.0        0.5282        0.0025       19.2600       19.2624      18.734230       0.06293
   5     589.8        0.5329        0.0026       18.7890       18.7916      18.258734       0.07058
   4     651.6        0.5398        0.0028       18.1977       18.2005      17.660671       0.08179
   3     718.7        0.5503        0.0029       17.4829       17.4858      16.935513       0.09113
   2     792.3        0.5665        0.0031       16.6464       16.6495      16.082999       0.09777
   1     891.5        0.6017        0.0032       15.4816       15.4848      14.883079       0.10211
   0    1013.0        0.6811        0.0033       14.1857       14.1890      13.507914       0.09548



 Wavenumbers:  5150. -  6150. cm-1, ATM      1
 LEVEL PRESSURE   UPWARD FLUX   DIFDOWN FLUX  DIRDOWN FLUX  DOWNWARD FLUX   NET FLUX    HEATING RATE
          mb          W/m2          W/m2          W/m2        W/m2          W/m2       degree/day
  51    .06700        1.3386        0.0000       56.3444       56.3444      55.005789       0.00000
  50    .07753        1.3386        0.0000       56.3444       56.3444      55.005749       0.03156
  49    .09103        1.3386        0.0000       56.3443       56.3443      55.005698       0.03205
  48    0.1069        1.3386        0.0000       56.3442       56.3442      55.005637       0.03256
  47    0.1255        1.3386        0.0000       56.3442       56.3442      55.005564       0.03307
  46    0.1487        1.3386        0.0000       56.3441       56.3441      55.005468       0.03485
  45    0.1794        1.3386        0.0000       56.3439       56.3439      55.005333       0.03710
  44    0.2165        1.3386        0.0000       56.3438       56.3438      55.005168       0.03767
  43    0.2613        1.3386        0.0000       56.3436       56.3436      55.004965       0.03827
  42    0.3336        1.3386        0.0000       56.3432       56.3432      55.004618       0.04046
  41    0.4307        1.3386        0.0000       56.3427       56.3427      55.004146       0.04103
  40    0.5894        1.3386        0.0000       56.3419       56.3419      55.003354       0.04210
  39     1.339        1.3386        0.0000       56.3381       56.3381      54.999523       0.04313
  38     1.782        1.3386        0.0000       56.3358       56.3358      54.997280       0.04271
  37     2.292        1.3386        0.0001       56.3332       56.3333      54.994730       0.04224
  36     2.964        1.3385        0.0001       56.3299       56.3300      54.991472       0.04090
  35     3.853        1.3385        0.0001       56.3257       56.3258      54.987301       0.03958
  34     5.035        1.3385        0.0001       56.3203       56.3204      54.981881       0.03872
  33     6.613        1.3385        0.0002       56.3131       56.3132      54.974764       0.03805
  32     8.786        1.3384        0.0002       56.3036       56.3038      54.965394       0.03639
  31     11.80        1.3384        0.0003       56.2905       56.2908      54.952446       0.03625
  30     15.07        1.3383        0.0004       56.2770       56.2774      54.939135       0.03437
  29     18.79        1.3382        0.0005       56.2626       56.2631      54.924857       0.03237
  28     23.16        1.3381        0.0006       56.2466       56.2472      54.909040       0.03059
  27     28.12        1.3380        0.0007       56.2292       56.2299      54.891897       0.02914
  26     33.73        1.3379        0.0009       56.2110       56.2119      54.873976       0.02694
  25     40.54        1.3378        0.0010       56.1906       56.1917      54.853857       0.02496
  24     48.69        1.3376        0.0012       56.1681       56.1694      54.831713       0.02292
  23     57.69        1.3375        0.0015       56.1451       56.1466      54.809129       0.02117
  22     68.43        1.3373        0.0017       56.1195       56.1213      54.783992       0.01976
  21     81.20        1.3371        0.0021       56.0907       56.0927      54.755646       0.01873
  20     96.49        1.3368        0.0025       56.0573       56.0598      54.722938       0.01805
  19     114.6        1.3365        0.0029       56.0182       56.0212      54.684645       0.01788
  18     136.5        1.3362        0.0035       55.9719       55.9754      54.639183       0.01748
  17     162.9        1.3358        0.0041       55.9013       55.9054      54.569625       0.02223
  16     196.4        1.3352        0.0050       55.7479       55.7528      54.417623       0.03826
  15     218.7        1.3349        0.0055       55.5243       55.5298      54.194914       0.08455
  14     243.0        1.3346        0.0060       55.1190       55.1250      53.790483       0.14027
  13     269.0        1.3342        0.0066       54.3924       54.3989      53.064708       0.23544
  12     297.5        1.3339        0.0071       53.2527       53.2598      51.925838       0.33778
  11     328.5        1.3337        0.0076       51.9857       51.9933      50.659572       0.34429
  10     361.9        1.3335        0.0081       50.6721       50.6802      49.346610       0.33219
   9     398.1        1.3335        0.0086       49.1893       49.1979      47.864392       0.34532
   8     437.6        1.3336        0.0090       47.4187       47.4277      46.094151       0.37849
   7     480.5        1.3339        0.0094       45.4500       45.4594      44.125526       0.38663
   6     533.0        1.3346        0.0098       43.0596       43.0695      41.734818       0.38459
   5     589.8        1.3363        0.0103       40.5463       40.5565      39.220273       0.37324
   4     651.6        1.3397        0.0107       37.8928       37.9035      36.563836       0.36327
   3     718.7        1.3462        0.0111       35.4719       35.4830      34.136819       0.30501
   2     792.3        1.3591        0.0116       33.4066       33.4182      32.059101       0.23829
   1     891.5        1.3955        0.0123       31.3475       31.3598      29.964262       0.17826
   0    1013.0        1.5145        0.0130       29.2817       29.2946      27.780076       0.15166



 Wavenumbers:  6150. -  7700. cm-1, ATM      1
 LEVEL PRESSURE   UPWARD FLUX   DIFDOWN FLUX  DIRDOWN FLUX  DOWNWARD FLUX   NET FLUX    HEATING RATE
          mb          W/m2          W/m2          W/m2        W/m2          W/m2       degree/day
  51    .06700        2.1745        0.0000      104.2111      104.2111     102.036639       0.00000
  50    .07753        2.1745        0.0000      104.2111      104.2111     102.036582       0.04554
  49    .09103        2.1745        0.0000      104.2110      104.2110     102.036509       0.04583
  48    0.1069        2.1745        0.0000      104.2109      104.2109     102.036422       0.04615
  47    0.1255        2.1745        0.0000      104.2108      104.2108     102.036319       0.04646
  46    0.1487        2.1745        0.0000      104.2107      104.2107     102.036186       0.04854
  45    0.1794        2.1745        0.0000      104.2105      104.2105     102.035999       0.05129
  44    0.2165        2.1745        0.0000      104.2102      104.2102     102.035772       0.05171
  43    0.2613        2.1745        0.0000      104.2099      104.2100     102.035495       0.05215
  42    0.3336        2.1745        0.0000      104.2095      104.2095     102.035026       0.05478
  41    0.4307        2.1744        0.0000      104.2088      104.2088     102.034389       0.05531
  40    0.5894        2.1744        0.0001      104.2077      104.2078     102.033327       0.05648
  39     1.339        2.1744        0.0001      104.2024      104.2026     102.028207       0.05764
  38     1.782        2.1743        0.0002      104.1993      104.1995     102.025210       0.05707
  37     2.292        2.1743        0.0002      104.1958      104.1961     102.021793       0.05659
  36     2.964        2.1742        0.0003      104.1913      104.1916     102.017407       0.05506
  35     3.853        2.1741        0.0004      104.1854      104.1859     102.011759       0.05360
  34     5.035        2.1740        0.0005      104.1778      104.1784     102.004388       0.05266
  33     6.613        2.1738        0.0007      104.1678      104.1685     101.994675       0.05193
  32     8.786        2.1736        0.0009      104.1545      104.1554     101.981818       0.04993
  31     11.80        2.1733        0.0013      104.1359      104.1372     101.963903       0.05016
  30     15.07        2.1730        0.0016      104.1166      104.1183     101.945282       0.04808
  29     18.79        2.1726        0.0020      104.0956      104.0976     101.925039       0.04590
  28     23.16        2.1722        0.0025      104.0720      104.0745     101.902293       0.04398
  27     28.12        2.1717        0.0030      104.0459      104.0489     101.877274       0.04253
  26     33.73        2.1711        0.0036      104.0181      104.0218     101.850662       0.04001
  25     40.54        2.1704        0.0044      103.9863      103.9907     101.820253       0.03773
  24     48.69        2.1696        0.0052      103.9504      103.9556     101.786036       0.03541
  23     57.69        2.1687        0.0062      103.9130      103.9192     101.750503       0.03331
  22     68.43        2.1676        0.0074      103.8705      103.8779     101.710271       0.03163
  21     81.20        2.1663        0.0087      103.8219      103.8306     101.664242       0.03042
  20     96.49        2.1648        0.0104      103.7651      103.7755     101.610662       0.02957
  19     114.6        2.1630        0.0123      103.6981      103.7104     101.547438       0.02952
  18     136.5        2.1608        0.0146      103.6182      103.6328     101.471943       0.02903
  17     162.9        2.1582        0.0174      103.5018      103.5191     101.360868       0.03550
  16     196.4        2.1549        0.0209      103.2601      103.2809     101.126030       0.05911
  15     218.7        2.1528        0.0231      102.9097      102.9329     100.780094       0.13134
  14     243.0        2.1505        0.0255      102.2732      102.2987     100.148261       0.21914
  13     269.0        2.1481        0.0279      101.2641      101.2920      99.143873       0.32582
  12     297.5        2.1457        0.0301       99.6695       99.6996      97.553911       0.47157
  11     328.5        2.1434        0.0324       97.6082       97.6406      95.497256       0.55920
  10     361.9        2.1411        0.0346       95.2483       95.2829      93.141844       0.59594
   9     398.1        2.1390        0.0368       92.6564       92.6932      90.554253       0.60285
   8     437.6        2.1372        0.0388       89.7047       89.7435      87.606267       0.63030
   7     480.5        2.1361        0.0406       86.3265       86.3671      84.231026       0.66288
   6     533.0        2.1360        0.0425       81.9787       82.0212      79.885160       0.69911
   5     589.8        2.1384        0.0440       77.1953       77.2392      75.100879       0.71014
   4     651.6        2.1459        0.0450       71.7796       71.8246      69.678722       0.74149
   3     718.7        2.1624        0.0456       66.2294       66.2750      64.112623       0.69950
   2     792.3        2.1968        0.0459       60.7106       60.7566      58.559805       0.63685
   1     891.5        2.2937        0.0461       54.2338       54.2799      51.986162       0.55939
   0    1013.0        2.6136        0.0464       47.9982       48.0446      45.430991       0.45516



 Wavenumbers:  7700. -  8050. cm-1, ATM      1
 LEVEL PRESSURE   UPWARD FLUX   DIFDOWN FLUX  DIRDOWN FLUX  DOWNWARD FLUX   NET FLUX    HEATING RATE
          mb          W/m2          W/m2          W/m2        W/m2          W/m2       degree/day
  51    .06700        1.3265        0.0000       24.6282       24.6282      23.301656       0.00000
  50    .07753        1.3265        0.0000       24.6282       24.6282      23.301637       0.01497
  49    .09103        1.3265        0.0000       24.6281       24.6281      23.301614       0.01468
  48    0.1069        1.3265        0.0000       24.6281       24.6281      23.301587       0.01437
  47    0.1255        1.3265        0.0000       24.6281       24.6281      23.301556       0.01406
  46    0.1487        1.3265        0.0000       24.6280       24.6281      23.301517       0.01427
  45    0.1794        1.3265        0.0000       24.6280       24.6280      23.301463       0.01468
  44    0.2165        1.3265        0.0000       24.6279       24.6279      23.301400       0.01440
  43    0.2613        1.3265        0.0000       24.6279       24.6279      23.301325       0.01413
  42    0.3336        1.3265        0.0000       24.6277       24.6277      23.301201       0.01446
  41    0.4307        1.3266        0.0000       24.6276       24.6276      23.301036       0.01430
  40    0.5894        1.3266        0.0000       24.6273       24.6273      23.300768       0.01429
  39     1.339        1.3266        0.0001       24.6260       24.6261      23.299497       0.01431
  38     1.782        1.3266        0.0001       24.6253       24.6254      23.298750       0.01422
  37     2.292        1.3266        0.0001       24.6244       24.6245      23.297885       0.01432
  36     2.964        1.3267        0.0001       24.6233       24.6234      23.296750       0.01425
  35     3.853        1.3267        0.0002       24.6218       24.6220      23.295250       0.01424
  34     5.035        1.3268        0.0002       24.6198       24.6200      23.293257       0.01424
  33     6.613        1.3269        0.0003       24.6172       24.6175      23.290593       0.01424
  32     8.786        1.3270        0.0004       24.6136       24.6140      23.287003       0.01394
  31     11.80        1.3271        0.0005       24.6085       24.6090      23.281868       0.01438
  30     15.07        1.3273        0.0007       24.6030       24.6036      23.276353       0.01424
  29     18.79        1.3275        0.0008       24.5968       24.5976      23.270124       0.01412
  28     23.16        1.3277        0.0010       24.5895       24.5905      23.262849       0.01407
  27     28.12        1.3279        0.0012       24.5812       24.5825      23.254533       0.01414
  26     33.73        1.3282        0.0015       24.5720       24.5734      23.245230       0.01399
  25     40.54        1.3286        0.0018       24.5608       24.5626      23.233999       0.01393
  24     48.69        1.3290        0.0021       24.5473       24.5495      23.220473       0.01400
  23     57.69        1.3294        0.0025       24.5326       24.5351      23.205633       0.01391
  22     68.43        1.3300        0.0030       24.5150       24.5180      23.187986       0.01387
  21     81.20        1.3307        0.0035       24.4941       24.4977      23.167005       0.01386
  20     96.49        1.3315        0.0042       24.4694       24.4735      23.142066       0.01376
  19     114.6        1.3325        0.0050       24.4400       24.4450      23.112547       0.01378
  18     136.5        1.3336        0.0059       24.4054       24.4113      23.077689       0.01340
  17     162.9        1.3351        0.0070       24.3644       24.3714      23.036361       0.01321
  16     196.4        1.3370        0.0084       24.3116       24.3200      22.983050       0.01342
  15     218.7        1.3383        0.0094       24.2771       24.2864      22.948189       0.01324
  14     243.0        1.3397        0.0104       24.2397       24.2501      22.910390       0.01311
  13     269.0        1.3413        0.0115       24.1993       24.2107      22.869477       0.01327
  12     297.5        1.3430        0.0127       24.1556       24.1683      22.825233       0.01312
  11     328.5        1.3450        0.0139       24.1084       24.1224      22.777352       0.01302
  10     361.9        1.3473        0.0153       24.0575       24.0729      22.725626       0.01309
   9     398.1        1.3498        0.0168       24.0026       24.0194      22.669601       0.01305
   8     437.6        1.3526        0.0184       23.9430       23.9614      22.608752       0.01301
   7     480.5        1.3559        0.0201       23.8783       23.8984      22.542536       0.01300
   6     533.0        1.3603        0.0222       23.7972       23.8194      22.459154       0.01341
   5     589.8        1.3655        0.0245       23.7068       23.7313      22.365799       0.01386
   4     651.6        1.3719        0.0269       23.6034       23.6303      22.258352       0.01469
   3     718.7        1.3802        0.0294       23.4831       23.5125      22.132366       0.01583
   2     792.3        1.3910        0.0321       23.3388       23.3710      21.979934       0.01748
   1     891.5        1.4103        0.0357       23.1128       23.1484      21.738110       0.02058
   0    1013.0        1.4429        0.0398       22.7908       22.8305      21.387632       0.02434



 Wavenumbers:  8050. - 12850. cm-1, ATM      1
 LEVEL PRESSURE   UPWARD FLUX   DIFDOWN FLUX  DIRDOWN FLUX  DOWNWARD FLUX   NET FLUX    HEATING RATE
          mb          W/m2          W/m2          W/m2        W/m2          W/m2       degree/day
  51    .06700       50.6138        0.0000      344.8128      344.8128     294.199054       0.00000
  50    .07753       50.6138        0.0000      344.8128      344.8128     294.199054       0.00000
  49    .09103       50.6137        0.0001      344.8127      344.8128     294.199054       0.00000
  48    0.1069       50.6137        0.0001      344.8127      344.8128     294.199054      -0.00000
  47    0.1255       50.6137        0.0001      344.8126      344.8127     294.199054      -0.00000
  46    0.1487       50.6137        0.0002      344.8125      344.8127     294.199054      -0.00000
  45    0.1794       50.6136        0.0003      344.8124      344.8127     294.199054       0.00000
  44    0.2165       50.6136        0.0004      344.8122      344.8126     294.199054       0.00000
  43    0.2613       50.6135        0.0005      344.8121      344.8125     294.199054      -0.00000
  42    0.3336       50.6134        0.0007      344.8118      344.8124     294.199054      -0.00000
  41    0.4307       50.6132        0.0009      344.8114      344.8123     294.199054       0.00000
  40    0.5894       50.6130        0.0013      344.8108      344.8120     294.199054       0.00000
  39     1.339       50.6119        0.0031      344.8078      344.8109     294.199054      -0.00000
  38     1.782       50.6112        0.0042      344.8061      344.8103     294.199054       0.00000
  37     2.292       50.6104        0.0054      344.8041      344.8095     294.199054      -0.00000
  36     2.964       50.6094        0.0071      344.8014      344.8085     294.199054       0.00000
  35     3.853       50.6081        0.0092      344.7979      344.8071     294.199054       0.00000
  34     5.035       50.6063        0.0121      344.7933      344.8054     294.199054       0.00000
  33     6.613       50.6039        0.0159      344.7871      344.8030     294.199054       0.00000
  32     8.786       50.6007        0.0211      344.7787      344.7998     294.199054      -0.00000
  31     11.80       50.5962        0.0285      344.7667      344.7952     294.199054       0.00000
  30     15.07       50.5912        0.0364      344.7539      344.7903     294.199054       0.00000
  29     18.79       50.5857        0.0454      344.7393      344.7847     294.199054      -0.00000
  28     23.16       50.5792        0.0560      344.7223      344.7782     294.199054       0.00000
  27     28.12       50.5717        0.0680      344.7028      344.7708     294.199054       0.00000
  26     33.73       50.5634        0.0815      344.6809      344.7624     294.199054      -0.00000
  25     40.54       50.5533        0.0978      344.6545      344.7523     294.199054       0.00000
  24     48.69       50.5410        0.1176      344.6225      344.7401     294.199054      -0.00000
  23     57.69       50.5276        0.1392      344.5874      344.7267     294.199054       0.00000
  22     68.43       50.5116        0.1651      344.5455      344.7106     294.199054       0.00000
  21     81.20       50.4924        0.1960      344.4955      344.6915     294.199054      -0.00000
  20     96.49       50.4696        0.2329      344.4358      344.6686     294.199054       0.00000
  19     114.6       50.4425        0.2767      344.3587      344.6354     294.192904       0.00287
  18     136.5       50.4103        0.3288      344.2667      344.5955     294.185248       0.00294
  17     162.9       50.3718        0.3910      344.1533      344.5443     294.172465       0.00409
  16     196.4       50.3218        0.4719      343.9892      344.4611     294.139326       0.00834
  15     218.7       50.2890        0.5251      343.8402      344.3653     294.076297       0.02393
  14     243.0       50.2537        0.5829      343.5933      344.1762     293.922562       0.05332
  13     269.0       50.2161        0.6454      343.1662      343.8116     293.595473       0.10611
  12     297.5       50.1771        0.7127      342.4819      343.1946     293.017492       0.17142
  11     328.5       50.1369        0.7852      341.5922      342.3773     292.240493       0.21126
  10     361.9       50.0965        0.8630      340.5080      341.3709     291.274469       0.24441
   9     398.1       50.0575        0.9461      339.1885      340.1347     290.077199       0.27894
   8     437.6       50.0228        1.0345      337.5272      338.5617     288.538936       0.32889
   7     480.5       49.9959        1.1279      335.4327      336.5606     286.564697       0.38773
   6     533.0       49.9823        1.2407      332.3652      333.6058     283.623549       0.47314
   5     589.8       50.0032        1.3585      328.3420      329.7005     279.697301       0.58278
   4     651.6       50.1011        1.4785      322.7671      324.2457     274.144608       0.75935
   3     718.7       50.3319        1.5996      315.5619      317.1615     266.829611       0.91929
   2     792.3       50.8231        1.7186      306.5104      308.2290     257.405856       1.08080
   1     891.5       52.1827        1.8613      292.9732      294.8345     242.651747       1.25550
   0    1013.0       56.0815        2.0125      276.3074      278.3199     222.238435       1.41740



 Wavenumbers: 12850. - 16000. cm-1, ATM      1
 LEVEL PRESSURE   UPWARD FLUX   DIFDOWN FLUX  DIRDOWN FLUX  DOWNWARD FLUX   NET FLUX    HEATING RATE
          mb          W/m2          W/m2          W/m2        W/m2          W/m2       degree/day
  51    .06700      102.7113        0.0000      216.0557      216.0557     113.344409       0.00000
  50    .07753      102.7113        0.0001      216.0548      216.0549     113.343609       0.64096
  49    .09103      102.7113        0.0002      216.0538      216.0539     113.342598       0.63198
  48    0.1069      102.7114        0.0003      216.0525      216.0528     113.341427       0.62327
  47    0.1255      102.7114        0.0004      216.0510      216.0515     113.340070       0.61524
  46    0.1487      102.7115        0.0006      216.0492      216.0498     113.338340       0.63065
  45    0.1794      102.7116        0.0008      216.0467      216.0475     113.335957       0.65420
  44    0.2165      102.7117        0.0011      216.0438      216.0448     113.333112       0.64718
  43    0.2613      102.7119        0.0014      216.0403      216.0416     113.329710       0.64112
  42    0.3336      102.7123        0.0019      216.0345      216.0364     113.324038       0.66137
  41    0.4307      102.7130        0.0026      216.0269      216.0295     113.316497       0.65566
  40    0.5894      102.7142        0.0037      216.0146      216.0184     113.304127       0.65780
  39     1.339      102.7240        0.0090      215.9584      215.9674     113.243354       0.68420
  38     1.782      102.7326        0.0121      215.9258      215.9380     113.205358       0.72339
  37     2.292      102.7452        0.0158      215.8879      215.9037     113.158449       0.77692
  36     2.964      102.7659        0.0205      215.8370      215.8575     113.091662       0.83838
  35     3.853      102.7988        0.0268      215.7678      215.7946     112.995765       0.91009
  34     5.035      102.8483        0.0351      215.6752      215.7103     112.862012       0.95547
  33     6.613      102.9172        0.0462      215.5548      215.6010     112.683725       0.95312
  32     8.786      103.0071        0.0612      215.4027      215.4638     112.456700       0.88168
  31     11.80      103.1245        0.0826      215.2043      215.2869     112.162356       0.82407
  30     15.07      103.2375        0.1056      215.0098      215.1154     111.877912       0.73438
  29     18.79      103.3534        0.1316      214.8056      214.9371     111.583753       0.66695
  28     23.16      103.4752        0.1619      214.5841      214.7460     111.270768       0.60521
  27     28.12      103.5988        0.1966      214.3504      214.5470     110.948207       0.54833
  26     33.73      103.7144        0.2355      214.1164      214.3519     110.637479       0.46719
  25     40.54      103.8280        0.2825      213.8655      214.1480     110.320074       0.39378
  24     48.69      103.9394        0.3393      213.5943      213.9336     109.994183       0.33725
  23     57.69      104.0372        0.4017      213.3269      213.7286     109.691479       0.28374
  22     68.43      104.1269        0.4762      213.0419      213.5181     109.391243       0.23603
  21     81.20      104.1972        0.5651      212.7488      213.3140     109.116767       0.18137
  20     96.49      104.2471        0.6713      212.4447      213.1160     108.868927       0.13679
  19     114.6      104.3053        0.7989      212.1101      212.9090     108.603744       0.12382
  18     136.5      104.3594        0.9503      211.7382      212.6886     108.329171       0.10558
  17     162.9      104.4102        1.1309      211.3198      212.4506     108.040454       0.09229
  16     196.4      104.4472        1.3654      210.8156      212.1810     107.733811       0.07719
  15     218.7      104.4611        1.5197      210.4965      212.0161     107.555021       0.06788
  14     243.0      104.4720        1.6876      210.1519      211.8395     107.367519       0.06503
  13     269.0      104.4798        1.8697      209.7781      211.6478     107.167977       0.06473
  12     297.5      104.4856        2.0668      209.3683      211.4352     106.949625       0.06476
  11     328.5      104.4921        2.2801      208.9170      211.1972     106.705056       0.06650
  10     361.9      104.5008        2.5101      208.4189      210.9290     106.428222       0.07004
   9     398.1      104.5140        2.7579      207.8679      210.6259     106.111893       0.07370
   8     437.6      104.5359        3.0245      207.2544      210.2788     105.742973       0.07888
   7     480.5      104.5708        3.3105      206.5713      209.8818     105.311002       0.08484
   6     533.0      104.6360        3.6629      205.6883      209.3512     104.715176       0.09585
   5     589.8      104.7481        4.0428      204.6670      208.7097     103.961606       0.11185
   4     651.6      104.9541        4.4499      203.4324      207.8823     102.928188       0.14132
   3     718.7      105.2882        4.8830      201.9561      206.8391     101.550868       0.17309
   2     792.3      105.8555        5.3384      200.1346      205.4730      99.617507       0.22173
   1     891.5      107.1371        5.9352      197.2502      203.1854      96.048373       0.30372
   0    1013.0      109.8287        6.6260      193.2807      199.9066      90.077933       0.41456



 Wavenumbers: 16000. - 22650. cm-1, ATM      1
 LEVEL PRESSURE   UPWARD FLUX   DIFDOWN FLUX  DIRDOWN FLUX  DOWNWARD FLUX   NET FLUX    HEATING RATE
          mb          W/m2          W/m2          W/m2        W/m2          W/m2       degree/day
  51    .06700      253.2838        0.0000      344.4769      344.4769      91.193131       0.00000
  50    .07753      253.2839        0.0005      344.4763      344.4769      91.192930       0.16069
  49    .09103      253.2841        0.0012      344.4756      344.4768      91.192639       0.18226
  48    0.1069      253.2844        0.0019      344.4748      344.4767      91.192248       0.20783
  47    0.1255      253.2848        0.0028      344.4737      344.4765      91.191726       0.23690
  46    0.1487      253.2853        0.0039      344.4724      344.4762      91.190955       0.28073
  45    0.1794      253.2861        0.0053      344.4705      344.4758      91.189751       0.33054
  44    0.2165      253.2871        0.0071      344.4682      344.4752      91.188118       0.37149
  43    0.2613      253.2885        0.0092      344.4653      344.4744      91.185903       0.41765
  42    0.3336      253.2912        0.0126      344.4603      344.4729      91.181690       0.49115
  41    0.4307      253.2952        0.0171      344.4534      344.4705      91.175340       0.55212
  40    0.5894      253.3027        0.0246      344.4414      344.4659      91.163229       0.64404
  39     1.339      253.3571        0.0597      344.3711      344.4308      91.073739       1.00750
  38     1.782      253.4029        0.0804      344.3200      344.4004      90.997486       1.45173
  37     2.292      253.4689        0.1043      344.2517      344.3560      90.887082       1.82857
  36     2.964      253.5755        0.1357      344.1480      344.2837      90.708164       2.24596
  35     3.853      253.7444        0.1772      343.9913      344.1685      90.424108       2.69575
  34     5.035      253.9963        0.2322      343.7640      343.9963      89.999967       3.02989
  33     6.613      254.3470        0.3058      343.4511      343.7569      89.409843       3.15480
  32     8.786      254.8051        0.4048      343.0410      343.4459      88.640756       2.98686
  31     11.80      255.4060        0.5465      342.4947      343.0412      87.635235       2.81514
  30     15.07      255.9877        0.6987      341.9547      342.6534      86.665728       2.50308
  29     18.79      256.5876        0.8706      341.3868      342.2574      85.669773       2.25814
  28     23.16      257.2224        1.0714      340.7717      341.8431      84.620734       2.02850
  27     28.12      257.8711        1.3011      340.1241      341.4252      83.554116       1.81318
  26     33.73      258.4863        1.5584      339.4775      341.0360      82.549681       1.51020
  25     40.54      259.1012        1.8697      338.7859      340.6556      81.554395       1.23476
  24     48.69      259.7178        2.2454      338.0389      340.2842      80.566428       1.02239
  23     57.69      260.2743        2.6585      337.3015      339.9600      79.685705       0.82555
  22     68.43      260.8067        3.1512      336.5123      339.6635      78.856787       0.65164
  21     81.20      261.2621        3.7393      335.6921      339.4314      78.169301       0.45428
  20     96.49      261.6385        4.4413      334.8256      339.2670      77.628432       0.29852
  19     114.6      261.9984        5.2751      333.8560      339.1312      77.132738       0.23145
  18     136.5      262.3660        6.2632      332.7466      339.0098      76.643742       0.18803
  17     162.9      262.7493        7.4392      331.4625      338.9016      76.152366       0.15706
  16     196.4      263.1297        8.9642      329.8743      338.8385      75.708796       0.11165
  15     218.7      263.3359        9.9654      328.8601      338.8255      75.489565       0.08323
  14     243.0      263.5392       11.0531      327.7715      338.8246      75.285428       0.07080
  13     269.0      263.7375       12.2313      326.6061      338.8374      75.099917       0.06018
  12     297.5      263.9306       13.5039      325.3603      338.8642      74.933664       0.04931
  11     328.5      264.1279       14.8782      324.0212      338.8994      74.771409       0.04412
  10     361.9      264.3295       16.3569      322.5859      338.9428      74.613348       0.03999
   9     398.1      264.5361       17.9473      321.0470      338.9943      74.458191       0.03615
   8     437.6      264.7506       19.6542      319.3978      339.0520      74.301346       0.03353
   7     480.5      264.9733       21.4826      317.6330      339.1156      74.142321       0.03123
   6     533.0      265.2415       23.7321      315.4613      339.1934      73.951899       0.03063
   5     589.8      265.5311       26.1559      313.1151      339.2710      73.739826       0.03148
   4     651.6      265.8557       28.7608      310.5763      339.3371      73.481431       0.03534
   3     718.7      266.2287       31.5549      307.8270      339.3819      73.153278       0.04124
   2     792.3      266.6834       34.5412      304.8404      339.3817      72.698302       0.05218
   1     891.5      267.4397       38.5595      300.7148      339.2743      71.834667       0.07349
   0    1013.0      268.5864       43.3647      295.6311      338.9959      70.409444       0.09896



 Wavenumbers: 22650. - 29000. cm-1, ATM      1
 LEVEL PRESSURE   UPWARD FLUX   DIFDOWN FLUX  DIRDOWN FLUX  DOWNWARD FLUX   NET FLUX    HEATING RATE
          mb          W/m2          W/m2          W/m2        W/m2          W/m2       degree/day
  51    .06700      109.1491        0.0000      129.9930      129.9930      20.843940       0.00000
  50    .07753      109.1492        0.0006      129.9925      129.9931      20.843940       0.00000
  49    .09103      109.1493        0.0014      129.9918      129.9932      20.843940      -0.00000
  48    0.1069      109.1494        0.0023      129.9910      129.9933      20.843940       0.00000
  47    0.1255      109.1495        0.0033      129.9901      129.9934      20.843940      -0.00000
  46    0.1487      109.1496        0.0046      129.9889      129.9936      20.843940       0.00000
  45    0.1794      109.1498        0.0064      129.9874      129.9938      20.843940       0.00000
  44    0.2165      109.1501        0.0085      129.9855      129.9940      20.843940      -0.00000
  43    0.2613      109.1504        0.0110      129.9833      129.9943      20.843940       0.00000
  42    0.3336      109.1509        0.0152      129.9796      129.9948      20.843940       0.00000
  41    0.4307      109.1515        0.0207      129.9747      129.9954      20.843940      -0.00000
  40    0.5894      109.1525        0.0297      129.9668      129.9965      20.843940       0.00000
  39     1.339      109.1574        0.0721      129.9292      130.0013      20.843940       0.00000
  38     1.782      109.1602        0.0971      129.9071      130.0042      20.843940       0.00000
  37     2.292      109.1636        0.1259      129.8815      130.0075      20.843940      -0.00000
  36     2.964      109.1679        0.1639      129.8480      130.0118      20.843940       0.00000
  35     3.853      109.1736        0.2139      129.8036      130.0176      20.843940      -0.00000
  34     5.035      109.1813        0.2805      129.7447      130.0252      20.843940       0.00000
  33     6.613      109.1914        0.3694      129.6660      130.0354      20.843940      -0.00000
  32     8.786      109.2051        0.4892      129.5599      130.0491      20.843940       0.00000
  31     11.80      109.2247        0.6605      129.4082      130.0687      20.843940      -0.00000
  30     15.07      109.2457        0.8444      129.2453      130.0897      20.843940       0.00000
  29     18.79      109.2694        1.0520      129.0613      130.1133      20.843940       0.00000
  28     23.16      109.2970        1.2944      128.8465      130.1409      20.843940      -0.00000
  27     28.12      109.3285        1.5714      128.6010      130.1724      20.843940      -0.00000
  26     33.73      109.3636        1.8810      128.3266      130.2076      20.843940      -0.00000
  25     40.54      109.4059        2.2546      127.9953      130.2499      20.843940       0.00000
  24     48.69      109.4567        2.7042      127.5965      130.3007      20.843940       0.00000
  23     57.69      109.5122        3.1969      127.1593      130.3561      20.843940      -0.00000
  22     68.43      109.5779        3.7821      126.6397      130.4218      20.843940       0.00000
  21     81.20      109.6555        4.4770      126.0224      130.4994      20.843940      -0.00000
  20     96.49      109.7471        5.3015      125.2896      130.5911      20.843940       0.00000
  19     114.6      109.8547        6.2752      124.4234      130.6986      20.843940       0.00000
  18     136.5      109.9804        7.4219      123.4024      130.8244      20.843940      -0.00000
  17     162.9      110.1276        8.7768      122.1947      130.9715      20.843940      -0.00000
  16     196.4      110.3144       10.5165      120.6419      131.1583      20.843940       0.00000
  15     218.7      110.4346       11.6482      119.6303      131.2785      20.843940       0.00000
  14     243.0      110.5630       12.8690      118.5379      131.4069      20.843940      -0.00000
  13     269.0      110.6995       14.1811      117.3624      131.5434      20.843940       0.00000
  12     297.5      110.8440       15.5861      116.1018      131.6879      20.843940      -0.00000
  11     328.5      110.9966       17.0900      114.7505      131.8405      20.843940       0.00000
  10     361.9      111.1569       18.6925      113.3083      132.0008      20.843940       0.00000
   9     398.1      111.3247       20.3981      111.7705      132.1686      20.843940       0.00000
   8     437.6      111.4996       22.2082      110.1353      132.3435      20.843940      -0.00000
   7     480.5      111.6809       24.1238      108.4010      132.5248      20.843940      -0.00000
   6     533.0      111.8954       26.4477      106.2917      132.7393      20.843940       0.00000
   5     589.8      112.1160       28.9117      104.0483      132.9600      20.843940      -0.00000
   4     651.6      112.3411       31.5151      101.6700      133.1850      20.843940       0.00000
   3     718.7      112.5687       34.2568       99.1558      133.4126      20.843940       0.00000
   2     792.3      112.7962       37.1318       96.5083      133.6402      20.843940      -0.00000
   1     891.5      113.0768       40.9143       93.0064      133.9207      20.843940      -0.00000
   0    1013.0      113.3733       45.3091       88.9082      134.2173      20.843940       0.00000



 Wavenumbers: 29000. - 38000. cm-1, ATM      1
 LEVEL PRESSURE   UPWARD FLUX   DIFDOWN FLUX  DIRDOWN FLUX  DOWNWARD FLUX   NET FLUX    HEATING RATE
          mb          W/m2          W/m2          W/m2        W/m2          W/m2       degree/day
  51    .06700       17.1653        0.0000       45.8410       45.8410      28.675649       0.00000
  50    .07753       17.1652        0.0004       45.8366       45.8370      28.671821       3.06839
  49    .09103       17.1651        0.0008       45.8305       45.8313      28.666249       3.48308
  48    0.1069       17.1649        0.0014       45.8223       45.8237      28.658782       3.97452
  47    0.1255       17.1648        0.0020       45.8116       45.8136      28.648785       4.53212
  46    0.1487       17.1646        0.0028       45.7959       45.7987      28.634053       5.37003
  45    0.1794       17.1645        0.0039       45.7716       45.7755      28.611046       6.31587
  44    0.2165       17.1643        0.0051       45.7391       45.7442      28.579911       7.08262
  43    0.2613       17.1642        0.0066       45.6954       45.7020      28.537819       7.93417
  42    0.3336       17.1641        0.0091       45.6134       45.6225      28.458349       9.26542
  41    0.4307       17.1642        0.0123       45.4920       45.5043      28.340074      10.28380
  40    0.5894       17.1647        0.0175       45.2670       45.2845      28.119718      11.71823
  39     1.339       17.1747        0.0403       43.8242       43.8645      26.689805      16.09823
  38     1.782       17.1854        0.0525       42.8351       42.8876      25.702152      18.80332
  37     2.292       17.2020        0.0657       41.6852       41.7510      24.548947      19.10007
  36     2.964       17.2302        0.0823       40.2943       40.3766      23.146342      17.60693
  35     3.853       17.2764        0.1032       38.7687       38.8719      21.595497      14.71781
  34     5.035       17.3466        0.1302       37.2304       37.3606      20.013946      11.29794
  33     6.613       17.4458        0.1653       35.7405       35.9058      18.460009       8.30735
  32     8.786       17.5771        0.2117       34.3295       34.5412      16.964095       5.80959
  31     11.80       17.7527        0.2771       32.9481       33.2251      15.472401       4.17627
  30     15.07       17.9277        0.3464       31.8942       32.2406      14.312893       2.99362
  29     18.79       18.1139        0.4235       30.9854       31.4089      13.294970       2.30794
  28     23.16       18.3188        0.5126       30.1559       30.6685      12.349701       1.82784
  27     28.12       18.5375        0.6137       29.4043       30.0180      11.480504       1.47758
  26     33.73       18.7539        0.7269       28.7514       29.4784      10.724428       1.13678
  25     40.54       18.9793        0.8639       28.1328       28.9967      10.017431       0.87711
  24     48.69       19.2156        1.0291       27.5340       28.5631       9.347526       0.69325
  23     57.69       19.4381        1.2105       26.9971       28.2076       8.769513       0.54180
  22     68.43       19.6591        1.4270       26.4694       27.8963       8.237258       0.41842
  21     81.20       19.8522        1.6871       25.9669       27.6540       7.801746       0.28778
  20     96.49       20.0123        1.9990       25.4748       27.4738       7.461515       0.18778
  19     114.6       20.1662        2.3663       24.9506       27.3169       7.150793       0.14509
  18     136.5       20.3254        2.7948       24.3745       27.1692       6.843851       0.11803
  17     162.9       20.4943        3.2961       23.7328       27.0290       6.534645       0.09883
  16     196.4       20.6595        3.9381       22.9761       26.9142       6.254710       0.07046
  15     218.7       20.7468        4.3515       22.5089       26.8603       6.113553       0.05359
  14     243.0       20.8317        4.7932       22.0192       26.8123       5.980649       0.04610
  13     269.0       20.9122        5.2634       21.5077       26.7711       5.858947       0.03948
  12     297.5       20.9873        5.7619       20.9749       26.7368       5.749571       0.03244
  11     328.5       21.0615        6.2879       20.4165       26.7043       5.642799       0.02903
  10     361.9       21.1343        6.8398       19.8338       26.6736       5.539258       0.02620
   9     398.1       21.2050        7.4176       19.2267       26.6442       5.439193       0.02331
   8     437.6       21.2741        8.0194       18.5955       26.6149       5.340841       0.02103
   7     480.5       21.3402        8.6440       17.9419       26.5859       5.245685       0.01869
   6     533.0       21.4119        9.3848       17.1671       26.5519       5.139942       0.01701
   5     589.8       21.4793       10.1482       16.3664       26.5146       5.035238       0.01554
   4     651.6       21.5421       10.9308       15.5420       26.4728       4.930741       0.01429
   3     718.7       21.5989       11.7280       14.6973       26.4253       4.826346       0.01312
   2     792.3       21.6483       12.5328       13.8375       26.3703       4.722047       0.01196
   1     891.5       21.6984       13.5454       12.7437       26.2891       4.590721       0.01118
   0    1013.0       21.7359       14.6499       11.5285       26.1784       4.442478       0.01029



 Wavenumbers: 38000. - 50000. cm-1, ATM      1
 LEVEL PRESSURE   UPWARD FLUX   DIFDOWN FLUX  DIRDOWN FLUX  DOWNWARD FLUX   NET FLUX    HEATING RATE
          mb          W/m2          W/m2          W/m2        W/m2          W/m2       degree/day
  51    .06700        0.0077        0.0000        2.8274        2.8274       2.819732       0.00000
  50    .07753        0.0076        0.0001        2.8250        2.8250       2.817394       1.87426
  49    .09103        0.0076        0.0002        2.8215        2.8216       2.814052       2.08853
  48    0.1069        0.0075        0.0003        2.8169        2.8172       2.809652       2.34203
  47    0.1255        0.0074        0.0004        2.8109        2.8113       2.803854       2.62885
  46    0.1487        0.0073        0.0005        2.8022        2.8027       2.795433       3.06948
  45    0.1794        0.0072        0.0007        2.7889        2.7896       2.782446       3.56531
  44    0.2165        0.0070        0.0009        2.7712        2.7721       2.765088       3.94851
  43    0.2613        0.0068        0.0012        2.7476        2.7487       2.741916       4.36792
  42    0.3336        0.0065        0.0015        2.7038        2.7053       2.698800       5.02689
  41    0.4307        0.0062        0.0020        2.6399        2.6419       2.635738       5.48307
  40    0.5894        0.0056        0.0027        2.5241        2.5268       2.521231       6.08937
  39     1.339        0.0038        0.0042        1.8543        1.8585       1.854685       7.50409
  38     1.782        0.0031        0.0041        1.4655        1.4696       1.466513       7.39018
  37     2.292        0.0024        0.0036        1.0872        1.0908       1.088339       6.26353
  36     2.964        0.0019        0.0030        0.7358        0.7388       0.736859       4.41214
  35     3.853        0.0015        0.0024        0.4711        0.4735       0.472010       2.51347
  34     5.035        0.0012        0.0019        0.2988        0.3008       0.299620       1.23148
  33     6.613        0.0009        0.0016        0.1889        0.1905       0.189608       0.58813
  32     8.786        0.0007        0.0013        0.1196        0.1208       0.120133       0.26981
  31     11.80        0.0005        0.0010        0.0741        0.0751       0.074563       0.12758
  30     15.07        0.0004        0.0008        0.0493        0.0501       0.049700       0.06419
  29     18.79        0.0003        0.0006        0.0330        0.0336       0.033348       0.03707
  28     23.16        0.0002        0.0004        0.0217        0.0221       0.021940       0.02206
  27     28.12        0.0001        0.0003        0.0140        0.0144       0.014212       0.01314
  26     33.73        0.0001        0.0002        0.0091        0.0093       0.009223       0.00750
  25     40.54        0.0001        0.0002        0.0057        0.0059       0.005793       0.00426
  24     48.69        0.0000        0.0001        0.0034        0.0035       0.003483       0.00239
  23     57.69        0.0000        0.0001        0.0020        0.0021       0.002088       0.00131
  22     68.43        0.0000        0.0000        0.0012        0.0012       0.001190       0.00071
  21     81.20        0.0000        0.0000        0.0006        0.0007       0.000647       0.00036
  20     96.49        0.0000        0.0000        0.0003        0.0003       0.000330       0.00018
  19     114.6        0.0000        0.0000        0.0001        0.0002       0.000151       0.00008
  18     136.5        0.0000        0.0000        0.0001        0.0001       0.000060       0.00003
  17     162.9        0.0000        0.0000        0.0000        0.0000       0.000020       0.00001
  16     196.4        0.0000        0.0000        0.0000        0.0000       0.000005       0.00000
  15     218.7        0.0000        0.0000        0.0000        0.0000       0.000002       0.00000
  14     243.0        0.0000        0.0000        0.0000        0.0000       0.000001       0.00000
  13     269.0        0.0000        0.0000        0.0000        0.0000       0.000000       0.00000
  12     297.5        0.0000        0.0000        0.0000        0.0000       0.000000       0.00000
  11     328.5        0.0000        0.0000        0.0000        0.0000       0.000000       0.00000
  10     361.9        0.0000        0.0000        0.0000        0.0000       0.000000       0.00000
   9     398.1        0.0000        0.0000        0.0000        0.0000       0.000000       0.00000
   8     437.6        0.0000        0.0000        0.0000        0.0000       0.000000       0.00000
   7     480.5        0.0000        0.0000        0.0000        0.0000       0.000000       0.00000
   6     533.0        0.0000        0.0000        0.0000        0.0000       0.000000       0.00000
   5     589.8        0.0000        0.0000        0.0000        0.0000       0.000000       0.00000
   4     651.6        0.0000        0.0000        0.0000        0.0000       0.000000       0.00000
   3     718.7        0.0000        0.0000        0.0000        0.0000       0.000000       0.00000
   2     792.3        0.0000        0.0000        0.0000        0.0000       0.000000       0.00000
   1     891.5        0.0000        0.0000        0.0000        0.0000       0.000000       0.00000
   0    1013.0        0.0000        0.0000        0.0000        0.0000       0.000000       0.00000



 Wavenumbers:   820. -  2600. cm-1, ATM      1
 LEVEL PRESSURE   UPWARD FLUX   DIFDOWN FLUX  DIRDOWN FLUX  DOWNWARD FLUX   NET FLUX    HEATING RATE
          mb          W/m2          W/m2          W/m2        W/m2          W/m2       degree/day
  51    .06700        0.1866        0.0000       13.2264       13.2264      13.039825       0.00000
  50    .07753        0.1866        0.0000       13.2194       13.2194      13.032803       5.62795
  49    .09103        0.1866        0.0000       13.2178       13.2178      13.031228       0.98409
  48    0.1069        0.1866        0.0000       13.2167       13.2167      13.030102       0.59956
  47    0.1255        0.1866        0.0000       13.2154       13.2154      13.028811       0.58515
  46    0.1487        0.1866        0.0000       13.2137       13.2137      13.027154       0.60401
  45    0.1794        0.1866        0.0000       13.2114       13.2114      13.024895       0.62011
  44    0.2165        0.1866        0.0000       13.2088       13.2088      13.022277       0.59556
  43    0.2613        0.1866        0.0000       13.2059       13.2059      13.019297       0.56188
  42    0.3336        0.1866        0.0000       13.2013       13.2013      13.014733       0.53209
  41    0.4307        0.1866        0.0000       13.1959       13.1959      13.009362       0.46695
  40    0.5894        0.1866        0.0000       13.1882       13.1882      13.001671       0.40902
  39     1.339        0.1866        0.0000       13.1557       13.1557      12.969135       0.36629
  38     1.782        0.1866        0.0000       13.1371       13.1371      12.950548       0.35387
  37     2.292        0.1866        0.0000       13.1162       13.1162      12.929602       0.34693
  36     2.964        0.1866        0.0000       13.0894       13.0894      12.902847       0.33585
  35     3.853        0.1866        0.0000       13.0549       13.0549      12.868346       0.32742
  34     5.035        0.1866        0.0000       13.0106       13.0106      12.824042       0.31649
  33     6.613        0.1866        0.0000       12.9545       12.9545      12.767924       0.30000
  32     8.786        0.1866        0.0000       12.8834       12.8834      12.696796       0.27624
  31     11.80        0.1866        0.0000       12.7885       12.7885      12.601894       0.26570
  30     15.07        0.1866        0.0000       12.6943       12.6944      12.507787       0.24297
  29     18.79        0.1866        0.0000       12.5999       12.5999      12.413329       0.21417
  28     23.16        0.1866        0.0000       12.5086       12.5086      12.322058       0.17649
  27     28.12        0.1866        0.0000       12.4288       12.4289      12.242280       0.13562
  26     33.73        0.1866        0.0000       12.3650       12.3650      12.178436       0.09599
  25     40.54        0.1866        0.0000       12.3120       12.3120      12.125415       0.06578
  24     48.69        0.1866        0.0000       12.2668       12.2668      12.080262       0.04673
  23     57.69        0.1866        0.0000       12.2260       12.2260      12.039410       0.03829
  22     68.43        0.1866        0.0000       12.1803       12.1803      11.993666       0.03596
  21     81.20        0.1866        0.0000       12.1270       12.1270      11.940416       0.03519
  20     96.49        0.1866        0.0000       12.0640       12.0640      11.877354       0.03481
  19     114.6        0.1866        0.0000       11.9885       11.9885      11.801917       0.03522
  18     136.5        0.1866        0.0000       11.8987       11.8988      11.712110       0.03453
  17     162.9        0.1867        0.0000       11.7817       11.7818      11.595076       0.03741
  16     196.4        0.1867        0.0000       11.5930       11.5930      11.406282       0.04752
  15     218.7        0.1868        0.0000       11.4055       11.4056      11.218798       0.07118
  14     243.0        0.1868        0.0000       11.1045       11.1045      10.917681       0.10444
  13     269.0        0.1869        0.0000       10.6901       10.6901      10.503167       0.13447
  12     297.5        0.1871        0.0000       10.2200       10.2201      10.032938       0.13946
  11     328.5        0.1874        0.0000        9.8187        9.8187       9.631372       0.10918
  10     361.9        0.1877        0.0000        9.4313        9.4313       9.243661       0.09809
   9     398.1        0.1881        0.0000        8.9858        8.9858       8.797692       0.10390
   8     437.6        0.1886        0.0000        8.4654        8.4654       8.276802       0.11137
   7     480.5        0.1893        0.0000        7.9394        7.9395       7.750168       0.10343
   6     533.0        0.1903        0.0000        7.4262        7.4262       7.235842       0.08274
   5     589.8        0.1919        0.0000        7.0503        7.0503       6.858452       0.05602
   4     651.6        0.1946        0.0000        6.7312        6.7313       6.536664       0.04401
   3     718.7        0.1992        0.0000        6.3693        6.3693       6.170070       0.04607
   2     792.3        0.2077        0.0000        5.9171        5.9172       5.709470       0.05283
   1     891.5        0.2294        0.0000        5.2716        5.2716       5.042176       0.05678
   0    1013.0        0.2889        0.0000        4.5136        4.5136       4.224754       0.05676

  Modules and versions used in this calculation:

       rrtmg_sw.1col.f90:  $Revision$                    rrtmg_sw_init.f90:  $Revision$        
     rrtmgsw_cldprop.f90:  $Revision$                  rrtmgsw_cldprmc.f90:  NOT USED          
     rrtmg_sw_reftra.f90:  $Revision$                  rrtmg_sw_spcvrt.f90:  NOT USED          
     rrtmg_sw_spcvmc.f90:  NOT USED                    rrtmgsw_setcoef.f90:  NOT USED          
     rrtmg_sw_taumol.f90:  $Revision$                  rrtmg_sw_vrtqdr.f90:  NOT USED          
                rrtatm.f:  NOT USED                             util_xxx.f:  NOT USED          
                 extra.f:  NOT USED                       rrtmg_sw_k_g.f90:  $Revision$        

