

 Wavenumbers:   820. - 50000. cm-1, ATM      1
 LEVEL PRESSURE   UPWARD FLUX   DIFDOWN FLUX  DIRDOWN FLUX  DOWNWARD FLUX   NET FLUX    HEATING RATE
          mb          W/m2          W/m2          W/m2        W/m2          W/m2       degree/day
  51    .06700      167.4511        0.0000     1360.8491     1360.8491    1193.397997       0.00000
  50    .07753      167.4505        0.0011     1360.8273     1360.8284    1193.377915      16.09581
  49    .09103      167.4496        0.0025     1360.8078     1360.8103    1193.360636      10.79979
  48    0.1069      167.4487        0.0041     1360.7860     1360.7901    1193.341398      10.24082
  47    0.1255      167.4476        0.0059     1360.7600     1360.7659    1193.318301      10.47115
  46    0.1487      167.4463        0.0082     1360.7249     1360.7331    1193.286823      11.47397
  45    0.1794      167.4445        0.0114     1360.6734     1360.6848    1193.240306      12.76995
  44    0.2165      167.4425        0.0151     1360.6074     1360.6225    1193.180014      13.71536
  43    0.2613      167.4401        0.0195     1360.5219     1360.5415    1193.101342      14.82939
  42    0.3336      167.4364        0.0268     1360.3673     1360.3941    1192.957715      16.74543
  41    0.4307      167.4316        0.0363     1360.1456     1360.1820    1192.750343      18.03060
  40    0.5894      167.4242        0.0517     1359.7482     1359.8000    1192.375711      19.92244
  39     1.339      167.3973        0.1212     1357.3733     1357.4945    1190.097209      25.65179
  38     1.782      167.3867        0.1598     1355.8375     1355.9973    1188.610544      28.30371
  37     2.292      167.3790        0.2033     1354.1208     1354.3241    1186.945100      27.58409
  36     2.964      167.3758        0.2595     1352.1205     1352.3801    1185.004215      24.36397
  35     3.853      167.3812        0.3331     1349.9734     1350.3066    1182.925401      19.72833
  34     5.035      167.3977        0.4303     1347.7761     1348.2064    1180.808671      15.12104
  33     6.613      167.4253        0.5593     1345.5290     1346.0883    1178.663012      11.47070
  32     8.786      167.4594        0.7324     1343.2079     1343.9403    1176.480855       8.47471
  31     11.80      167.4940        0.9788     1340.6494     1341.6282    1174.134257       6.56973
  30     15.07      167.5145        1.2421     1338.4304     1339.6725    1172.158060       5.10216
  29     18.79      167.5231        1.5380     1336.2864     1337.8245    1170.301373       4.20968
  28     23.16      167.5164        1.8821     1334.1057     1335.9878    1168.471379       3.53862
  27     28.12      167.4887        2.2739     1331.9136     1334.1875    1166.698798       3.01327
  26     33.73      167.4260        2.7115     1329.7853     1332.4969    1165.070929       2.44755
  25     40.54      167.3115        3.2390     1327.5375     1330.7764    1163.464984       1.99236
  24     48.69      167.1354        3.8728     1325.1261     1328.9989    1161.863559       1.65722
  23     57.69      166.9036        4.5665     1322.7388     1327.3053    1160.401723       1.37025
  22     68.43      166.5839        5.3898     1320.1544     1325.5441    1158.960286       1.13316
  21     81.20      166.1385        6.3681     1317.3916     1323.7597    1157.621208       0.88484
  20     96.49      165.5448        7.5292     1314.3811     1321.9104    1156.365593       0.69301
  19     114.6      164.8068        8.8962     1310.9471     1319.8433    1155.036499       0.62059
  18     136.5      163.9050       10.4974     1306.9977     1317.4951    1153.590184       0.55614
  17     162.9      162.8036       12.3781     1302.3518     1314.7300    1151.926339       0.53183
  16     196.4      161.3187       14.7807     1296.2678     1311.0485    1149.729732       0.55291
  15     218.7      160.3192       16.3331     1291.7724     1308.1056    1147.786398       0.73781
  14     243.0      159.2184       17.9980     1286.1481     1304.1460    1144.927684       0.99150
  13     269.0      158.0101       19.7758     1279.0245     1298.8003    1140.790177       1.34219
  12     297.5      156.6894       21.6663     1270.1087     1291.7749    1135.085486       1.69195
  11     328.5      155.2494       23.6729     1260.1713     1283.8441    1128.594707       1.76482
  10     361.9      153.6857       25.7916     1249.4297     1275.2213    1121.535656       1.78601
   9     398.1      151.9896       28.0239     1237.6382     1265.6620    1113.672395       1.83196
   8     437.6      150.1580       30.3654     1224.3920     1254.7574    1104.599416       1.93986
   7     480.5      148.1861       32.8122     1209.7358     1242.5481    1094.361972       2.01060
   6     533.0      145.7563       35.7354     1191.2571     1226.9925    1081.236199       2.11152
   5     589.8      143.1570       38.7757     1170.7333     1209.5090    1066.352075       2.20929
   4     651.6      140.4496       41.9150     1147.0297     1188.9447    1048.495093       2.44199
   3     718.7      137.7162       45.1348     1120.8952     1166.0299    1028.313788       2.53623
   2     792.3      135.1777       48.4035     1092.1619     1140.5653    1005.387665       2.62937
   1     891.5      132.9573       52.5213     1053.3991     1105.9204     972.963114       2.75917
   0    1013.0      134.6125       57.0249     1008.4859     1065.5108     930.898308       2.92078



 Wavenumbers:  2600. -  3250. cm-1, ATM      1
 LEVEL PRESSURE   UPWARD FLUX   DIFDOWN FLUX  DIRDOWN FLUX  DOWNWARD FLUX   NET FLUX    HEATING RATE
          mb          W/m2          W/m2          W/m2        W/m2          W/m2       degree/day
  51    .06700        0.8897        0.0000       11.9937       11.9937      11.104037       0.00000
  50    .07753        0.8897        0.0000       11.9937       11.9937      11.104029       0.00640
  49    .09103        0.8897        0.0000       11.9937       11.9937      11.104019       0.00627
  48    0.1069        0.8897        0.0000       11.9937       11.9937      11.104007       0.00613
  47    0.1255        0.8897        0.0000       11.9937       11.9937      11.103994       0.00600
  46    0.1487        0.8897        0.0000       11.9937       11.9937      11.103977       0.00608
  45    0.1794        0.8897        0.0000       11.9936       11.9936      11.103955       0.00625
  44    0.2165        0.8897        0.0000       11.9936       11.9936      11.103928       0.00613
  43    0.2613        0.8897        0.0000       11.9936       11.9936      11.103896       0.00601
  42    0.3336        0.8897        0.0000       11.9935       11.9935      11.103843       0.00619
  41    0.4307        0.8897        0.0000       11.9935       11.9935      11.103771       0.00622
  40    0.5894        0.8897        0.0000       11.9933       11.9933      11.103651       0.00640
  39     1.339        0.8897        0.0000       11.9926       11.9926      11.102934       0.00806
  38     1.782        0.8897        0.0000       11.9921       11.9921      11.102379       0.01057
  37     2.292        0.8897        0.0000       11.9913       11.9913      11.101639       0.01226
  36     2.964        0.8897        0.0000       11.9902       11.9902      11.100549       0.01368
  35     3.853        0.8897        0.0000       11.9886       11.9886      11.098965       0.01504
  34     5.035        0.8897        0.0000       11.9864       11.9864      11.096691       0.01624
  33     6.613        0.8897        0.0000       11.9832       11.9832      11.093475       0.01719
  32     8.786        0.8897        0.0000       11.9787       11.9787      11.088991       0.01742
  31     11.80        0.8897        0.0000       11.9722       11.9722      11.082518       0.01812
  30     15.07        0.8897        0.0000       11.9654       11.9654      11.075711       0.01758
  29     18.79        0.8897        0.0000       11.9581       11.9581      11.068422       0.01653
  28     23.16        0.8897        0.0000       11.9502       11.9502      11.060499       0.01532
  27     28.12        0.8897        0.0000       11.9418       11.9418      11.052161       0.01417
  26     33.73        0.8897        0.0000       11.9329       11.9329      11.043197       0.01348
  25     40.54        0.8897        0.0000       11.9222       11.9222      11.032497       0.01327
  24     48.69        0.8897        0.0000       11.9093       11.9093      11.019654       0.01329
  23     57.69        0.8897        0.0000       11.8949       11.8950      11.005255       0.01350
  22     68.43        0.8897        0.0000       11.8770       11.8771      10.987334       0.01409
  21     81.20        0.8897        0.0000       11.8544       11.8544      10.964646       0.01499
  20     96.49        0.8898        0.0000       11.8256       11.8257      10.935874       0.01588
  19     114.6        0.8898        0.0000       11.7886       11.7887      10.898823       0.01730
  18     136.5        0.8899        0.0001       11.7429       11.7430      10.853076       0.01759
  17     162.9        0.8900        0.0001       11.6869       11.6870      10.796971       0.01793
  16     196.4        0.8902        0.0001       11.6129       11.6130      10.722758       0.01868
  15     218.7        0.8904        0.0001       11.5605       11.5606      10.670149       0.01997
  14     243.0        0.8907        0.0001       11.4957       11.4958      10.605014       0.02259
  13     269.0        0.8913        0.0001       11.4130       11.4131      10.521844       0.02698
  12     297.5        0.8921        0.0001       11.3101       11.3102      10.418179       0.03075
  11     328.5        0.8932        0.0001       11.1933       11.1934      10.300218       0.03207
  10     361.9        0.8947        0.0001       11.0632       11.0633      10.168653       0.03329
   9     398.1        0.8967        0.0001       10.9149       10.9151      10.018356       0.03502
   8     437.6        0.8995        0.0002       10.7385       10.7387       9.839177       0.03831
   7     480.5        0.9033        0.0002       10.5233       10.5234       9.620084       0.04303
   6     533.0        0.9095        0.0002       10.2141       10.2142       9.304778       0.05072
   5     589.8        0.9186        0.0002        9.8147        9.8149       8.896254       0.06064
   4     651.6        0.9333        0.0002        9.2987        9.2989       8.365665       0.07256
   3     718.7        0.9564        0.0002        8.7065        8.7067       7.750349       0.07733
   2     792.3        0.9953        0.0002        8.0516        8.0518       7.056541       0.07957
   1     891.5        1.0890        0.0002        7.1628        7.1630       6.074018       0.08361
   0    1013.0        1.3555        0.0002        6.1112        6.1114       4.755872       0.09153



 Wavenumbers:  3250. -  4000. cm-1, ATM      1
 LEVEL PRESSURE   UPWARD FLUX   DIFDOWN FLUX  DIRDOWN FLUX  DOWNWARD FLUX   NET FLUX    HEATING RATE
          mb          W/m2          W/m2          W/m2        W/m2          W/m2       degree/day
  51    .06700        0.0013        0.0000       20.2197       20.2197      20.218398       0.00000
  50    .07753        0.0013        0.0000       20.2140       20.2140      20.212728       4.54406
  49    .09103        0.0013        0.0000       20.2088       20.2088      20.207497       3.26932
  48    0.1069        0.0013        0.0000       20.2043       20.2043      20.203073       2.35506
  47    0.1255        0.0013        0.0000       20.2005       20.2005      20.199194       1.75884
  46    0.1487        0.0013        0.0000       20.1965       20.1965      20.195271       1.42967
  45    0.1794        0.0013        0.0000       20.1921       20.1921      20.190829       1.21962
  44    0.2165        0.0013        0.0000       20.1875       20.1875      20.186262       1.03878
  43    0.2613        0.0013        0.0000       20.1827       20.1827      20.181423       0.91222
  42    0.3336        0.0013        0.0000       20.1757       20.1757      20.174401       0.81870
  41    0.4307        0.0013        0.0000       20.1678       20.1678      20.166507       0.68638
  40    0.5894        0.0013        0.0000       20.1571       20.1571      20.155813       0.56870
  39     1.339        0.0013        0.0000       20.1195       20.1195      20.118280       0.42255
  38     1.782        0.0013        0.0000       20.1017       20.1017      20.100448       0.33948
  37     2.292        0.0013        0.0000       20.0837       20.0837      20.082422       0.29857
  36     2.964        0.0013        0.0000       20.0629       20.0629      20.061671       0.26048
  35     3.853        0.0013        0.0000       20.0387       20.0387      20.037471       0.22966
  34     5.035        0.0012        0.0000       20.0099       20.0099      20.008629       0.20604
  33     6.613        0.0012        0.0000       19.9743       19.9743      19.973079       0.19005
  32     8.786        0.0012        0.0000       19.9279       19.9279      19.926676       0.18021
  31     11.80        0.0012        0.0000       19.8609       19.8609      19.859639       0.18768
  30     15.07        0.0012        0.0000       19.7861       19.7861      19.784845       0.19310
  29     18.79        0.0012        0.0000       19.6981       19.6981      19.696918       0.19936
  28     23.16        0.0012        0.0000       19.5924       19.5924      19.591198       0.20443
  27     28.12        0.0012        0.0000       19.4692       19.4692      19.467985       0.20945
  26     33.73        0.0012        0.0000       19.3318       19.3319      19.330661       0.20647
  25     40.54        0.0012        0.0001       19.1703       19.1704      19.169182       0.20033
  24     48.69        0.0012        0.0001       18.9874       18.9875      18.986294       0.18926
  23     57.69        0.0012        0.0001       18.8032       18.8032      18.802070       0.17268
  22     68.43        0.0012        0.0001       18.6047       18.6048      18.603662       0.15598
  21     81.20        0.0012        0.0001       18.3903       18.3904      18.389296       0.14165
  20     96.49        0.0011        0.0001       18.1531       18.1532      18.152054       0.13094
  19     114.6        0.0011        0.0001       17.8720       17.8722      17.871058       0.13121
  18     136.5        0.0011        0.0002       17.5464       17.5465      17.545456       0.12520
  17     162.9        0.0011        0.0002       17.1484       17.1486      17.147575       0.12718
  16     196.4        0.0010        0.0002       16.5656       16.5658      16.564809       0.14669
  15     218.7        0.0010        0.0002       16.0235       16.0238      16.022788       0.20579
  14     243.0        0.0010        0.0003       15.2654       15.2657      15.264692       0.26293
  13     269.0        0.0009        0.0003       14.2510       14.2513      14.250312       0.32906
  12     297.5        0.0009        0.0003       13.0349       13.0352      13.034228       0.36068
  11     328.5        0.0009        0.0003       11.8274       11.8277      11.826755       0.32831
  10     361.9        0.0009        0.0002       10.6546       10.6548      10.653910       0.29674
   9     398.1        0.0009        0.0002        9.4801        9.4803       9.479424       0.27363
   8     437.6        0.0009        0.0002        8.3186        8.3188       8.317941       0.24833
   7     480.5        0.0009        0.0002        7.2534        7.2537       7.252774       0.20919
   6     533.0        0.0009        0.0002        6.1288        6.1290       6.128085       0.18093
   5     589.8        0.0010        0.0002        5.0588        5.0590       5.058030       0.15883
   4     651.6        0.0011        0.0001        3.9729        3.9731       3.971953       0.14852
   3     718.7        0.0014        0.0001        2.9378        2.9379       2.936410       0.13014
   2     792.3        0.0023        0.0001        1.9615        1.9616       1.959251       0.11207
   1     891.5        0.0072        0.0000        0.9920        0.9920       0.984818       0.08292
   0    1013.0        0.0691        0.0000        0.3116        0.3117       0.242528       0.05154



 Wavenumbers:  4000. -  4650. cm-1, ATM      1
 LEVEL PRESSURE   UPWARD FLUX   DIFDOWN FLUX  DIRDOWN FLUX  DOWNWARD FLUX   NET FLUX    HEATING RATE
          mb          W/m2          W/m2          W/m2        W/m2          W/m2       degree/day
  51    .06700        3.2643        0.0000       23.7440       23.7440      20.479721       0.00000
  50    .07753        3.2643        0.0000       23.7440       23.7440      20.479720       0.00080
  49    .09103        3.2643        0.0000       23.7440       23.7440      20.479719       0.00078
  48    0.1069        3.2643        0.0000       23.7440       23.7440      20.479718       0.00076
  47    0.1255        3.2643        0.0000       23.7440       23.7440      20.479716       0.00075
  46    0.1487        3.2643        0.0000       23.7440       23.7440      20.479714       0.00076
  45    0.1794        3.2643        0.0000       23.7440       23.7440      20.479711       0.00078
  44    0.2165        3.2643        0.0000       23.7440       23.7440      20.479708       0.00076
  43    0.2613        3.2643        0.0000       23.7440       23.7440      20.479704       0.00075
  42    0.3336        3.2643        0.0000       23.7440       23.7440      20.479697       0.00077
  41    0.4307        3.2643        0.0000       23.7439       23.7439      20.479688       0.00077
  40    0.5894        3.2643        0.0000       23.7439       23.7439      20.479673       0.00080
  39     1.339        3.2643        0.0000       23.7438       23.7438      20.479584       0.00101
  38     1.782        3.2643        0.0000       23.7438       23.7438      20.479514       0.00133
  37     2.292        3.2643        0.0000       23.7437       23.7437      20.479420       0.00156
  36     2.964        3.2643        0.0000       23.7435       23.7435      20.479280       0.00176
  35     3.853        3.2643        0.0000       23.7433       23.7433      20.479071       0.00198
  34     5.035        3.2642        0.0000       23.7430       23.7430      20.478764       0.00220
  33     6.613        3.2642        0.0000       23.7425       23.7426      20.478311       0.00242
  32     8.786        3.2642        0.0000       23.7418       23.7419      20.477642       0.00260
  31     11.80        3.2642        0.0001       23.7408       23.7408      20.476588       0.00295
  30     15.07        3.2642        0.0001       23.7395       23.7396      20.475349       0.00320
  29     18.79        3.2642        0.0001       23.7380       23.7381      20.473847       0.00341
  28     23.16        3.2642        0.0001       23.7361       23.7362      20.471975       0.00362
  27     28.12        3.2642        0.0001       23.7338       23.7339      20.469700       0.00387
  26     33.73        3.2642        0.0001       23.7309       23.7311      20.466883       0.00424
  25     40.54        3.2642        0.0002       23.7271       23.7272      20.463043       0.00476
  24     48.69        3.2642        0.0002       23.7219       23.7221      20.457892       0.00533
  23     57.69        3.2642        0.0002       23.7157       23.7160      20.451744       0.00576
  22     68.43        3.2642        0.0003       23.7079       23.7082      20.443988       0.00610
  21     81.20        3.2643        0.0003       23.6983       23.6986      20.434359       0.00636
  20     96.49        3.2644        0.0004       23.6865       23.6869      20.422558       0.00651
  19     114.6        3.2645        0.0005       23.6717       23.6722      20.407693       0.00694
  18     136.5        3.2647        0.0006       23.6537       23.6543      20.389654       0.00694
  17     162.9        3.2649        0.0007       23.6317       23.6324      20.367411       0.00711
  16     196.4        3.2655        0.0008       23.6012       23.6020      20.336538       0.00777
  15     218.7        3.2660        0.0009       23.5777       23.5786      20.312617       0.00908
  14     243.0        3.2667        0.0010       23.5456       23.5466      20.279857       0.01136
  13     269.0        3.2679        0.0011       23.4995       23.5006      20.232676       0.01531
  12     297.5        3.2697        0.0012       23.4351       23.4363      20.166635       0.01959
  11     328.5        3.2721        0.0014       23.3555       23.3569      20.084726       0.02227
  10     361.9        3.2754        0.0015       23.2571       23.2586      19.983262       0.02567
   9     398.1        3.2794        0.0016       23.1295       23.1312      19.851789       0.03063
   8     437.6        3.2845        0.0018       22.9586       22.9604      19.675948       0.03760
   7     480.5        3.2908        0.0019       22.7369       22.7389      19.448052       0.04476
   6     533.0        3.3004        0.0021       22.4191       22.4212      19.120790       0.05265
   5     589.8        3.3138        0.0023       22.0335       22.0358      18.722046       0.05919
   4     651.6        3.3345        0.0025       21.5654       21.5679      18.233437       0.06682
   3     718.7        3.3670        0.0026       21.0164       21.0190      17.651996       0.07307
   2     792.3        3.4218        0.0028       20.2979       20.3007      16.878866       0.08867
   1     891.5        3.5525        0.0030       19.1088       19.1117      15.559201       0.11230
   0    1013.0        3.9126        0.0031       17.6373       17.6404      13.727734       0.12717



 Wavenumbers:  4650. -  5150. cm-1, ATM      1
 LEVEL PRESSURE   UPWARD FLUX   DIFDOWN FLUX  DIRDOWN FLUX  DOWNWARD FLUX   NET FLUX    HEATING RATE
          mb          W/m2          W/m2          W/m2        W/m2          W/m2       degree/day
  51    .06700        2.3731        0.0000       22.4748       22.4748      20.101738       0.00000
  50    .07753        2.3731        0.0000       22.4746       22.4746      20.101502       0.18925
  49    .09103        2.3731        0.0000       22.4743       22.4743      20.101206       0.18504
  48    0.1069        2.3731        0.0000       22.4739       22.4739      20.100866       0.18064
  47    0.1255        2.3731        0.0000       22.4735       22.4735      20.100478       0.17622
  46    0.1487        2.3731        0.0000       22.4730       22.4730      20.099989       0.17814
  45    0.1794        2.3731        0.0000       22.4724       22.4724      20.099325       0.18241
  44    0.2165        2.3731        0.0000       22.4716       22.4716      20.098543       0.17785
  43    0.2613        2.3731        0.0000       22.4707       22.4707      20.097623       0.17328
  42    0.3336        2.3731        0.0000       22.4692       22.4692      20.096118       0.17553
  41    0.4307        2.3731        0.0000       22.4672       22.4672      20.094150       0.17112
  40    0.5894        2.3731        0.0000       22.4641       22.4641      20.091004       0.16731
  39     1.339        2.3730        0.0000       22.4502       22.4502      20.077170       0.15574
  38     1.782        2.3730        0.0000       22.4428       22.4428      20.069799       0.14035
  37     2.292        2.3730        0.0000       22.4349       22.4350      20.061912       0.13063
  36     2.964        2.3730        0.0000       22.4255       22.4255      20.052482       0.11837
  35     3.853        2.3730        0.0000       22.4145       22.4145      20.041465       0.10455
  34     5.035        2.3730        0.0000       22.4019       22.4020      20.028915       0.08966
  33     6.613        2.3730        0.0000       22.3880       22.3881      20.015052       0.07411
  32     8.786        2.3730        0.0001       22.3731       22.3731      20.000094       0.05809
  31     11.80        2.3730        0.0001       22.3562       22.3563      19.983285       0.04706
  30     15.07        2.3730        0.0001       22.3413       22.3414      19.968351       0.03856
  29     18.79        2.3730        0.0001       22.3259       22.3260      19.952972       0.03487
  28     23.16        2.3730        0.0001       22.3082       22.3083      19.935248       0.03427
  27     28.12        2.3731        0.0002       22.2870       22.2872      19.914110       0.03593
  26     33.73        2.3731        0.0002       22.2617       22.2619      19.888773       0.03809
  25     40.54        2.3732        0.0003       22.2285       22.2287      19.855593       0.04116
  24     48.69        2.3732        0.0003       22.1852       22.1855      19.812247       0.04486
  23     57.69        2.3733        0.0004       22.1340       22.1344      19.761070       0.04797
  22     68.43        2.3735        0.0004       22.0694       22.0698      19.696344       0.05088
  21     81.20        2.3737        0.0005       21.9886       21.9891      19.615409       0.05348
  20     96.49        2.3740        0.0006       21.8895       21.8901      19.516064       0.05483
  19     114.6        2.3745        0.0007       21.7708       21.7715      19.397045       0.05557
  18     136.5        2.3751        0.0008       21.6320       21.6329      19.257733       0.05357
  17     162.9        2.3760        0.0010       21.4726       21.4735      19.097519       0.05121
  16     196.4        2.3774        0.0012       21.2786       21.2798      18.902341       0.04913
  15     218.7        2.3785        0.0013       21.1582       21.1595      18.780978       0.04608
  14     243.0        2.3800        0.0014       21.0313       21.0327      18.652693       0.04449
  13     269.0        2.3820        0.0016       20.8948       20.8963      18.514322       0.04489
  12     297.5        2.3849        0.0017       20.7434       20.7451      18.360272       0.04569
  11     328.5        2.3886        0.0019       20.5767       20.5786      18.189965       0.04631
  10     361.9        2.3934        0.0021       20.3907       20.3928      17.999394       0.04822
   9     398.1        2.3997        0.0022       20.1791       20.1813      17.781623       0.05074
   8     437.6        2.4079        0.0024       19.9341       19.9366      17.528674       0.05408
   7     480.5        2.4185        0.0026       19.6480       19.6506      17.232090       0.05825
   6     533.0        2.4347        0.0028       19.2600       19.2628      16.828066       0.06499
   5     589.8        2.4572        0.0030       18.7890       18.7920      16.334850       0.07321
   4     651.6        2.4901        0.0032       18.1977       18.2009      15.710814       0.08534
   3     718.7        2.5392        0.0034       17.4829       17.4863      14.947029       0.09599
   2     792.3        2.6151        0.0036       16.6464       16.6500      14.034886       0.10461
   1     891.5        2.7790        0.0037       15.4816       15.4854      12.706355       0.11305
   0    1013.0        3.1473        0.0039       14.1857       14.1896      11.042365       0.11554



 Wavenumbers:  5150. -  6150. cm-1, ATM      1
 LEVEL PRESSURE   UPWARD FLUX   DIFDOWN FLUX  DIRDOWN FLUX  DOWNWARD FLUX   NET FLUX    HEATING RATE
          mb          W/m2          W/m2          W/m2        W/m2          W/m2       degree/day
  51    .06700        5.6836        0.0000       56.3444       56.3444      50.660750       0.00000
  50    .07753        5.6836        0.0000       56.3444       56.3444      50.660711       0.03158
  49    .09103        5.6836        0.0000       56.3443       56.3443      50.660660       0.03207
  48    0.1069        5.6836        0.0000       56.3442       56.3442      50.660598       0.03258
  47    0.1255        5.6836        0.0000       56.3442       56.3442      50.660525       0.03309
  46    0.1487        5.6836        0.0000       56.3441       56.3441      50.660430       0.03487
  45    0.1794        5.6836        0.0000       56.3439       56.3439      50.660295       0.03712
  44    0.2165        5.6836        0.0000       56.3438       56.3438      50.660129       0.03770
  43    0.2613        5.6836        0.0000       56.3436       56.3436      50.659926       0.03829
  42    0.3336        5.6836        0.0000       56.3432       56.3432      50.659579       0.04048
  41    0.4307        5.6836        0.0000       56.3427       56.3427      50.659106       0.04106
  40    0.5894        5.6836        0.0000       56.3419       56.3420      50.658314       0.04212
  39     1.339        5.6836        0.0000       56.3381       56.3381      50.654481       0.04316
  38     1.782        5.6836        0.0000       56.3358       56.3359      50.652236       0.04274
  37     2.292        5.6836        0.0001       56.3332       56.3333      50.649683       0.04228
  36     2.964        5.6836        0.0001       56.3299       56.3300      50.646421       0.04095
  35     3.853        5.6836        0.0001       56.3257       56.3258      50.642245       0.03963
  34     5.035        5.6836        0.0001       56.3203       56.3204      50.636816       0.03878
  33     6.613        5.6836        0.0002       56.3131       56.3132      50.629687       0.03811
  32     8.786        5.6835        0.0002       56.3036       56.3038      50.620298       0.03646
  31     11.80        5.6835        0.0003       56.2905       56.2908      50.607321       0.03633
  30     15.07        5.6835        0.0004       56.2770       56.2775      50.593976       0.03445
  29     18.79        5.6835        0.0005       56.2626       56.2631      50.579656       0.03247
  28     23.16        5.6834        0.0007       56.2466       56.2472      50.563787       0.03069
  27     28.12        5.6834        0.0008       56.2292       56.2300      50.546581       0.02925
  26     33.73        5.6834        0.0010       56.2110       56.2120      50.528581       0.02706
  25     40.54        5.6834        0.0012       56.1906       56.1918      50.508355       0.02509
  24     48.69        5.6834        0.0014       56.1681       56.1695      50.486066       0.02307
  23     57.69        5.6835        0.0016       56.1451       56.1468      50.463308       0.02133
  22     68.43        5.6835        0.0019       56.1195       56.1215      50.437950       0.01993
  21     81.20        5.6836        0.0023       56.0907       56.0930      50.409329       0.01891
  20     96.49        5.6838        0.0027       56.0573       56.0600      50.376281       0.01824
  19     114.6        5.6839        0.0033       56.0182       56.0215      50.337572       0.01807
  18     136.5        5.6841        0.0039       55.9719       55.9757      50.291601       0.01768
  17     162.9        5.6844        0.0046       55.9013       55.9058      50.221417       0.02243
  16     196.4        5.6848        0.0055       55.7479       55.7534      50.068569       0.03847
  15     218.7        5.6852        0.0061       55.5243       55.5304      49.845272       0.08478
  14     243.0        5.6856        0.0067       55.1190       55.1257      49.440150       0.14051
  13     269.0        5.6862        0.0073       54.3924       54.3997      48.713543       0.23571
  12     297.5        5.6870        0.0079       53.2527       53.2606      47.573631       0.33809
  11     328.5        5.6881        0.0085       51.9857       51.9942      46.306082       0.34464
  10     361.9        5.6897        0.0091       50.6721       50.6812      44.991531       0.33259
   9     398.1        5.6917        0.0097       49.1893       49.1990      43.507317       0.34579
   8     437.6        5.6945        0.0103       47.4187       47.4290      41.734484       0.37904
   7     480.5        5.6983        0.0108       45.4500       45.4608      39.762486       0.38729
   6     533.0        5.7046        0.0114       43.0596       43.0710      37.366403       0.38545
   5     589.8        5.7145        0.0119       40.5463       40.5582      34.843674       0.37446
   4     651.6        5.7322        0.0125       37.8928       37.9053      32.173143       0.36520
   3     718.7        5.7634        0.0131       35.4719       35.4851      29.721625       0.30809
   2     792.3        5.8222        0.0139       33.4066       33.4205      27.598263       0.24353
   1     891.5        5.9826        0.0148       31.3475       31.3623      25.379677       0.18879
   0    1013.0        6.4982        0.0158       29.2817       29.2974      22.799241       0.17917



 Wavenumbers:  6150. -  7700. cm-1, ATM      1
 LEVEL PRESSURE   UPWARD FLUX   DIFDOWN FLUX  DIRDOWN FLUX  DOWNWARD FLUX   NET FLUX    HEATING RATE
          mb          W/m2          W/m2          W/m2        W/m2          W/m2       degree/day
  51    .06700        8.6360        0.0000      104.2111      104.2111      95.575099       0.00000
  50    .07753        8.6360        0.0000      104.2111      104.2111      95.575042       0.04554
  49    .09103        8.6360        0.0000      104.2110      104.2110      95.574969       0.04583
  48    0.1069        8.6360        0.0000      104.2109      104.2109      95.574882       0.04615
  47    0.1255        8.6360        0.0000      104.2108      104.2108      95.574780       0.04646
  46    0.1487        8.6360        0.0000      104.2107      104.2107      95.574647       0.04854
  45    0.1794        8.6360        0.0000      104.2105      104.2105      95.574460       0.05129
  44    0.2165        8.6360        0.0000      104.2102      104.2102      95.574233       0.05171
  43    0.2613        8.6360        0.0000      104.2099      104.2100      95.573956       0.05215
  42    0.3336        8.6360        0.0000      104.2095      104.2095      95.573486       0.05478
  41    0.4307        8.6360        0.0000      104.2088      104.2088      95.572850       0.05531
  40    0.5894        8.6360        0.0001      104.2077      104.2078      95.571788       0.05648
  39     1.339        8.6359        0.0002      104.2024      104.2026      95.566668       0.05764
  38     1.782        8.6359        0.0002      104.1993      104.1995      95.563671       0.05707
  37     2.292        8.6358        0.0003      104.1958      104.1961      95.560254       0.05659
  36     2.964        8.6358        0.0003      104.1913      104.1916      95.555867       0.05506
  35     3.853        8.6357        0.0004      104.1854      104.1859      95.550219       0.05360
  34     5.035        8.6356        0.0006      104.1778      104.1784      95.542848       0.05266
  33     6.613        8.6354        0.0008      104.1678      104.1686      95.533135       0.05193
  32     8.786        8.6352        0.0010      104.1545      104.1555      95.520278       0.04993
  31     11.80        8.6350        0.0014      104.1359      104.1373      95.502363       0.05016
  30     15.07        8.6347        0.0018      104.1166      104.1184      95.483741       0.04808
  29     18.79        8.6343        0.0022      104.0956      104.0978      95.463498       0.04590
  28     23.16        8.6339        0.0027      104.0720      104.0747      95.440752       0.04398
  27     28.12        8.6335        0.0033      104.0459      104.0492      95.415731       0.04253
  26     33.73        8.6330        0.0040      104.0181      104.0221      95.389118       0.04001
  25     40.54        8.6324        0.0048      103.9863      103.9911      95.358708       0.03773
  24     48.69        8.6316        0.0057      103.9504      103.9561      95.324488       0.03541
  23     57.69        8.6308        0.0068      103.9130      103.9198      95.288953       0.03331
  22     68.43        8.6298        0.0080      103.8705      103.8786      95.248718       0.03163
  21     81.20        8.6287        0.0095      103.8219      103.8314      95.202683       0.03042
  20     96.49        8.6273        0.0113      103.7651      103.7764      95.149097       0.02958
  19     114.6        8.6257        0.0134      103.6981      103.7115      95.085862       0.02953
  18     136.5        8.6237        0.0159      103.6182      103.6341      95.010352       0.02904
  17     162.9        8.6214        0.0189      103.5018      103.5207      94.899249       0.03551
  16     196.4        8.6185        0.0228      103.2601      103.2829      94.664341       0.05913
  15     218.7        8.6167        0.0253      102.9097      102.9350      94.318321       0.13137
  14     243.0        8.6148        0.0279      102.2732      102.3011      93.686325       0.21920
  13     269.0        8.6130        0.0305      101.2641      101.2946      92.681607       0.32593
  12     297.5        8.6115        0.0330       99.6695       99.7025      91.091004       0.47176
  11     328.5        8.6105        0.0356       97.6082       97.6438      89.033297       0.55948
  10     361.9        8.6102        0.0382       95.2483       95.2864      86.676232       0.59636
   9     398.1        8.6110        0.0407       92.6564       92.6971      84.086074       0.60345
   8     437.6        8.6137        0.0431       89.7047       89.7478      81.134074       0.63116
   7     480.5        8.6190        0.0453       86.3265       86.3718      77.752747       0.66408
   6     533.0        8.6305        0.0476       81.9787       82.0264      73.395866       0.70088
   5     589.8        8.6520        0.0497       77.1953       77.2449      68.592992       0.71290
   4     651.6        8.6945        0.0512       71.7796       71.8309      63.136336       0.74621
   3     718.7        8.7738        0.0525       66.2294       66.2819      57.508055       0.70732
   2     792.3        8.9260        0.0535       60.7106       60.7641      51.838123       0.65028
   1     891.5        9.3364        0.0544       54.2338       54.2882      44.951784       0.58599
   0    1013.0       10.6583        0.0556       47.9982       48.0538      37.395490       0.52467



 Wavenumbers:  7700. -  8050. cm-1, ATM      1
 LEVEL PRESSURE   UPWARD FLUX   DIFDOWN FLUX  DIRDOWN FLUX  DOWNWARD FLUX   NET FLUX    HEATING RATE
          mb          W/m2          W/m2          W/m2        W/m2          W/m2       degree/day
  51    .06700        4.5628        0.0000       24.6282       24.6282      20.065361       0.00000
  50    .07753        4.5628        0.0000       24.6282       24.6282      20.065340       0.01683
  49    .09103        4.5628        0.0000       24.6281       24.6281      20.065313       0.01650
  48    0.1069        4.5628        0.0000       24.6281       24.6281      20.065283       0.01615
  47    0.1255        4.5628        0.0000       24.6281       24.6281      20.065248       0.01580
  46    0.1487        4.5628        0.0000       24.6280       24.6281      20.065204       0.01604
  45    0.1794        4.5629        0.0000       24.6280       24.6280      20.065144       0.01650
  44    0.2165        4.5629        0.0000       24.6279       24.6279      20.065073       0.01619
  43    0.2613        4.5629        0.0000       24.6279       24.6279      20.064989       0.01588
  42    0.3336        4.5629        0.0000       24.6277       24.6277      20.064849       0.01625
  41    0.4307        4.5629        0.0000       24.6276       24.6276      20.064664       0.01608
  40    0.5894        4.5630        0.0000       24.6273       24.6273      20.064362       0.01606
  39     1.339        4.5632        0.0001       24.6260       24.6261      20.062933       0.01609
  38     1.782        4.5633        0.0001       24.6253       24.6254      20.062094       0.01598
  37     2.292        4.5634        0.0001       24.6244       24.6245      20.061122       0.01610
  36     2.964        4.5636        0.0002       24.6233       24.6234      20.059845       0.01602
  35     3.853        4.5638        0.0002       24.6218       24.6220      20.058158       0.01601
  34     5.035        4.5642        0.0003       24.6198       24.6201      20.055917       0.01601
  33     6.613        4.5646        0.0003       24.6172       24.6175      20.052921       0.01601
  32     8.786        4.5652        0.0005       24.6136       24.6140      20.048883       0.01568
  31     11.80        4.5660        0.0006       24.6085       24.6091      20.043105       0.01618
  30     15.07        4.5669        0.0008       24.6030       24.6038      20.036898       0.01602
  29     18.79        4.5679        0.0010       24.5968       24.5977      20.029885       0.01590
  28     23.16        4.5690        0.0012       24.5895       24.5907      20.021691       0.01584
  27     28.12        4.5704        0.0015       24.5812       24.5827      20.012320       0.01593
  26     33.73        4.5719        0.0017       24.5720       24.5737      20.001833       0.01577
  25     40.54        4.5737        0.0021       24.5608       24.5629      19.989165       0.01572
  24     48.69        4.5759        0.0025       24.5473       24.5498      19.973895       0.01580
  23     57.69        4.5784        0.0030       24.5326       24.5355      19.957130       0.01571
  22     68.43        4.5814        0.0035       24.5150       24.5185      19.937176       0.01569
  21     81.20        4.5849        0.0042       24.4941       24.4983      19.913423       0.01570
  20     96.49        4.5892        0.0050       24.4694       24.4743      19.885153       0.01560
  19     114.6        4.5943        0.0059       24.4400       24.4459      19.851636       0.01565
  18     136.5        4.6004        0.0070       24.4054       24.4124      19.811982       0.01525
  17     162.9        4.6079        0.0083       24.3644       24.3727      19.764859       0.01506
  16     196.4        4.6177        0.0100       24.3116       24.3216      19.703898       0.01534
  15     218.7        4.6243        0.0111       24.2771       24.2882      19.663924       0.01518
  14     243.0        4.6315        0.0123       24.2397       24.2520      19.620480       0.01507
  13     269.0        4.6395        0.0136       24.1993       24.2129      19.573338       0.01529
  12     297.5        4.6484        0.0150       24.1556       24.1706      19.522209       0.01516
  11     328.5        4.6583        0.0166       24.1084       24.1250      19.466704       0.01509
  10     361.9        4.6692        0.0182       24.0575       24.0758      19.406528       0.01523
   9     398.1        4.6814        0.0200       24.0026       24.0225      19.341098       0.01524
   8     437.6        4.6952        0.0219       23.9430       23.9649      19.269717       0.01526
   7     480.5        4.7106        0.0239       23.8783       23.9023      19.191682       0.01533
   6     533.0        4.7307        0.0264       23.7972       23.8236      19.092900       0.01589
   5     589.8        4.7543        0.0291       23.7068       23.7360      18.981607       0.01652
   4     651.6        4.7828        0.0320       23.6034       23.6355      18.852650       0.01764
   3     718.7        4.8179        0.0351       23.4831       23.5182      18.700313       0.01914
   2     792.3        4.8629        0.0384       23.3388       23.3772      18.514362       0.02133
   1     891.5        4.9399        0.0427       23.1128       23.1555      18.215575       0.02543
   0    1013.0        5.0656        0.0477       22.7908       22.8385      17.772894       0.03074



 Wavenumbers:  8050. - 12850. cm-1, ATM      1
 LEVEL PRESSURE   UPWARD FLUX   DIFDOWN FLUX  DIRDOWN FLUX  DOWNWARD FLUX   NET FLUX    HEATING RATE
          mb          W/m2          W/m2          W/m2        W/m2          W/m2       degree/day
  51    .06700       55.5378        0.0000      344.8128      344.8128     289.275025       0.00000
  50    .07753       55.5378        0.0000      344.8128      344.8128     289.275025       0.00000
  49    .09103       55.5378        0.0001      344.8127      344.8128     289.275025      -0.00000
  48    0.1069       55.5377        0.0001      344.8127      344.8128     289.275025      -0.00000
  47    0.1255       55.5377        0.0001      344.8126      344.8127     289.275025      -0.00000
  46    0.1487       55.5377        0.0002      344.8125      344.8127     289.275025       0.00000
  45    0.1794       55.5376        0.0003      344.8124      344.8127     289.275025       0.00000
  44    0.2165       55.5376        0.0004      344.8122      344.8126     289.275025       0.00000
  43    0.2613       55.5375        0.0005      344.8121      344.8125     289.275025       0.00000
  42    0.3336       55.5374        0.0007      344.8118      344.8124     289.275025      -0.00000
  41    0.4307       55.5373        0.0009      344.8114      344.8123     289.275025       0.00000
  40    0.5894       55.5370        0.0013      344.8108      344.8121     289.275025      -0.00000
  39     1.339       55.5359        0.0032      344.8078      344.8110     289.275025       0.00000
  38     1.782       55.5353        0.0043      344.8061      344.8103     289.275025      -0.00000
  37     2.292       55.5346        0.0055      344.8041      344.8096     289.275025       0.00000
  36     2.964       55.5336        0.0072      344.8014      344.8086     289.275025       0.00000
  35     3.853       55.5323        0.0094      344.7979      344.8073     289.275025       0.00000
  34     5.035       55.5306        0.0123      344.7933      344.8056     289.275025       0.00000
  33     6.613       55.5283        0.0162      344.7871      344.8033     289.275025       0.00000
  32     8.786       55.5252        0.0215      344.7787      344.8002     289.275025       0.00000
  31     11.80       55.5207        0.0290      344.7667      344.7957     289.275025      -0.00000
  30     15.07       55.5160        0.0371      344.7539      344.7910     289.275025       0.00000
  29     18.79       55.5106        0.0463      344.7393      344.7856     289.275025       0.00000
  28     23.16       55.5042        0.0570      344.7223      344.7793     289.275025      -0.00000
  27     28.12       55.4970        0.0693      344.7028      344.7720     289.275025       0.00000
  26     33.73       55.4889        0.0830      344.6809      344.7639     289.275025       0.00000
  25     40.54       55.4791        0.0997      344.6545      344.7541     289.275025      -0.00000
  24     48.69       55.4673        0.1197      344.6225      344.7423     289.275025       0.00000
  23     57.69       55.4542        0.1418      344.5874      344.7293     289.275025       0.00000
  22     68.43       55.4387        0.1682      344.5455      344.7137     289.275025      -0.00000
  21     81.20       55.4201        0.1997      344.4955      344.6951     289.275025       0.00000
  20     96.49       55.3979        0.2372      344.4358      344.6730     289.275025       0.00000
  19     114.6       55.3717        0.2819      344.3587      344.6405     289.268865       0.00288
  18     136.5       55.3404        0.3350      344.2667      344.6016     289.261197       0.00295
  17     162.9       55.3032        0.3983      344.1533      344.5516     289.248399       0.00409
  16     196.4       55.2547        0.4807      343.9892      344.4699     289.215233       0.00835
  15     218.7       55.2229        0.5349      343.8402      344.3751     289.152175       0.02394
  14     243.0       55.1887        0.5938      343.5933      344.1871     288.998377       0.05334
  13     269.0       55.1525        0.6575      343.1662      343.8236     288.671147       0.10615
  12     297.5       55.1150        0.7260      342.4819      343.2079     288.092865       0.17151
  11     328.5       55.0767        0.7999      341.5922      342.3921     287.315353       0.21140
  10     361.9       55.0387        0.8792      340.5080      341.3872     286.348494       0.24462
   9     398.1       55.0026        0.9640      339.1885      340.1525     285.149889       0.27925
   8     437.6       54.9718        1.0541      337.5272      338.5813     283.609491       0.32935
   7     480.5       54.9501        1.1494      335.4327      336.5821     281.631952       0.38838
   6     533.0       54.9448        1.2645      332.3652      333.6296     278.684824       0.47410
   5     589.8       54.9783        1.3849      328.3420      329.7269     274.748592       0.58427
   4     651.6       55.0970        1.5076      322.7671      324.2747     269.177687       0.76184
   3     718.7       55.3628        1.6315      315.5619      317.1934     261.830574       0.92333
   2     792.3       55.9160        1.7536      306.5104      308.2640     252.347935       1.08755
   1     891.5       57.4292        1.9002      292.9732      294.8734     237.444198       1.26824
   0    1013.0       61.7410        2.0560      276.3074      278.3634     216.622427       1.44576



 Wavenumbers: 12850. - 16000. cm-1, ATM      1
 LEVEL PRESSURE   UPWARD FLUX   DIFDOWN FLUX  DIRDOWN FLUX  DOWNWARD FLUX   NET FLUX    HEATING RATE
          mb          W/m2          W/m2          W/m2        W/m2          W/m2       degree/day
  51    .06700       15.2045        0.0000      216.0557      216.0557     200.851237       0.00000
  50    .07753       15.2044        0.0001      216.0548      216.0549     200.850458       0.62466
  49    .09103       15.2044        0.0001      216.0538      216.0539     200.849476       0.61348
  48    0.1069       15.2043        0.0002      216.0525      216.0527     200.848345       0.60218
  47    0.1255       15.2043        0.0003      216.0510      216.0513     200.847041       0.59120
  46    0.1487       15.2042        0.0004      216.0492      216.0496     200.845389       0.60216
  45    0.1794       15.2041        0.0005      216.0467      216.0472     200.843128       0.62065
  44    0.2165       15.2040        0.0007      216.0438      216.0445     200.840449       0.60947
  43    0.2613       15.2039        0.0009      216.0403      216.0412     200.837272       0.59872
  42    0.3336       15.2037        0.0012      216.0345      216.0357     200.832028       0.61150
  41    0.4307       15.2034        0.0017      216.0269      216.0286     200.825132       0.59958
  40    0.5894       15.2031        0.0024      216.0146      216.0171     200.813993       0.59236
  39     1.339       15.2019        0.0059      215.9584      215.9642     200.762318       0.58177
  38     1.782       15.2017        0.0079      215.9258      215.9337     200.732075       0.57577
  37     2.292       15.2018        0.0103      215.8879      215.8982     200.696393       0.59099
  36     2.964       15.2026        0.0133      215.8370      215.8504     200.647797       0.61002
  35     3.853       15.2045        0.0174      215.7678      215.7853     200.580786       0.63595
  34     5.035       15.2079        0.0228      215.6752      215.6981     200.490184       0.64722
  33     6.613       15.2129        0.0301      215.5548      215.5848     200.371981       0.63191
  32     8.786       15.2191        0.0398      215.4027      215.4424     200.223356       0.57720
  31     11.80       15.2263        0.0537      215.2043      215.2580     200.031693       0.53659
  30     15.07       15.2320        0.0686      215.0098      215.0784     199.846460       0.47824
  29     18.79       15.2366        0.0854      214.8056      214.8910     199.654438       0.43537
  28     23.16       15.2399        0.1051      214.5841      214.6892     199.449293       0.39668
  27     28.12       15.2412        0.1275      214.3504      214.4779     199.236662       0.36146
  26     33.73       15.2393        0.1526      214.1164      214.2690     199.029787       0.31104
  25     40.54       15.2329        0.1830      213.8655      214.0485     198.815651       0.26566
  24     48.69       15.2212        0.2196      213.5943      213.8139     198.592655       0.23077
  23     57.69       15.2047        0.2598      213.3269      213.5867     198.382042       0.19742
  22     68.43       15.1809        0.3077      213.0419      213.3496     198.168792       0.16764
  21     81.20       15.1469        0.3649      212.7488      213.1137     197.966800       0.13347
  20     96.49       15.1013        0.4331      212.4447      212.8778     197.776501       0.10503
  19     114.6       15.0464        0.5143      212.1101      212.6244     197.578039       0.09267
  18     136.5       14.9790        0.6106      211.7382      212.3488     197.369851       0.08005
  17     162.9       14.8965        0.7252      211.3198      212.0450     197.148520       0.07075
  16     196.4       14.7850        0.8739      210.8156      211.6895     196.904467       0.06143
  15     218.7       14.7101        0.9715      210.4965      211.4680     196.757928       0.05564
  14     243.0       14.6277        1.0776      210.1519      211.2295     196.601801       0.05415
  13     269.0       14.5377        1.1925      209.7781      210.9706     196.432895       0.05479
  12     297.5       14.4396        1.3166      209.3683      210.6849     196.245321       0.05563
  11     328.5       14.3332        1.4506      208.9170      210.3676     196.034359       0.05736
  10     361.9       14.2184        1.5947      208.4189      210.0136     195.795236       0.06050
   9     398.1       14.0946        1.7496      207.8679      209.6175     195.522870       0.06346
   8     437.6       13.9620        1.9157      207.2544      209.1700     195.208024       0.06732
   7     480.5       13.8204        2.0933      206.5713      208.6645     194.844126       0.07147
   6     533.0       13.6476        2.3111      205.6883      207.9994     194.351843       0.07919
   5     589.8       13.4647        2.5445      204.6670      207.2115     193.746786       0.08981
   4     651.6       13.2764        2.7926      203.4324      206.2250     192.948641       0.10915
   3     718.7       13.0856        3.0544      201.9561      205.0105     191.924904       0.12866
   2     792.3       12.9038        3.3268      200.1346      203.4614     190.557648       0.15681
   1     891.5       12.7143        3.6785      197.2502      200.9287     188.214385       0.19940
   0    1013.0       12.6112        4.0774      193.2807      197.3581     184.746924       0.24076



 Wavenumbers: 16000. - 22650. cm-1, ATM      1
 LEVEL PRESSURE   UPWARD FLUX   DIFDOWN FLUX  DIRDOWN FLUX  DOWNWARD FLUX   NET FLUX    HEATING RATE
          mb          W/m2          W/m2          W/m2        W/m2          W/m2       degree/day
  51    .06700       37.3943        0.0000      344.4769      344.4769     307.082570       0.00000
  50    .07753       37.3942        0.0003      344.4763      344.4766     307.082471       0.07925
  49    .09103       37.3939        0.0006      344.4756      344.4763     307.082327       0.08989
  48    0.1069       37.3937        0.0011      344.4748      344.4758     307.082135       0.10250
  47    0.1255       37.3934        0.0015      344.4737      344.4753     307.081877       0.11684
  46    0.1487       37.3930        0.0021      344.4724      344.4745     307.081497       0.13845
  45    0.1794       37.3925        0.0029      344.4705      344.4734     307.080903       0.16302
  44    0.2165       37.3920        0.0039      344.4682      344.4721     307.080098       0.18322
  43    0.2613       37.3913        0.0051      344.4653      344.4704     307.079005       0.20598
  42    0.3336       37.3903        0.0070      344.4603      344.4673     307.076928       0.24223
  41    0.4307       37.3891        0.0095      344.4534      344.4629     307.073796       0.27229
  40    0.5894       37.3871        0.0136      344.4414      344.4549     307.067824       0.31761
  39     1.339       37.3804        0.0331      344.3711      344.4041     307.023698       0.49677
  38     1.782       37.3783        0.0445      344.3200      344.3645     306.986110       0.71562
  37     2.292       37.3777        0.0577      344.2517      344.3094     306.931701       0.90114
  36     2.964       37.3794        0.0751      344.1480      344.2230     306.843563       1.10640
  35     3.853       37.3855        0.0980      343.9913      344.0892     306.703718       1.32716
  34     5.035       37.3973        0.1284      343.7640      343.8924     306.495101       1.49027
  33     6.613       37.4148        0.1690      343.4511      343.6201     306.205228       1.54966
  32     8.786       37.4365        0.2236      343.0410      343.2646     305.828114       1.46457
  31     11.80       37.4601        0.3016      342.4947      342.7963     305.336215       1.37716
  30     15.07       37.4768        0.3853      341.9547      342.3400     304.863176       1.22129
  29     18.79       37.4879        0.4796      341.3868      341.8664     304.378520       1.09887
  28     23.16       37.4920        0.5897      340.7717      341.3614     303.869459       0.98436
  27     28.12       37.4861        0.7154      340.1241      340.8395     303.353393       0.87728
  26     33.73       37.4646        0.8559      339.4775      340.3334     302.868853       0.72852
  25     40.54       37.4213        1.0255      338.7859      339.8115     302.390156       0.59388
  24     48.69       37.3523        1.2298      338.0389      339.2687     301.916452       0.49021
  23     57.69       37.2601        1.4540      337.3015      338.7556     301.495473       0.39460
  22     68.43       37.1326        1.7208      336.5123      338.2331     301.100463       0.31053
  21     81.20       36.9567        2.0384      335.6921      337.7305     300.773843       0.21583
  20     96.49       36.7245        2.4165      334.8256      337.2422     300.517636       0.14141
  19     114.6       36.4366        2.8643      333.8560      336.7204     300.283756       0.10921
  18     136.5       36.0860        3.3932      332.7466      336.1398     300.053782       0.08843
  17     162.9       35.6590        4.0201      331.4625      335.4826     299.823535       0.07360
  16     196.4       35.0868        4.8291      329.8743      334.7034     299.616578       0.05209
  15     218.7       34.7033        5.3579      328.8601      334.2180     299.514667       0.03869
  14     243.0       34.2817        5.9303      327.7715      333.7018     299.420026       0.03282
  13     269.0       33.8197        6.5478      326.6061      333.1539     299.334203       0.02784
  12     297.5       33.3148        7.2118      325.3603      332.5722     299.257391       0.02278
  11     328.5       32.7642        7.9256      324.0212      331.9468     299.182518       0.02036
  10     361.9       32.1659        8.6896      322.5859      331.2755     299.109630       0.01844
   9     398.1       31.5157        9.5068      321.0470      330.5538     299.038051       0.01668
   8     437.6       30.8107       10.3784      319.3978      329.7763     298.965575       0.01550
   7     480.5       30.0471       11.3059      317.6330      328.9390     298.891884       0.01447
   6     533.0       29.0961       12.4381      315.4613      327.8994     298.803293       0.01425
   5     589.8       28.0575       13.6466      313.1151      326.7617     298.704130       0.01472
   4     651.6       26.9258       14.9320      310.5763      325.5083     298.582541       0.01663
   3     718.7       25.6939       16.2949      307.8270      324.1219     298.428006       0.01942
   2     792.3       24.3574       17.7325      304.8404      322.5729     298.215532       0.02437
   1     891.5       22.5271       19.6343      300.7148      320.3491     297.821966       0.03349
   0    1013.0       20.2875       21.8565      295.6311      317.4876     297.200163       0.04317



 Wavenumbers: 22650. - 29000. cm-1, ATM      1
 LEVEL PRESSURE   UPWARD FLUX   DIFDOWN FLUX  DIRDOWN FLUX  DOWNWARD FLUX   NET FLUX    HEATING RATE
          mb          W/m2          W/m2          W/m2        W/m2          W/m2       degree/day
  51    .06700       26.4161        0.0000      129.9930      129.9930     103.576960       0.00000
  50    .07753       26.4159        0.0004      129.9925      129.9929     103.576960       0.00000
  49    .09103       26.4157        0.0008      129.9918      129.9926     103.576960      -0.00000
  48    0.1069       26.4154        0.0013      129.9910      129.9924     103.576960       0.00000
  47    0.1255       26.4151        0.0020      129.9901      129.9920     103.576960      -0.00000
  46    0.1487       26.4147        0.0027      129.9889      129.9917     103.576960       0.00000
  45    0.1794       26.4142        0.0038      129.9874      129.9911     103.576960      -0.00000
  44    0.2165       26.4135        0.0050      129.9855      129.9905     103.576960       0.00000
  43    0.2613       26.4128        0.0065      129.9833      129.9897     103.576960       0.00000
  42    0.3336       26.4115        0.0089      129.9796      129.9885     103.576960       0.00000
  41    0.4307       26.4099        0.0121      129.9747      129.9868     103.576960       0.00000
  40    0.5894       26.4072        0.0173      129.9668      129.9841     103.576960       0.00000
  39     1.339       26.3944        0.0421      129.9292      129.9713     103.576960       0.00000
  38     1.782       26.3869        0.0567      129.9071      129.9638     103.576960      -0.00000
  37     2.292       26.3782        0.0736      129.8815      129.9551     103.576960      -0.00000
  36     2.964       26.3667        0.0957      129.8480      129.9437     103.576960       0.00000
  35     3.853       26.3516        0.1250      129.8036      129.9286     103.576960       0.00000
  34     5.035       26.3315        0.1638      129.7447      129.9085     103.576960       0.00000
  33     6.613       26.3047        0.2157      129.6660      129.8816     103.576960       0.00000
  32     8.786       26.2684        0.2855      129.5599      129.8454     103.576960      -0.00000
  31     11.80       26.2165        0.3853      129.4082      129.7935     103.576960       0.00000
  30     15.07       26.1606        0.4923      129.2453      129.7376     103.576960      -0.00000
  29     18.79       26.0973        0.6130      129.0613      129.6743     103.576960       0.00000
  28     23.16       26.0232        0.7537      128.8465      129.6002     103.576960      -0.00000
  27     28.12       25.9383        0.9142      128.6010      129.5152     103.576960      -0.00000
  26     33.73       25.8429        1.0933      128.3266      129.4198     103.576960       0.00000
  25     40.54       25.7273        1.3089      127.9953      129.3042     103.576960      -0.00000
  24     48.69       25.5874        1.5678      127.5965      129.1643     103.576960       0.00000
  23     57.69       25.4330        1.8507      127.1593      129.0100     103.576960       0.00000
  22     68.43       25.2483        2.1856      126.6397      128.8253     103.576960       0.00000
  21     81.20       25.0271        2.5816      126.0224      128.6040     103.576960       0.00000
  20     96.49       24.7618        3.0492      125.2896      128.3388     103.576960      -0.00000
  19     114.6       24.4446        3.5981      124.4234      128.0215     103.576960       0.00000
  18     136.5       24.0654        4.2400      123.4024      127.6424     103.576960       0.00000
  17     162.9       23.6095        4.9917      122.1947      127.1864     103.576960       0.00000
  16     196.4       23.0112        5.9463      120.6419      126.5882     103.576960       0.00000
  15     218.7       22.6140        6.5607      119.6303      126.1910     103.576960       0.00000
  14     243.0       22.1784        7.2175      118.5379      125.7553     103.576960       0.00000
  13     269.0       21.7016        7.9162      117.3624      125.2785     103.576960       0.00000
  12     297.5       21.1809        8.6561      116.1018      124.7578     103.576960      -0.00000
  11     328.5       20.6117        9.4382      114.7505      124.1887     103.576960       0.00000
  10     361.9       19.9913       10.2600      113.3083      123.5683     103.576960      -0.00000
   9     398.1       19.3148       11.1212      111.7705      122.8917     103.576960       0.00000
   8     437.6       18.5778       12.0194      110.1353      122.1548     103.576960       0.00000
   7     480.5       17.7758       12.9517      108.4010      121.3527     103.576960       0.00000
   6     533.0       16.7709       14.0562      106.2917      120.3479     103.576960       0.00000
   5     589.8       15.6655       15.1942      104.0483      119.2425     103.576960      -0.00000
   4     651.6       14.4505       16.3574      101.6700      118.0274     103.576960       0.00000
   3     718.7       13.1152       17.5364       99.1558      116.6922     103.576960       0.00000
   2     792.3       11.6497       18.7184       96.5083      115.2267     103.576960       0.00000
   1     891.5        9.6114       20.1820       93.0064      113.1884     103.576960       0.00000
   0    1013.0        7.0704       21.7391       88.9082      110.6473     103.576960      -0.00000



 Wavenumbers: 29000. - 38000. cm-1, ATM      1
 LEVEL PRESSURE   UPWARD FLUX   DIFDOWN FLUX  DIRDOWN FLUX  DOWNWARD FLUX   NET FLUX    HEATING RATE
          mb          W/m2          W/m2          W/m2        W/m2          W/m2       degree/day
  51    .06700        6.8336        0.0000       45.8410       45.8410      39.007338       0.00000
  50    .07753        6.8334        0.0003       45.8366       45.8370      39.003526       3.05522
  49    .09103        6.8332        0.0007       45.8305       45.8312      38.997978       3.46797
  48    0.1069        6.8329        0.0011       45.8223       45.8235      38.990544       3.95706
  47    0.1255        6.8326        0.0016       45.8116       45.8132      38.980592       4.51194
  46    0.1487        6.8323        0.0023       45.7959       45.7982      38.965926       5.34576
  45    0.1794        6.8318        0.0032       45.7716       45.7748      38.943025       6.28686
  44    0.2165        6.8313        0.0042       45.7391       45.7433      38.912036       7.04949
  43    0.2613        6.8307        0.0054       45.6954       45.7008      38.870145       7.89629
  42    0.3336        6.8298        0.0074       45.6134       45.6208      38.791064       9.22001
  41    0.4307        6.8286        0.0101       45.4920       45.5020      38.673387      10.23175
  40    0.5894        6.8271        0.0143       45.2670       45.2813      38.454198      11.65620
  39     1.339        6.8236        0.0325       43.8242       43.8567      37.033133      15.99861
  38     1.782        6.8241        0.0420       42.8351       42.8771      36.052970      18.66073
  37     2.292        6.8270        0.0521       41.6852       41.7374      34.910427      18.92349
  36     2.964        6.8341        0.0646       40.2943       40.3589      33.524847      17.39322
  35     3.853        6.8481        0.0802       38.7687       38.8488      32.000761      14.46385
  34     5.035        6.8714        0.0999       37.2304       37.3303      30.458963      11.01397
  33     6.613        6.9056        0.1255       35.7405       35.8660      28.960432       8.01115
  32     8.786        6.9510        0.1590       34.3295       34.4885      27.537418       5.52647
  31     11.80        7.0109        0.2057       32.9481       33.1538      26.142905       3.90420
  30     15.07        7.0692        0.2549       31.8942       32.1491      25.079904       2.74446
  29     18.79        7.1302        0.3092       30.9854       31.2946      24.164385       2.07576
  28     23.16        7.1959        0.3714       30.1559       30.5272      23.331333       1.61085
  27     28.12        7.2641        0.4414       29.4043       29.8457      22.581528       1.27462
  26     33.73        7.3273        0.5194       28.7514       29.2708      21.943458       0.95936
  25     40.54        7.3867        0.6132       28.1328       28.7460      21.359315       0.72469
  24     48.69        7.4414        0.7255       27.5340       28.2595      20.818074       0.56010
  23     57.69        7.4839        0.8480       26.9971       27.8450      20.361099       0.42834
  22     68.43        7.5135        0.9931       26.4694       27.4624      19.948946       0.32401
  21     81.20        7.5150        1.1665       25.9669       27.1334      19.618322       0.21847
  20     96.49        7.4831        1.3730       25.4748       26.8477      19.364688       0.13999
  19     114.6        7.4271        1.6136       24.9506       26.5642      19.137141       0.10625
  18     136.5        7.3483        1.8903       24.3745       26.2648      18.916437       0.08487
  17     162.9        7.2429        2.2090       23.7328       25.9418      18.698962       0.06951
  16     196.4        7.0788        2.6100       22.9761       25.5861      18.507204       0.04827
  15     218.7        6.9598        2.8631       22.5089       25.3719      18.412179       0.03608
  14     243.0        6.8241        3.1291       22.0192       25.1483      18.324173       0.03052
  13     269.0        6.6701        3.4074       21.5077       24.9151      18.244976       0.02569
  12     297.5        6.4963        3.6965       20.9749       24.6714      18.175110       0.02072
  11     328.5        6.3026        3.9943       20.4165       24.4108      18.108249       0.01818
  10     361.9        6.0876        4.2987       19.8338       24.1325      18.044812       0.01605
   9     398.1        5.8493        4.6076       19.2267       23.8342      17.984940       0.01395
   8     437.6        5.5859        4.9180       18.5955       23.5135      17.927592       0.01226
   7     480.5        5.2952        5.2270       17.9419       23.1689      17.873677       0.01059
   6     533.0        4.9261        5.5748       17.1671       22.7419      17.815814       0.00931
   5     589.8        4.5146        5.9090       16.3664       22.2754      17.760761       0.00817
   4     651.6        4.0572        6.2235       15.5420       21.7655      17.708339       0.00717
   3     718.7        3.5490        6.5104       14.6973       21.2077      17.658675       0.00624
   2     792.3        2.9854        6.7598       13.8375       20.5973      17.611907       0.00536
   1     891.5        2.1935        7.0074       12.7437       19.7511      17.557664       0.00462
   0    1013.0        1.1948        7.1695       11.5285       18.6980      17.503201       0.00378



 Wavenumbers: 38000. - 50000. cm-1, ATM      1
 LEVEL PRESSURE   UPWARD FLUX   DIFDOWN FLUX  DIRDOWN FLUX  DOWNWARD FLUX   NET FLUX    HEATING RATE
          mb          W/m2          W/m2          W/m2        W/m2          W/m2       degree/day
  51    .06700        0.0077        0.0000        2.8274        2.8274       2.819732       0.00000
  50    .07753        0.0076        0.0001        2.8250        2.8250       2.817394       1.87426
  49    .09103        0.0076        0.0002        2.8215        2.8216       2.814052       2.08853
  48    0.1069        0.0075        0.0003        2.8169        2.8172       2.809652       2.34203
  47    0.1255        0.0074        0.0004        2.8109        2.8113       2.803854       2.62885
  46    0.1487        0.0073        0.0005        2.8022        2.8027       2.795433       3.06948
  45    0.1794        0.0072        0.0007        2.7889        2.7896       2.782446       3.56531
  44    0.2165        0.0070        0.0009        2.7712        2.7721       2.765088       3.94851
  43    0.2613        0.0068        0.0012        2.7476        2.7487       2.741916       4.36792
  42    0.3336        0.0065        0.0015        2.7038        2.7053       2.698800       5.02689
  41    0.4307        0.0062        0.0020        2.6399        2.6419       2.635738       5.48307
  40    0.5894        0.0056        0.0027        2.5241        2.5268       2.521231       6.08937
  39     1.339        0.0038        0.0042        1.8543        1.8585       1.854685       7.50409
  38     1.782        0.0031        0.0041        1.4655        1.4696       1.466513       7.39018
  37     2.292        0.0024        0.0036        1.0872        1.0908       1.088339       6.26353
  36     2.964        0.0019        0.0030        0.7358        0.7388       0.736859       4.41214
  35     3.853        0.0015        0.0024        0.4711        0.4735       0.472010       2.51347
  34     5.035        0.0012        0.0019        0.2988        0.3008       0.299620       1.23148
  33     6.613        0.0009        0.0016        0.1889        0.1905       0.189608       0.58813
  32     8.786        0.0007        0.0013        0.1196        0.1208       0.120133       0.26981
  31     11.80        0.0005        0.0010        0.0741        0.0751       0.074563       0.12758
  30     15.07        0.0004        0.0008        0.0493        0.0501       0.049700       0.06419
  29     18.79        0.0003        0.0006        0.0330        0.0336       0.033348       0.03707
  28     23.16        0.0002        0.0004        0.0217        0.0221       0.021940       0.02206
  27     28.12        0.0001        0.0003        0.0140        0.0144       0.014212       0.01314
  26     33.73        0.0001        0.0002        0.0091        0.0093       0.009223       0.00750
  25     40.54        0.0001        0.0002        0.0057        0.0059       0.005793       0.00426
  24     48.69        0.0000        0.0001        0.0034        0.0035       0.003483       0.00239
  23     57.69        0.0000        0.0001        0.0020        0.0021       0.002088       0.00131
  22     68.43        0.0000        0.0000        0.0012        0.0012       0.001190       0.00071
  21     81.20        0.0000        0.0000        0.0006        0.0007       0.000647       0.00036
  20     96.49        0.0000        0.0000        0.0003        0.0003       0.000330       0.00018
  19     114.6        0.0000        0.0000        0.0001        0.0002       0.000151       0.00008
  18     136.5        0.0000        0.0000        0.0001        0.0001       0.000060       0.00003
  17     162.9        0.0000        0.0000        0.0000        0.0000       0.000020       0.00001
  16     196.4        0.0000        0.0000        0.0000        0.0000       0.000005       0.00000
  15     218.7        0.0000        0.0000        0.0000        0.0000       0.000002       0.00000
  14     243.0        0.0000        0.0000        0.0000        0.0000       0.000001       0.00000
  13     269.0        0.0000        0.0000        0.0000        0.0000       0.000000       0.00000
  12     297.5        0.0000        0.0000        0.0000        0.0000       0.000000       0.00000
  11     328.5        0.0000        0.0000        0.0000        0.0000       0.000000       0.00000
  10     361.9        0.0000        0.0000        0.0000        0.0000       0.000000       0.00000
   9     398.1        0.0000        0.0000        0.0000        0.0000       0.000000       0.00000
   8     437.6        0.0000        0.0000        0.0000        0.0000       0.000000       0.00000
   7     480.5        0.0000        0.0000        0.0000        0.0000       0.000000       0.00000
   6     533.0        0.0000        0.0000        0.0000        0.0000       0.000000       0.00000
   5     589.8        0.0000        0.0000        0.0000        0.0000       0.000000       0.00000
   4     651.6        0.0000        0.0000        0.0000        0.0000       0.000000       0.00000
   3     718.7        0.0000        0.0000        0.0000        0.0000       0.000000       0.00000
   2     792.3        0.0000        0.0000        0.0000        0.0000       0.000000       0.00000
   1     891.5        0.0000        0.0000        0.0000        0.0000       0.000000       0.00000
   0    1013.0        0.0000        0.0000        0.0000        0.0000       0.000000       0.00000



 Wavenumbers:   820. -  2600. cm-1, ATM      1
 LEVEL PRESSURE   UPWARD FLUX   DIFDOWN FLUX  DIRDOWN FLUX  DOWNWARD FLUX   NET FLUX    HEATING RATE
          mb          W/m2          W/m2          W/m2        W/m2          W/m2       degree/day
  51    .06700        0.6463        0.0000       13.2264       13.2264      12.580031       0.00000
  50    .07753        0.6463        0.0000       13.2194       13.2194      12.573009       5.62796
  49    .09103        0.6463        0.0000       13.2178       13.2178      12.571435       0.98411
  48    0.1069        0.6463        0.0000       13.2167       13.2167      12.570308       0.59957
  47    0.1255        0.6463        0.0000       13.2154       13.2154      12.569017       0.58516
  46    0.1487        0.6463        0.0000       13.2137       13.2137      12.567360       0.60402
  45    0.1794        0.6463        0.0000       13.2114       13.2114      12.565101       0.62013
  44    0.2165        0.6463        0.0000       13.2088       13.2088      12.562483       0.59557
  43    0.2613        0.6463        0.0000       13.2059       13.2059      12.559502       0.56189
  42    0.3336        0.6463        0.0000       13.2013       13.2013      12.554939       0.53211
  41    0.4307        0.6463        0.0000       13.1959       13.1959      12.549568       0.46697
  40    0.5894        0.6463        0.0000       13.1882       13.1882      12.541876       0.40903
  39     1.339        0.6464        0.0000       13.1557       13.1557      12.509339       0.36631
  38     1.782        0.6464        0.0000       13.1371       13.1371      12.490751       0.35388
  37     2.292        0.6464        0.0000       13.1162       13.1162      12.469804       0.34694
  36     2.964        0.6464        0.0000       13.0894       13.0894      12.443048       0.33587
  35     3.853        0.6464        0.0000       13.0549       13.0549      12.408545       0.32744
  34     5.035        0.6464        0.0000       13.0106       13.0106      12.364238       0.31651
  33     6.613        0.6464        0.0000       12.9545       12.9545      12.308118       0.30002
  32     8.786        0.6464        0.0000       12.8834       12.8834      12.236985       0.27625
  31     11.80        0.6464        0.0000       12.7885       12.7885      12.142077       0.26571
  30     15.07        0.6464        0.0000       12.6943       12.6944      12.047964       0.24298
  29     18.79        0.6464        0.0000       12.5999       12.5999      11.953498       0.21418
  28     23.16        0.6464        0.0000       12.5086       12.5086      11.862218       0.17651
  27     28.12        0.6464        0.0000       12.4288       12.4289      11.782431       0.13563
  26     33.73        0.6464        0.0000       12.3650       12.3650      11.718577       0.09601
  25     40.54        0.6465        0.0000       12.3120       12.3120      11.665542       0.06579
  24     48.69        0.6465        0.0000       12.2668       12.2668      11.620374       0.04674
  23     57.69        0.6465        0.0000       12.2260       12.2260      11.579505       0.03831
  22     68.43        0.6465        0.0000       12.1803       12.1803      11.533740       0.03598
  21     81.20        0.6466        0.0000       12.1270       12.1270      11.480465       0.03520
  20     96.49        0.6466        0.0000       12.0640       12.0640      11.417372       0.03482
  19     114.6        0.6467        0.0000       11.9885       11.9886      11.341897       0.03524
  18     136.5        0.6467        0.0000       11.8987       11.8988      11.252044       0.03455
  17     162.9        0.6468        0.0000       11.7817       11.7818      11.134943       0.03743
  16     196.4        0.6470        0.0000       11.5930       11.5930      10.946032       0.04755
  15     218.7        0.6471        0.0000       11.4055       11.4056      10.758437       0.07122
  14     243.0        0.6474        0.0000       11.1045       11.1045      10.457137       0.10450
  13     269.0        0.6478        0.0000       10.6901       10.6901      10.042352       0.13455
  12     297.5        0.6484        0.0000       10.2200       10.2201       9.571682       0.13960
  11     328.5        0.6492        0.0000        9.8187        9.8187       9.169522       0.10935
  10     361.9        0.6503        0.0000        9.4313        9.4313       8.781014       0.09830
   9     398.1        0.6518        0.0000        8.9858        8.9858       8.334004       0.10414
   8     437.6        0.6537        0.0000        8.4654        8.4654       7.811760       0.11166
   7     480.5        0.6560        0.0000        7.9394        7.9395       7.283457       0.10376
   6     533.0        0.6596        0.0000        7.4262        7.4262       6.766576       0.08315
   5     589.8        0.6649        0.0000        7.0503        7.0503       6.385395       0.05658
   4     651.6        0.6743        0.0000        6.7312        6.7313       6.056927       0.04492
   3     718.7        0.6904        0.0000        6.3693        6.3693       5.678892       0.04751
   2     792.3        0.7198        0.0000        5.9171        5.9172       5.197392       0.05522
   1     891.5        0.7951        0.0000        5.2716        5.2716       4.476511       0.06134
   0    1013.0        1.0011        0.0000        4.5136        4.5136       3.512508       0.06694

  Modules and versions used in this calculation:

       rrtmg_sw.1col.f90:  $Revision$                    rrtmg_sw_init.f90:  $Revision$        
     rrtmgsw_cldprop.f90:  $Revision$                  rrtmgsw_cldprmc.f90:  NOT USED          
     rrtmg_sw_reftra.f90:  $Revision$                  rrtmg_sw_spcvrt.f90:  NOT USED          
     rrtmg_sw_spcvmc.f90:  NOT USED                    rrtmgsw_setcoef.f90:  NOT USED          
     rrtmg_sw_taumol.f90:  $Revision$                  rrtmg_sw_vrtqdr.f90:  NOT USED          
                rrtatm.f:  NOT USED                             util_xxx.f:  NOT USED          
                 extra.f:  NOT USED                       rrtmg_sw_k_g.f90:  $Revision$        

