

 Wavenumbers:   820. - 50000. cm-1, ATM      1
 LEVEL PRESSURE   UPWARD FLUX   DIFDOWN FLUX  DIRDOWN FLUX  DOWNWARD FLUX   NET FLUX    HEATING RATE
          mb          W/m2          W/m2          W/m2        W/m2          W/m2       degree/day
  51    .06700      651.4920        0.0000     1360.8491     1360.8491     709.357112       0.00000
  50    .07753      651.4917        0.0014     1360.8273     1360.8287     709.336944      16.16498
  49    .09103      651.4914        0.0032     1360.8078     1360.8109     709.319541      10.87698
  48    0.1069      651.4911        0.0052     1360.7860     1360.7912     709.300140      10.32757
  47    0.1255      651.4907        0.0075     1360.7600     1360.7675     709.276827      10.56880
  46    0.1487      651.4903        0.0105     1360.7249     1360.7354     709.245035      11.58846
  45    0.1794      651.4899        0.0145     1360.6734     1360.6879     709.198031      12.90370
  44    0.2165      651.4895        0.0193     1360.6074     1360.6266     709.137083      13.86470
  43    0.2613      651.4893        0.0249     1360.5219     1360.5468     709.057525      14.99635
  42    0.3336      651.4892        0.0341     1360.3673     1360.4014     708.912222      16.94090
  41    0.4307      651.4896        0.0463     1360.1456     1360.1920     708.702330      18.24964
  40    0.5894      651.4914        0.0661     1359.7482     1359.8143     708.322909      20.17713
  39     1.339      651.5201        0.1561     1357.3733     1357.5294     706.009326      26.04674
  38     1.782      651.5512        0.2067     1355.8375     1356.0442     704.492978      28.86882
  37     2.292      651.6003        0.2642     1354.1208     1354.3851     702.784754      28.29266
  36     2.964      651.6846        0.3388     1352.1205     1352.4593     700.774781      25.23124
  35     3.853      651.8236        0.4367     1349.9734     1350.4101     698.586519      20.76700
  34     5.035      652.0356        0.5660     1347.7761     1348.3421     696.306479      16.28766
  33     6.613      652.3337        0.7381     1345.5290     1346.2671     693.933377      12.68661
  32     8.786      652.7231        0.9693     1343.2079     1344.1771     691.454002       9.62900
  31     11.80      653.2313        1.2989     1340.6494     1341.9483     688.716990       7.66277
  30     15.07      653.7202        1.6518     1338.4304     1340.0822     686.361993       6.08014
  29     18.79      654.2219        2.0490     1336.2864     1338.3354     684.113568       5.09787
  28     23.16      654.7497        2.5118     1334.1057     1336.6174     681.867679       4.34282
  27     28.12      655.2849        3.0397     1331.9136     1334.9532     679.668343       3.73872
  26     33.73      655.7812        3.6300     1329.7853     1333.4154     677.634199       3.05839
  25     40.54      656.2595        4.3427     1327.5375     1331.8802     675.620701       2.49797
  24     48.69      656.7178        5.2007     1325.1261     1330.3268     673.609042       2.08175
  23     57.69      657.1047        6.1417     1322.7388     1328.8804     671.775741       1.71844
  22     68.43      657.4366        7.2606     1320.1544     1327.4150     669.978367       1.41298
  21     81.20      657.6485        8.5930     1317.3916     1325.9847     668.336178       1.08513
  20     96.49      657.7266       10.1783     1314.3811     1324.5595     666.832919       0.82969
  19     114.6      657.7411       12.0518     1310.9471     1322.9989     665.257729       0.73550
  18     136.5      657.6929       14.2557     1306.9977     1321.2535     663.560586       0.65259
  17     162.9      657.5742       16.8573     1302.3518     1319.2092     661.634918       0.61552
  16     196.4      657.2868       20.2003     1296.2678     1316.4681     659.181282       0.61761
  15     218.7      657.0478       22.3735     1291.7724     1314.1459     657.098064       0.79092
  14     243.0      656.7662       24.7156     1286.1481     1310.8637     654.097419       1.04072
  13     269.0      656.4413       27.2304     1279.0245     1306.2550     649.813616       1.38965
  12     297.5      656.0781       29.9211     1270.1087     1300.0298     643.951695       1.73858
  11     328.5      655.6862       32.7965     1260.1713     1292.9677     637.281508       1.81361
  10     361.9      655.2719       35.8554     1249.4297     1285.2851     630.013146       1.83897
   9     398.1      654.8454       39.1052     1237.6382     1276.7433     621.897923       1.89066
   8     437.6      654.4303       42.5460     1224.3920     1266.9380     612.507718       2.00768
   7     480.5      654.0508       46.1790     1209.7358     1255.9148     601.864053       2.09038
   6     533.0      653.7216       50.5737     1191.2571     1241.8308     588.109146       2.21273
   5     589.8      653.6438       55.2146     1170.7333     1225.9479     572.304117       2.34598
   4     651.6      654.1742       60.0918     1147.0297     1207.1215     552.947280       2.64710
   3     718.7      655.7680       65.1953     1120.8952     1186.0905     530.322514       2.84331
   2     792.3      659.4965       70.4994     1092.1619     1162.6612     503.164727       3.11469
   1     891.5      670.3687       77.3928     1053.3991     1130.7919     460.423133       3.63710
   0    1013.0      703.1380       85.2754     1008.4859     1093.7614     390.623415       4.84655



 Wavenumbers:  2600. -  3250. cm-1, ATM      1
 LEVEL PRESSURE   UPWARD FLUX   DIFDOWN FLUX  DIRDOWN FLUX  DOWNWARD FLUX   NET FLUX    HEATING RATE
          mb          W/m2          W/m2          W/m2        W/m2          W/m2       degree/day
  51    .06700        3.8078        0.0000       11.9937       11.9937       8.185903       0.00000
  50    .07753        3.8078        0.0000       11.9937       11.9937       8.185895       0.00640
  49    .09103        3.8078        0.0000       11.9937       11.9937       8.185885       0.00627
  48    0.1069        3.8078        0.0000       11.9937       11.9937       8.185874       0.00613
  47    0.1255        3.8078        0.0000       11.9937       11.9937       8.185860       0.00600
  46    0.1487        3.8078        0.0000       11.9937       11.9937       8.185844       0.00608
  45    0.1794        3.8078        0.0000       11.9936       11.9936       8.185821       0.00625
  44    0.2165        3.8078        0.0000       11.9936       11.9936       8.185794       0.00613
  43    0.2613        3.8078        0.0000       11.9936       11.9936       8.185762       0.00601
  42    0.3336        3.8078        0.0000       11.9935       11.9935       8.185709       0.00619
  41    0.4307        3.8078        0.0000       11.9935       11.9935       8.185638       0.00622
  40    0.5894        3.8078        0.0000       11.9933       11.9933       8.185517       0.00640
  39     1.339        3.8078        0.0000       11.9926       11.9926       8.184801       0.00806
  38     1.782        3.8078        0.0000       11.9921       11.9921       8.184245       0.01057
  37     2.292        3.8078        0.0000       11.9913       11.9913       8.183505       0.01226
  36     2.964        3.8078        0.0000       11.9902       11.9902       8.182415       0.01368
  35     3.853        3.8078        0.0000       11.9886       11.9886       8.180831       0.01504
  34     5.035        3.8078        0.0000       11.9864       11.9864       8.178557       0.01624
  33     6.613        3.8078        0.0000       11.9832       11.9832       8.175340       0.01719
  32     8.786        3.8078        0.0000       11.9787       11.9787       8.170855       0.01742
  31     11.80        3.8078        0.0000       11.9722       11.9722       8.164380       0.01813
  30     15.07        3.8078        0.0000       11.9654       11.9654       8.157570       0.01758
  29     18.79        3.8078        0.0000       11.9581       11.9581       8.150276       0.01654
  28     23.16        3.8078        0.0000       11.9502       11.9502       8.142347       0.01533
  27     28.12        3.8078        0.0000       11.9418       11.9418       8.133999       0.01419
  26     33.73        3.8079        0.0000       11.9329       11.9329       8.125021       0.01350
  25     40.54        3.8079        0.0000       11.9222       11.9222       8.114300       0.01330
  24     48.69        3.8079        0.0000       11.9093       11.9094       8.101424       0.01332
  23     57.69        3.8080        0.0000       11.8949       11.8950       8.086978       0.01354
  22     68.43        3.8081        0.0000       11.8770       11.8771       8.068992       0.01414
  21     81.20        3.8082        0.0000       11.8544       11.8544       8.046207       0.01506
  20     96.49        3.8084        0.0001       11.8256       11.8257       8.017299       0.01596
  19     114.6        3.8086        0.0001       11.7886       11.7887       7.980061       0.01739
  18     136.5        3.8090        0.0001       11.7429       11.7430       7.934049       0.01769
  17     162.9        3.8095        0.0001       11.6869       11.6870       7.877557       0.01806
  16     196.4        3.8103        0.0001       11.6129       11.6130       7.802686       0.01885
  15     218.7        3.8112        0.0001       11.5605       11.5606       7.749410       0.02023
  14     243.0        3.8127        0.0001       11.4957       11.4958       7.683136       0.02299
  13     269.0        3.8149        0.0001       11.4130       11.4132       7.598221       0.02755
  12     297.5        3.8183        0.0002       11.3101       11.3103       7.491932       0.03152
  11     328.5        3.8231        0.0002       11.1933       11.1934       7.370335       0.03306
  10     361.9        3.8295        0.0002       11.0632       11.0634       7.233820       0.03454
   9     398.1        3.8383        0.0002       10.9149       10.9151       7.076771       0.03659
   8     437.6        3.8504        0.0002       10.7385       10.7388       6.888360       0.04028
   7     480.5        3.8668        0.0002       10.5233       10.5235       6.656691       0.04550
   6     533.0        3.8931        0.0003       10.2141       10.2143       6.321253       0.05396
   5     589.8        3.9323        0.0003        9.8147        9.8149       5.882664       0.06510
   4     651.6        3.9950        0.0003        9.2987        9.2990       5.303989       0.07914
   3     718.7        4.0940        0.0003        8.7065        8.7068       4.612835       0.08686
   2     792.3        4.2605        0.0003        8.0516        8.0519       3.791377       0.09421
   1     891.5        4.6619        0.0003        7.1628        7.1631       2.501236       0.10978
   0    1013.0        5.8029        0.0003        6.1112        6.1115       0.308630       0.15224



 Wavenumbers:  3250. -  4000. cm-1, ATM      1
 LEVEL PRESSURE   UPWARD FLUX   DIFDOWN FLUX  DIRDOWN FLUX  DOWNWARD FLUX   NET FLUX    HEATING RATE
          mb          W/m2          W/m2          W/m2        W/m2          W/m2       degree/day
  51    .06700        0.0038        0.0000       20.2197       20.2197      20.215904       0.00000
  50    .07753        0.0038        0.0000       20.2140       20.2140      20.210235       4.54406
  49    .09103        0.0038        0.0000       20.2088       20.2088      20.205004       3.26932
  48    0.1069        0.0038        0.0000       20.2043       20.2043      20.200580       2.35506
  47    0.1255        0.0038        0.0000       20.2005       20.2005      20.196700       1.75884
  46    0.1487        0.0038        0.0000       20.1965       20.1965      20.192778       1.42967
  45    0.1794        0.0037        0.0000       20.1921       20.1921      20.188335       1.21962
  44    0.2165        0.0037        0.0000       20.1875       20.1875      20.183769       1.03878
  43    0.2613        0.0037        0.0000       20.1827       20.1827      20.178929       0.91222
  42    0.3336        0.0037        0.0000       20.1757       20.1757      20.171907       0.81870
  41    0.4307        0.0037        0.0000       20.1678       20.1678      20.164013       0.68638
  40    0.5894        0.0037        0.0000       20.1571       20.1571      20.153319       0.56870
  39     1.339        0.0037        0.0000       20.1195       20.1195      20.115786       0.42255
  38     1.782        0.0037        0.0000       20.1017       20.1017      20.097955       0.33948
  37     2.292        0.0037        0.0000       20.0837       20.0837      20.079928       0.29857
  36     2.964        0.0037        0.0000       20.0629       20.0629      20.059178       0.26048
  35     3.853        0.0037        0.0000       20.0387       20.0387      20.034978       0.22966
  34     5.035        0.0037        0.0000       20.0099       20.0099      20.006136       0.20604
  33     6.613        0.0037        0.0000       19.9743       19.9743      19.970586       0.19005
  32     8.786        0.0037        0.0000       19.9279       19.9279      19.924183       0.18021
  31     11.80        0.0037        0.0000       19.8609       19.8609      19.857145       0.18768
  30     15.07        0.0037        0.0000       19.7861       19.7861      19.782352       0.19310
  29     18.79        0.0037        0.0000       19.6981       19.6981      19.694425       0.19936
  28     23.16        0.0037        0.0000       19.5924       19.5924      19.588704       0.20443
  27     28.12        0.0037        0.0000       19.4692       19.4692      19.465492       0.20945
  26     33.73        0.0037        0.0000       19.3318       19.3319      19.328167       0.20647
  25     40.54        0.0037        0.0001       19.1703       19.1704      19.166689       0.20033
  24     48.69        0.0037        0.0001       18.9874       18.9875      18.983800       0.18926
  23     57.69        0.0037        0.0001       18.8032       18.8032      18.799576       0.17268
  22     68.43        0.0037        0.0001       18.6047       18.6048      18.601168       0.15598
  21     81.20        0.0036        0.0001       18.3903       18.3904      18.386803       0.14165
  20     96.49        0.0036        0.0001       18.1531       18.1532      18.149561       0.13094
  19     114.6        0.0036        0.0001       17.8720       17.8722      17.868565       0.13121
  18     136.5        0.0036        0.0002       17.5464       17.5465      17.542962       0.12520
  17     162.9        0.0035        0.0002       17.1484       17.1486      17.145081       0.12718
  16     196.4        0.0035        0.0002       16.5656       16.5658      16.562315       0.14669
  15     218.7        0.0035        0.0002       16.0235       16.0238      16.020294       0.20579
  14     243.0        0.0035        0.0003       15.2654       15.2657      15.262196       0.26293
  13     269.0        0.0034        0.0003       14.2510       14.2513      14.247814       0.32906
  12     297.5        0.0034        0.0003       13.0349       13.0352      13.031725       0.36068
  11     328.5        0.0034        0.0003       11.8274       11.8277      11.824242       0.32831
  10     361.9        0.0034        0.0002       10.6546       10.6548      10.651381       0.29675
   9     398.1        0.0034        0.0002        9.4801        9.4803       9.476869       0.27363
   8     437.6        0.0035        0.0002        8.3186        8.3188       8.315343       0.24834
   7     480.5        0.0035        0.0002        7.2534        7.2537       7.250107       0.20921
   6     533.0        0.0037        0.0002        6.1288        6.1290       6.125283       0.18095
   5     589.8        0.0040        0.0002        5.0588        5.0590       5.054983       0.15887
   4     651.6        0.0047        0.0001        3.9729        3.9731       3.968394       0.14859
   3     718.7        0.0061        0.0001        2.9378        2.9379       2.931725       0.13028
   2     792.3        0.0100        0.0001        1.9615        1.9616       1.951599       0.11241
   1     891.5        0.0307        0.0000        0.9920        0.9920       0.961314       0.08427
   0    1013.0        0.2959        0.0000        0.3116        0.3117       0.015738       0.06566



 Wavenumbers:  4000. -  4650. cm-1, ATM      1
 LEVEL PRESSURE   UPWARD FLUX   DIFDOWN FLUX  DIRDOWN FLUX  DOWNWARD FLUX   NET FLUX    HEATING RATE
          mb          W/m2          W/m2          W/m2        W/m2          W/m2       degree/day
  51    .06700       13.9657        0.0000       23.7440       23.7440       9.778241       0.00000
  50    .07753       13.9657        0.0000       23.7440       23.7440       9.778240       0.00080
  49    .09103       13.9657        0.0000       23.7440       23.7440       9.778239       0.00078
  48    0.1069       13.9657        0.0000       23.7440       23.7440       9.778238       0.00076
  47    0.1255       13.9657        0.0000       23.7440       23.7440       9.778236       0.00075
  46    0.1487       13.9657        0.0000       23.7440       23.7440       9.778234       0.00076
  45    0.1794       13.9657        0.0000       23.7440       23.7440       9.778231       0.00078
  44    0.2165       13.9657        0.0000       23.7440       23.7440       9.778228       0.00076
  43    0.2613       13.9657        0.0000       23.7440       23.7440       9.778224       0.00075
  42    0.3336       13.9657        0.0000       23.7440       23.7440       9.778217       0.00077
  41    0.4307       13.9657        0.0000       23.7439       23.7439       9.778208       0.00077
  40    0.5894       13.9657        0.0000       23.7439       23.7439       9.778193       0.00080
  39     1.339       13.9657        0.0000       23.7438       23.7438       9.778104       0.00101
  38     1.782       13.9657        0.0000       23.7438       23.7438       9.778034       0.00133
  37     2.292       13.9657        0.0000       23.7437       23.7437       9.777940       0.00156
  36     2.964       13.9657        0.0000       23.7435       23.7435       9.777799       0.00177
  35     3.853       13.9657        0.0000       23.7433       23.7433       9.777590       0.00198
  34     5.035       13.9657        0.0000       23.7430       23.7430       9.777282       0.00220
  33     6.613       13.9657        0.0000       23.7425       23.7426       9.776828       0.00243
  32     8.786       13.9657        0.0001       23.7418       23.7419       9.776157       0.00261
  31     11.80       13.9657        0.0001       23.7408       23.7408       9.775099       0.00296
  30     15.07       13.9658        0.0001       23.7395       23.7396       9.773852       0.00322
  29     18.79       13.9658        0.0001       23.7380       23.7381       9.772339       0.00343
  28     23.16       13.9658        0.0002       23.7361       23.7362       9.770451       0.00365
  27     28.12       13.9658        0.0002       23.7338       23.7340       9.768153       0.00391
  26     33.73       13.9659        0.0002       23.7309       23.7312       9.765302       0.00429
  25     40.54       13.9659        0.0003       23.7271       23.7273       9.761407       0.00483
  24     48.69       13.9660        0.0003       23.7219       23.7222       9.756171       0.00542
  23     57.69       13.9662        0.0004       23.7157       23.7161       9.749902       0.00588
  22     68.43       13.9664        0.0005       23.7079       23.7084       9.741967       0.00624
  21     81.20       13.9668        0.0005       23.6983       23.6988       9.732077       0.00653
  20     96.49       13.9672        0.0006       23.6865       23.6871       9.719901       0.00672
  19     114.6       13.9680        0.0008       23.6717       23.6724       9.704474       0.00720
  18     136.5       13.9690        0.0009       23.6537       23.6546       9.685638       0.00724
  17     162.9       13.9705        0.0011       23.6317       23.6327       9.662220       0.00749
  16     196.4       13.9732        0.0013       23.6012       23.6025       9.629321       0.00828
  15     218.7       13.9756        0.0014       23.5777       23.5791       9.603556       0.00978
  14     243.0       13.9791        0.0016       23.5456       23.5472       9.568060       0.01231
  13     269.0       13.9845        0.0018       23.4995       23.5012       9.516783       0.01663
  12     297.5       13.9923        0.0019       23.4351       23.4370       9.444708       0.02138
  11     328.5       14.0031        0.0021       23.3555       23.3576       9.354499       0.02453
  10     361.9       14.0173        0.0024       23.2571       23.2595       9.242179       0.02842
   9     398.1       14.0349        0.0026       23.1295       23.1321       9.097211       0.03377
   8     437.6       14.0570        0.0028       22.9586       22.9614       8.904421       0.04122
   7     480.5       14.0847        0.0031       22.7369       22.7400       8.655329       0.04892
   6     533.0       14.1261        0.0034       22.4191       22.4224       8.296290       0.05776
   5     589.8       14.1841        0.0037       22.0335       22.0372       7.853075       0.06579
   4     651.6       14.2732        0.0040       21.5654       21.5694       7.296181       0.07616
   3     718.7       14.4134        0.0043       21.0164       21.0207       6.607353       0.08657
   2     792.3       14.6485        0.0046       20.2979       20.3025       5.654036       0.10933
   1     891.5       15.2089        0.0050       19.1088       19.1137       3.904835       0.14885
   0    1013.0       16.7517        0.0054       17.6373       17.6426       0.890953       0.20927



 Wavenumbers:  4650. -  5150. cm-1, ATM      1
 LEVEL PRESSURE   UPWARD FLUX   DIFDOWN FLUX  DIRDOWN FLUX  DOWNWARD FLUX   NET FLUX    HEATING RATE
          mb          W/m2          W/m2          W/m2        W/m2          W/m2       degree/day
  51    .06700       10.1473        0.0000       22.4748       22.4748      12.327494       0.00000
  50    .07753       10.1473        0.0000       22.4746       22.4746      12.327258       0.18925
  49    .09103       10.1473        0.0000       22.4743       22.4743      12.326962       0.18504
  48    0.1069       10.1473        0.0000       22.4739       22.4739      12.326623       0.18065
  47    0.1255       10.1473        0.0000       22.4735       22.4735      12.326234       0.17622
  46    0.1487       10.1473        0.0000       22.4730       22.4730      12.325745       0.17814
  45    0.1794       10.1473        0.0000       22.4724       22.4724      12.325081       0.18241
  44    0.2165       10.1473        0.0000       22.4716       22.4716      12.324299       0.17785
  43    0.2613       10.1473        0.0000       22.4707       22.4707      12.323380       0.17328
  42    0.3336       10.1473        0.0000       22.4692       22.4692      12.321874       0.17553
  41    0.4307       10.1473        0.0000       22.4672       22.4672      12.319906       0.17112
  40    0.5894       10.1473        0.0000       22.4641       22.4641      12.316760       0.16732
  39     1.339       10.1473        0.0000       22.4502       22.4502      12.302925       0.15575
  38     1.782       10.1473        0.0000       22.4428       22.4429      12.295553       0.14037
  37     2.292       10.1473        0.0000       22.4349       22.4350      12.287664       0.13065
  36     2.964       10.1473        0.0000       22.4255       22.4255      12.278232       0.11840
  35     3.853       10.1473        0.0000       22.4145       22.4145      12.267211       0.10459
  34     5.035       10.1473        0.0000       22.4019       22.4020      12.254653       0.08971
  33     6.613       10.1473        0.0001       22.3880       22.3881      12.240778       0.07418
  32     8.786       10.1474        0.0001       22.3731       22.3732      12.225800       0.05817
  31     11.80       10.1474        0.0001       22.3562       22.3563      12.208952       0.04717
  30     15.07       10.1475        0.0001       22.3413       22.3414      12.193965       0.03869
  29     18.79       10.1475        0.0002       22.3259       22.3261      12.178514       0.03503
  28     23.16       10.1477        0.0002       22.3082       22.3084      12.160687       0.03447
  27     28.12       10.1479        0.0003       22.2870       22.2873      12.139408       0.03617
  26     33.73       10.1481        0.0003       22.2617       22.2620      12.113886       0.03837
  25     40.54       10.1484        0.0004       22.2285       22.2289      12.080441       0.04149
  24     48.69       10.1489        0.0004       22.1852       22.1856      12.036721       0.04524
  23     57.69       10.1495        0.0005       22.1340       22.1346      11.985065       0.04842
  22     68.43       10.1504        0.0006       22.0694       22.0700      11.919679       0.05140
  21     81.20       10.1515        0.0007       21.9886       21.9894      11.837833       0.05408
  20     96.49       10.1531        0.0009       21.8895       21.8904      11.737230       0.05553
  19     114.6       10.1554        0.0010       21.7708       21.7719      11.616488       0.05638
  18     136.5       10.1584        0.0012       21.6320       21.6332      11.474809       0.05448
  17     162.9       10.1627        0.0014       21.4726       21.4740      11.311317       0.05226
  16     196.4       10.1692        0.0017       21.2786       21.2803      11.111125       0.05039
  15     218.7       10.1743        0.0019       21.1582       21.1601      10.985812       0.04758
  14     243.0       10.1810        0.0021       21.0313       21.0334      10.852403       0.04627
  13     269.0       10.1900        0.0023       20.8948       20.8971      10.707126       0.04713
  12     297.5       10.2026        0.0026       20.7434       20.7460      10.543391       0.04856
  11     328.5       10.2190        0.0028       20.5767       20.5795      10.360468       0.04974
  10     361.9       10.2402        0.0031       20.3907       20.3938      10.153647       0.05233
   9     398.1       10.2677        0.0034       20.1791       20.1825       9.914808       0.05564
   8     437.6       10.3033        0.0037       19.9341       19.9378       9.634547       0.05992
   7     480.5       10.3494        0.0040       19.6480       19.6520       9.302585       0.06520
   6     533.0       10.4195        0.0043       19.2600       19.2643       8.844847       0.07364
   5     589.8       10.5163        0.0047       18.7890       18.7937       8.277426       0.08422
   4     651.6       10.6581        0.0051       18.1977       18.2028       7.544628       0.10021
   3     718.7       10.8692        0.0054       17.4829       17.4883       6.619084       0.11632
   2     792.3       11.1949        0.0057       16.6464       16.6522       5.457241       0.13325
   1     891.5       11.8976        0.0061       15.4816       15.4878       3.590144       0.15888
   0    1013.0       13.4756        0.0066       14.1857       14.1923       0.716711       0.19952



 Wavenumbers:  5150. -  6150. cm-1, ATM      1
 LEVEL PRESSURE   UPWARD FLUX   DIFDOWN FLUX  DIRDOWN FLUX  DOWNWARD FLUX   NET FLUX    HEATING RATE
          mb          W/m2          W/m2          W/m2        W/m2          W/m2       degree/day
  51    .06700       24.2822        0.0000       56.3444       56.3444      32.062156       0.00000
  50    .07753       24.2822        0.0000       56.3444       56.3444      32.062116       0.03168
  49    .09103       24.2822        0.0000       56.3443       56.3443      32.062065       0.03216
  48    0.1069       24.2822        0.0000       56.3442       56.3442      32.062003       0.03267
  47    0.1255       24.2822        0.0000       56.3442       56.3442      32.061930       0.03318
  46    0.1487       24.2822        0.0000       56.3441       56.3441      32.061834       0.03496
  45    0.1794       24.2822        0.0000       56.3439       56.3439      32.061699       0.03721
  44    0.2165       24.2822        0.0000       56.3438       56.3438      32.061533       0.03779
  43    0.2613       24.2822        0.0000       56.3436       56.3436      32.061329       0.03838
  42    0.3336       24.2822        0.0000       56.3432       56.3432      32.060981       0.04057
  41    0.4307       24.2822        0.0000       56.3427       56.3428      32.060508       0.04115
  40    0.5894       24.2822        0.0000       56.3419       56.3420      32.059714       0.04222
  39     1.339       24.2823        0.0001       56.3381       56.3381      32.055870       0.04328
  38     1.782       24.2823        0.0001       56.3358       56.3359      32.053617       0.04290
  37     2.292       24.2823        0.0001       56.3332       56.3333      32.051053       0.04247
  36     2.964       24.2823        0.0001       56.3299       56.3301      32.047774       0.04116
  35     3.853       24.2823        0.0002       56.3257       56.3259      32.043573       0.03987
  34     5.035       24.2823        0.0002       56.3203       56.3205      32.038108       0.03904
  33     6.613       24.2824        0.0003       56.3131       56.3133      32.030925       0.03840
  32     8.786       24.2825        0.0004       56.3036       56.3039      32.021457       0.03677
  31     11.80       24.2826        0.0005       56.2905       56.2910      32.008355       0.03668
  30     15.07       24.2828        0.0006       56.2770       56.2777      31.994863       0.03483
  29     18.79       24.2830        0.0008       56.2626       56.2634      31.980366       0.03287
  28     23.16       24.2832        0.0009       56.2466       56.2475      31.964274       0.03112
  27     28.12       24.2836        0.0011       56.2292       56.2304      31.946797       0.02971
  26     33.73       24.2839        0.0014       56.2110       56.2124      31.928460       0.02757
  25     40.54       24.2845        0.0017       56.1906       56.1923      31.907774       0.02566
  24     48.69       24.2852        0.0020       56.1681       56.1701      31.884865       0.02371
  23     57.69       24.2861        0.0023       56.1451       56.1475      31.861364       0.02203
  22     68.43       24.2873        0.0028       56.1195       56.1223      31.835062       0.02068
  21     81.20       24.2887        0.0033       56.0907       56.0940      31.805262       0.01969
  20     96.49       24.2905        0.0039       56.0573       56.0612      31.770759       0.01904
  19     114.6       24.2926        0.0047       56.0182       56.0229      31.730267       0.01891
  18     136.5       24.2953        0.0055       55.9719       55.9774      31.682117       0.01851
  17     162.9       24.2986        0.0066       55.9013       55.9078      31.609254       0.02329
  16     196.4       24.3030        0.0079       55.7479       55.7558      31.452788       0.03938
  15     218.7       24.3061        0.0088       55.5243       55.5331      31.226973       0.08573
  14     243.0       24.3098        0.0097       55.1190       55.1287      30.818893       0.14154
  13     269.0       24.3143        0.0106       54.3924       54.4030      30.088728       0.23686
  12     297.5       24.3199        0.0116       53.2527       53.2643      28.944351       0.33941
  11     328.5       24.3269        0.0125       51.9857       51.9982      27.671312       0.34614
  10     361.9       24.3357        0.0136       50.6721       50.6856      26.349965       0.33431
   9     398.1       24.3467        0.0146       49.1893       49.2039      24.857206       0.34778
   8     437.6       24.3610        0.0156       47.4187       47.4343      23.073282       0.38141
   7     480.5       24.3798        0.0167       45.4500       45.4666      21.086847       0.39013
   6     533.0       24.4097        0.0179       43.0596       43.0775      18.667763       0.38915
   5     589.8       24.4554        0.0191       40.5463       40.5654      16.110007       0.37965
   4     651.6       24.5341        0.0204       37.8928       37.9133      13.379162       0.37345
   3     718.7       24.6710        0.0219       35.4719       35.4938      10.822800       0.32126
   2     792.3       24.9259        0.0234       33.4066       33.4301       8.504120       0.26593
   1     891.5       25.6170        0.0255       31.3475       31.3730       5.756019       0.23385
   0    1013.0       27.8293        0.0277       29.2817       29.3094       1.480124       0.29690



 Wavenumbers:  6150. -  7700. cm-1, ATM      1
 LEVEL PRESSURE   UPWARD FLUX   DIFDOWN FLUX  DIRDOWN FLUX  DOWNWARD FLUX   NET FLUX    HEATING RATE
          mb          W/m2          W/m2          W/m2        W/m2          W/m2       degree/day
  51    .06700       36.7577        0.0000      104.2111      104.2111      67.453462       0.00000
  50    .07753       36.7577        0.0000      104.2111      104.2111      67.453405       0.04554
  49    .09103       36.7577        0.0000      104.2110      104.2110      67.453332       0.04583
  48    0.1069       36.7577        0.0000      104.2109      104.2109      67.453245       0.04615
  47    0.1255       36.7577        0.0000      104.2108      104.2108      67.453143       0.04646
  46    0.1487       36.7577        0.0000      104.2107      104.2107      67.453010       0.04854
  45    0.1794       36.7577        0.0000      104.2105      104.2105      67.452823       0.05129
  44    0.2165       36.7577        0.0000      104.2102      104.2102      67.452596       0.05171
  43    0.2613       36.7577        0.0000      104.2099      104.2100      67.452319       0.05215
  42    0.3336       36.7576        0.0000      104.2095      104.2095      67.451849       0.05478
  41    0.4307       36.7576        0.0001      104.2088      104.2089      67.451213       0.05531
  40    0.5894       36.7576        0.0001      104.2077      104.2078      67.450151       0.05648
  39     1.339       36.7576        0.0002      104.2024      104.2026      67.445031       0.05764
  38     1.782       36.7576        0.0003      104.1993      104.1996      67.442033       0.05707
  37     2.292       36.7576        0.0004      104.1958      104.1962      67.438617       0.05659
  36     2.964       36.7575        0.0005      104.1913      104.1917      67.434230       0.05506
  35     3.853       36.7575        0.0006      104.1854      104.1861      67.428582       0.05360
  34     5.035       36.7574        0.0008      104.1778      104.1786      67.421210       0.05266
  33     6.613       36.7573        0.0011      104.1678      104.1688      67.411497       0.05193
  32     8.786       36.7572        0.0014      104.1545      104.1559      67.398640       0.04993
  31     11.80       36.7571        0.0019      104.1359      104.1378      67.380723       0.05016
  30     15.07       36.7569        0.0024      104.1166      104.1190      67.362100       0.04808
  29     18.79       36.7568        0.0030      104.0956      104.0986      67.341855       0.04590
  28     23.16       36.7566        0.0037      104.0720      104.0757      67.319105       0.04399
  27     28.12       36.7563        0.0045      104.0459      104.0504      67.294081       0.04254
  26     33.73       36.7561        0.0054      104.0181      104.0235      67.267463       0.04002
  25     40.54       36.7557        0.0065      103.9863      103.9928      67.237045       0.03774
  24     48.69       36.7554        0.0078      103.9504      103.9582      67.202816       0.03542
  23     57.69       36.7549        0.0092      103.9130      103.9222      67.167269       0.03332
  22     68.43       36.7544        0.0109      103.8705      103.8815      67.127018       0.03164
  21     81.20       36.7539        0.0130      103.8219      103.8348      67.080962       0.03043
  20     96.49       36.7532        0.0154      103.7651      103.7805      67.027346       0.02959
  19     114.6       36.7523        0.0183      103.6981      103.7164      66.964067       0.02955
  18     136.5       36.7514        0.0217      103.6182      103.6399      66.888491       0.02906
  17     162.9       36.7503        0.0258      103.5018      103.5276      66.777269       0.03555
  16     196.4       36.7491        0.0311      103.2601      103.2912      66.542057       0.05921
  15     218.7       36.7485        0.0345      102.9097      102.9442      66.195671       0.13151
  14     243.0       36.7484        0.0381      102.2732      102.3114      65.562966       0.21944
  13     269.0       36.7492        0.0419      101.2641      101.3060      64.556814       0.32639
  12     297.5       36.7517        0.0456       99.6695       99.7151      62.963415       0.47258
  11     328.5       36.7566        0.0495       97.6082       97.6577      60.901134       0.56073
  10     361.9       36.7649        0.0535       95.2483       95.3017      58.536880       0.59818
   9     398.1       36.7784        0.0576       92.6564       92.7139      55.935556       0.60605
   8     437.6       36.8002        0.0616       89.7047       89.7662      52.966093       0.63489
   7     480.5       36.8338        0.0656       86.3265       86.3921      49.558297       0.66928
   6     533.0       36.8953        0.0701       81.9787       82.0488      45.153504       0.70859
   5     589.8       37.0000        0.0745       77.1953       77.2698      40.269757       0.72491
   4     651.6       37.1951        0.0785       71.7796       71.8582      34.663041       0.76673
   3     718.7       37.5476        0.0825       66.2294       66.3119      28.764296       0.74131
   2     792.3       38.2118        0.0862       60.7106       60.7968      22.584976       0.70870
   1     891.5       39.9858        0.0906       54.2338       54.3244      14.338640       0.70172
   0    1013.0       45.6652        0.0957       47.9982       48.0939       2.428743       0.82697



 Wavenumbers:  7700. -  8050. cm-1, ATM      1
 LEVEL PRESSURE   UPWARD FLUX   DIFDOWN FLUX  DIRDOWN FLUX  DOWNWARD FLUX   NET FLUX    HEATING RATE
          mb          W/m2          W/m2          W/m2        W/m2          W/m2       degree/day
  51    .06700       19.4412        0.0000       24.6282       24.6282       5.186970       0.00000
  50    .07753       19.4412        0.0000       24.6282       24.6282       5.186938       0.02537
  49    .09103       19.4412        0.0000       24.6281       24.6281       5.186898       0.02486
  48    0.1069       19.4413        0.0000       24.6281       24.6281       5.186853       0.02434
  47    0.1255       19.4413        0.0000       24.6281       24.6281       5.186800       0.02382
  46    0.1487       19.4413        0.0000       24.6280       24.6281       5.186734       0.02417
  45    0.1794       19.4414        0.0000       24.6280       24.6280       5.186643       0.02487
  44    0.2165       19.4414        0.0000       24.6279       24.6279       5.186536       0.02440
  43    0.2613       19.4415        0.0000       24.6279       24.6279       5.186409       0.02394
  42    0.3336       19.4416        0.0000       24.6277       24.6278       5.186199       0.02450
  41    0.4307       19.4417        0.0000       24.6276       24.6276       5.185920       0.02424
  40    0.5894       19.4419        0.0000       24.6273       24.6273       5.185465       0.02421
  39     1.339       19.4428        0.0001       24.6260       24.6261       5.183310       0.02426
  38     1.782       19.4434        0.0002       24.6253       24.6254       5.182044       0.02411
  37     2.292       19.4441        0.0002       24.6244       24.6246       5.180578       0.02428
  36     2.964       19.4449        0.0003       24.6233       24.6236       5.178652       0.02417
  35     3.853       19.4460        0.0003       24.6218       24.6221       5.176107       0.02415
  34     5.035       19.4475        0.0004       24.6198       24.6203       5.172725       0.02417
  33     6.613       19.4495        0.0006       24.6172       24.6177       5.168203       0.02417
  32     8.786       19.4523        0.0008       24.6136       24.6144       5.162104       0.02369
  31     11.80       19.4561        0.0010       24.6085       24.6095       5.153370       0.02445
  30     15.07       19.4603        0.0013       24.6030       24.6043       5.143982       0.02424
  29     18.79       19.4651        0.0017       24.5968       24.5984       5.133365       0.02407
  28     23.16       19.4706        0.0020       24.5895       24.5916       5.120949       0.02401
  27     28.12       19.4770        0.0025       24.5812       24.5837       5.106731       0.02417
  26     33.73       19.4842        0.0030       24.5720       24.5750       5.090799       0.02395
  25     40.54       19.4929        0.0036       24.5608       24.5644       5.071521       0.02392
  24     48.69       19.5034        0.0043       24.5473       24.5516       5.048243       0.02409
  23     57.69       19.5150        0.0051       24.5326       24.5377       5.022629       0.02401
  22     68.43       19.5290        0.0060       24.5150       24.5210       4.992065       0.02403
  21     81.20       19.5457        0.0072       24.4941       24.5013       4.955575       0.02411
  20     96.49       19.5659        0.0085       24.4694       24.4779       4.911992       0.02406
  19     114.6       19.5900        0.0101       24.4400       24.4501       4.860102       0.02423
  18     136.5       19.6190        0.0120       24.4054       24.4174       4.798402       0.02372
  17     162.9       19.6540        0.0142       24.3644       24.3787       4.724643       0.02358
  16     196.4       19.7003        0.0172       24.3116       24.3288       4.628516       0.02420
  15     218.7       19.7311        0.0191       24.2771       24.2962       4.565044       0.02410
  14     243.0       19.7652        0.0212       24.2397       24.2609       4.495656       0.02407
  13     269.0       19.8029        0.0235       24.1993       24.2227       4.419881       0.02458
  12     297.5       19.8444        0.0259       24.1556       24.1815       4.337109       0.02455
  11     328.5       19.8905        0.0286       24.1084       24.1370       4.246559       0.02462
  10     361.9       19.9415        0.0315       24.0575       24.0890       4.147549       0.02505
   9     398.1       19.9982        0.0346       24.0026       24.0371       4.038887       0.02532
   8     437.6       20.0618        0.0379       23.9430       23.9809       3.919102       0.02561
   7     480.5       20.1331        0.0415       23.8783       23.9198       3.786743       0.02599
   6     533.0       20.2259        0.0459       23.7972       23.8431       3.617179       0.02728
   5     589.8       20.3341        0.0507       23.7068       23.7575       3.423436       0.02876
   4     651.6       20.4636        0.0558       23.6034       23.6593       3.195617       0.03115
   3     718.7       20.6223        0.0613       23.4831       23.5444       2.922174       0.03436
   2     792.3       20.8239        0.0672       23.3388       23.4061       2.582172       0.03899
   1     891.5       21.1662        0.0750       23.1128       23.1878       2.021592       0.04770
   0    1013.0       21.7198        0.0842       22.7908       22.8750       1.155187       0.06016



 Wavenumbers:  8050. - 12850. cm-1, ATM      1
 LEVEL PRESSURE   UPWARD FLUX   DIFDOWN FLUX  DIRDOWN FLUX  DOWNWARD FLUX   NET FLUX    HEATING RATE
          mb          W/m2          W/m2          W/m2        W/m2          W/m2       degree/day
  51    .06700      233.1557        0.0000      344.8128      344.8128     111.657124       0.00000
  50    .07753      233.1557        0.0000      344.8128      344.8128     111.657124       0.00000
  49    .09103      233.1557        0.0001      344.8127      344.8128     111.657124      -0.00000
  48    0.1069      233.1557        0.0002      344.8127      344.8128     111.657124       0.00000
  47    0.1255      233.1557        0.0002      344.8126      344.8128     111.657124      -0.00000
  46    0.1487      233.1557        0.0003      344.8125      344.8128     111.657124       0.00000
  45    0.1794      233.1557        0.0005      344.8124      344.8129     111.657124       0.00000
  44    0.2165      233.1557        0.0006      344.8122      344.8129     111.657124       0.00000
  43    0.2613      233.1557        0.0008      344.8121      344.8129     111.657124      -0.00000
  42    0.3336      233.1558        0.0011      344.8118      344.8129     111.657124      -0.00000
  41    0.4307      233.1558        0.0015      344.8114      344.8129     111.657124       0.00000
  40    0.5894      233.1558        0.0022      344.8108      344.8129     111.657124       0.00000
  39     1.339      233.1559        0.0052      344.8078      344.8131     111.657124      -0.00000
  38     1.782      233.1560        0.0071      344.8061      344.8131     111.657124       0.00000
  37     2.292      233.1561        0.0092      344.8041      344.8132     111.657124       0.00000
  36     2.964      233.1562        0.0119      344.8014      344.8133     111.657124       0.00000
  35     3.853      233.1564        0.0156      344.7979      344.8135     111.657124      -0.00000
  34     5.035      233.1566        0.0204      344.7933      344.8137     111.657124       0.00000
  33     6.613      233.1568        0.0269      344.7871      344.8140     111.657124      -0.00000
  32     8.786      233.1572        0.0356      344.7787      344.8143     111.657124       0.00000
  31     11.80      233.1577        0.0481      344.7667      344.8149     111.657124       0.00000
  30     15.07      233.1583        0.0616      344.7539      344.8154     111.657124       0.00000
  29     18.79      233.1589        0.0768      344.7393      344.8161     111.657124      -0.00000
  28     23.16      233.1597        0.0945      344.7223      344.8168     111.657124       0.00000
  27     28.12      233.1605        0.1149      344.7028      344.8177     111.657124       0.00000
  26     33.73      233.1615        0.1377      344.6809      344.8186     111.657124       0.00000
  25     40.54      233.1627        0.1653      344.6545      344.8198     111.657124       0.00000
  24     48.69      233.1640        0.1986      344.6225      344.8212     111.657124       0.00000
  23     57.69      233.1656        0.2353      344.5874      344.8227     111.657124      -0.00000
  22     68.43      233.1674        0.2790      344.5455      344.8245     111.657124      -0.00000
  21     81.20      233.1696        0.3312      344.4955      344.8267     111.657124       0.00000
  20     96.49      233.1722        0.3936      344.4358      344.8293     111.657124       0.00000
  19     114.6      233.1758        0.4677      344.3587      344.8264     111.650602       0.00305
  18     136.5      233.1800        0.5559      344.2667      344.8225     111.642516       0.00311
  17     162.9      233.1852        0.6611      344.1533      344.8143     111.629144       0.00427
  16     196.4      233.1922        0.7980      343.9892      344.7872     111.595003       0.00859
  15     218.7      233.1974        0.8881      343.8402      344.7283     111.530901       0.02434
  14     243.0      233.2046        0.9861      343.5933      344.5794     111.374852       0.05412
  13     269.0      233.2160        1.0924      343.1662      344.2585     111.042542       0.10780
  12     297.5      233.2355        1.2071      342.4819      343.6890     110.453469       0.17471
  11     328.5      233.2657        1.3310      341.5922      342.9232     109.657479       0.21643
  10     361.9      233.3118        1.4645      340.5080      341.9724     108.660595       0.25222
   9     398.1      233.3823        1.6078      339.1885      340.7963     107.414011       0.29043
   8     437.6      233.4914        1.7610      337.5272      339.2882     105.796816       0.34577
   7     480.5      233.6563        1.9242      335.4327      337.3569     103.700604       0.41169
   6     533.0      233.9500        2.1233      332.3652      334.4885     100.538453       0.50869
   5     589.8      234.4334        2.3346      328.3420      330.6766      96.243181       0.63756
   4     651.6      235.3047        2.5550      322.7671      325.3221      90.017401       0.85139
   3     718.7      236.8295        2.7832      315.5619      318.3450      81.515478       1.06846
   2     792.3      239.6096        3.0149      306.5104      309.5253      69.915688       1.33037
   1     891.5      246.6449        3.3051      292.9732      296.2783      49.633359       1.72593
   0    1013.0      265.7977        3.6270      276.3074      279.9344      14.136688       2.46472



 Wavenumbers: 12850. - 16000. cm-1, ATM      1
 LEVEL PRESSURE   UPWARD FLUX   DIFDOWN FLUX  DIRDOWN FLUX  DOWNWARD FLUX   NET FLUX    HEATING RATE
          mb          W/m2          W/m2          W/m2        W/m2          W/m2       degree/day
  51    .06700       84.5173        0.0000      216.0557      216.0557     131.538453       0.00000
  50    .07753       84.5173        0.0001      216.0548      216.0549     131.537658       0.63757
  49    .09103       84.5173        0.0002      216.0538      216.0539     131.536653       0.62813
  48    0.1069       84.5173        0.0003      216.0525      216.0528     131.535490       0.61889
  47    0.1255       84.5173        0.0004      216.0510      216.0514     131.534144       0.61024
  46    0.1487       84.5173        0.0005      216.0492      216.0498     131.532430       0.62473
  45    0.1794       84.5174        0.0007      216.0467      216.0475     131.530072       0.64722
  44    0.2165       84.5175        0.0010      216.0438      216.0447     131.527262       0.63934
  43    0.2613       84.5176        0.0013      216.0403      216.0415     131.523907       0.63231
  42    0.3336       84.5179        0.0018      216.0345      216.0362     131.518324       0.65100
  41    0.4307       84.5184        0.0024      216.0269      216.0293     131.510917       0.64400
  40    0.5894       84.5193        0.0034      216.0146      216.0181     131.498803       0.64419
  39     1.339       84.5268        0.0084      215.9584      215.9667     131.439921       0.66290
  38     1.782       84.5336        0.0113      215.9258      215.9371     131.403537       0.69271
  37     2.292       84.5436        0.0146      215.8879      215.9025     131.358962       0.73827
  36     2.964       84.5601        0.0190      215.8370      215.8560     131.295957       0.79091
  35     3.853       84.5866        0.0248      215.7678      215.7927     131.206064       0.85310
  34     5.035       84.6265        0.0325      215.6752      215.7078     131.081281       0.89139
  33     6.613       84.6821        0.0428      215.5548      215.5976     130.915484       0.88635
  32     8.786       84.7546        0.0567      215.4027      215.4594     130.704757       0.81839
  31     11.80       84.8491        0.0766      215.2043      215.2808     130.431757       0.76431
  30     15.07       84.9398        0.0979      215.0098      215.1077     130.167937       0.68113
  29     18.79       85.0325        0.1220      214.8056      214.9276     129.895010       0.61881
  28     23.16       85.1297        0.1501      214.5841      214.7342     129.604442       0.56186
  27     28.12       85.2279        0.1822      214.3504      214.5326     129.304733       0.50949
  26     33.73       85.3191        0.2183      214.1164      214.3347     129.015593       0.43473
  25     40.54       85.4077        0.2618      213.8655      214.1273     128.719655       0.36714
  24     48.69       85.4935        0.3144      213.5943      213.9087     128.415154       0.31511
  23     57.69       85.5675        0.3722      213.3269      213.6991     128.131593       0.26580
  22     68.43       85.6337        0.4412      213.0419      213.4831     127.849439       0.22181
  21     81.20       85.6823        0.5235      212.7488      213.2723     127.590030       0.17141
  20     96.49       85.7124        0.6218      212.4447      213.0665     127.354149       0.13019
  19     114.6       85.7470        0.7397      212.1101      212.8499     127.102841       0.11734
  18     136.5       85.7759        0.8797      211.7382      212.6179     126.842070       0.10027
  17     162.9       85.7989        1.0465      211.3198      212.3663     126.567363       0.08781
  16     196.4       85.8051        1.2632      210.8156      212.0788     126.273730       0.07391
  15     218.7       85.8005        1.4057      210.4965      211.9022     126.101641       0.06534
  14     243.0       85.7920        1.5607      210.1519      211.7127     125.920657       0.06277
  13     269.0       85.7795        1.7289      209.7781      211.5070     125.727477       0.06267
  12     297.5       85.7637        1.9108      209.3683      211.2792     125.515514       0.06287
  11     328.5       85.7467        2.1076      208.9170      211.0247     125.277918       0.06460
  10     361.9       85.7298        2.3197      208.4189      210.7387     125.008907       0.06806
   9     398.1       85.7145        2.5483      207.8679      210.4162     124.701693       0.07157
   8     437.6       85.7043        2.7939      207.2544      210.0483     124.343983       0.07648
   7     480.5       85.7025        3.0574      206.5713      209.6287     123.926121       0.08207
   6     533.0       85.7184        3.3818      205.6883      209.0701     123.351754       0.09240
   5     589.8       85.7692        3.7312      204.6670      208.3982     122.628960       0.10729
   4     651.6       85.8934        4.1053      203.4324      207.5377     121.644299       0.13466
   3     718.7       86.1186        4.5027      201.9561      206.4589     120.340250       0.16388
   2     792.3       86.5306        4.9201      200.1346      205.0547     118.524193       0.20828
   1     891.5       87.5071        5.4660      197.2502      202.7162     115.209032       0.28210
   0    1013.0       89.6198        6.0960      193.2807      199.3767     109.756868       0.37857



 Wavenumbers: 16000. - 22650. cm-1, ATM      1
 LEVEL PRESSURE   UPWARD FLUX   DIFDOWN FLUX  DIRDOWN FLUX  DOWNWARD FLUX   NET FLUX    HEATING RATE
          mb          W/m2          W/m2          W/m2        W/m2          W/m2       degree/day
  51    .06700      148.1293        0.0000      344.4769      344.4769     196.347573       0.00000
  50    .07753      148.1293        0.0004      344.4763      344.4768     196.347421       0.12132
  49    .09103      148.1293        0.0009      344.4756      344.4765     196.347201       0.13761
  48    0.1069      148.1293        0.0015      344.4748      344.4762     196.346906       0.15692
  47    0.1255      148.1294        0.0022      344.4737      344.4759     196.346512       0.17886
  46    0.1487      148.1295        0.0030      344.4724      344.4754     196.345930       0.21195
  45    0.1794      148.1296        0.0042      344.4705      344.4747     196.345021       0.24956
  44    0.2165      148.1299        0.0055      344.4682      344.4737     196.343788       0.28047
  43    0.2613      148.1303        0.0072      344.4653      344.4724     196.342116       0.31532
  42    0.3336      148.1312        0.0098      344.4603      344.4701     196.338935       0.37082
  41    0.4307      148.1326        0.0134      344.4534      344.4668     196.334141       0.41685
  40    0.5894      148.1356        0.0192      344.4414      344.4606     196.324997       0.48624
  39     1.339      148.1603        0.0467      344.3711      344.4178     196.257437       0.76061
  38     1.782      148.1829        0.0628      344.3200      344.3828     196.199875       1.09589
  37     2.292      148.2167        0.0815      344.2517      344.3332     196.116541       1.38023
  36     2.964      148.2725        0.1061      344.1480      344.2540     195.981507       1.69508
  35     3.853      148.3626        0.1385      343.9913      344.1297     195.767164       2.03415
  34     5.035      148.4983        0.1815      343.7640      343.9455     195.447211       2.28561
  33     6.613      148.6878        0.2389      343.4511      343.6900     195.002232       2.37886
  32     8.786      148.9346        0.3162      343.0410      343.3572     194.422629       2.25097
  31     11.80      149.2561        0.4268      342.4947      342.9215     193.665397       2.12001
  30     15.07      149.5643        0.5454      341.9547      342.5001     192.935885       1.88346
  29     18.79      149.8791        0.6794      341.3868      342.0662     192.187093       1.69774
  28     23.16      150.2085        0.8358      340.7717      341.6076     191.399078       1.52377
  27     28.12      150.5402        1.0147      340.1241      341.1388     190.598595       1.36077
  26     33.73      150.8470        1.2149      339.4775      340.6924     189.845473       1.13234
  25     40.54      151.1430        1.4569      338.7859      340.2429     189.099902       0.92497
  24     48.69      151.4272        1.7488      338.0389      339.7877     188.360523       0.76514
  23     57.69      151.6690        2.0695      337.3015      339.3711     187.702034       0.61723
  22     68.43      151.8812        2.4517      336.5123      338.9641     187.082860       0.48675
  21     81.20      152.0300        2.9076      335.6921      338.5998     186.569810       0.33902
  20     96.49      152.1104        3.4513      334.8256      338.2769     186.166543       0.22257
  19     114.6      152.1550        4.0964      333.8560      337.9524     185.797487       0.17232
  18     136.5      152.1728        4.8599      332.7466      337.6065     185.433780       0.13985
  17     162.9      152.1613        5.7675      331.4625      337.2300     185.068712       0.11669
  16     196.4      152.0772        6.9425      329.8743      336.8168     184.739593       0.08284
  15     218.7      151.9957        7.7128      328.8601      336.5728     184.577110       0.06169
  14     243.0      151.8941        8.5485      327.7715      336.3200     184.425935       0.05243
  13     269.0      151.7701        9.4526      326.6061      336.0587     184.288641       0.04454
  12     297.5      151.6224       10.4277      325.3603      335.7881     184.165644       0.03648
  11     328.5      151.4546       11.4791      324.0212      335.5003     184.045643       0.03263
  10     361.9      151.2656       12.6085      322.5859      335.1944     183.928761       0.02957
   9     398.1      151.0538       13.8209      321.0470      334.8678     183.814003       0.02674
   8     437.6      150.8193       15.1194      319.3978      334.5172     183.697924       0.02482
   7     480.5      150.5603       16.5074      317.6330      334.1405     183.580114       0.02314
   6     533.0      150.2332       18.2107      315.4613      333.6720     183.438844       0.02273
   5     589.8      149.8742       20.0404      313.1151      333.1554     183.281227       0.02340
   4     651.6      149.4878       22.0003      310.5763      332.5765     183.088742       0.02632
   3     718.7      149.0775       24.0947      307.8270      331.9217     182.844147       0.03074
   2     792.3      148.6585       26.3239      304.8404      331.1643     182.505783       0.03881
   1     891.5      148.1542       29.3074      300.7148      330.0222     181.868060       0.05427
   0    1013.0      147.6522       32.8498      295.6311      328.4809     180.828728       0.07217



 Wavenumbers: 22650. - 29000. cm-1, ATM      1
 LEVEL PRESSURE   UPWARD FLUX   DIFDOWN FLUX  DIRDOWN FLUX  DOWNWARD FLUX   NET FLUX    HEATING RATE
          mb          W/m2          W/m2          W/m2        W/m2          W/m2       degree/day
  51    .06700       63.3369        0.0000      129.9930      129.9930      66.656146       0.00000
  50    .07753       63.3368        0.0005      129.9925      129.9930      66.656146       0.00000
  49    .09103       63.3367        0.0011      129.9918      129.9929      66.656146      -0.00000
  48    0.1069       63.3366        0.0018      129.9910      129.9928      66.656146       0.00000
  47    0.1255       63.3365        0.0026      129.9901      129.9927      66.656146      -0.00000
  46    0.1487       63.3364        0.0036      129.9889      129.9925      66.656146       0.00000
  45    0.1794       63.3362        0.0049      129.9874      129.9923      66.656146       0.00000
  44    0.2165       63.3359        0.0066      129.9855      129.9920      66.656146      -0.00000
  43    0.2613       63.3356        0.0085      129.9833      129.9918      66.656146       0.00000
  42    0.3336       63.3351        0.0117      129.9796      129.9913      66.656146      -0.00000
  41    0.4307       63.3345        0.0159      129.9747      129.9906      66.656146       0.00000
  40    0.5894       63.3334        0.0228      129.9668      129.9896      66.656146      -0.00000
  39     1.339       63.3285        0.0554      129.9292      129.9846      66.656146       0.00000
  38     1.782       63.3255        0.0746      129.9071      129.9817      66.656146       0.00000
  37     2.292       63.3222        0.0968      129.8815      129.9783      66.656146       0.00000
  36     2.964       63.3177        0.1259      129.8480      129.9739      66.656146       0.00000
  35     3.853       63.3118        0.1644      129.8036      129.9680      66.656146      -0.00000
  34     5.035       63.3040        0.2155      129.7447      129.9602      66.656146       0.00000
  33     6.613       63.2936        0.2837      129.6660      129.9497      66.656146      -0.00000
  32     8.786       63.2794        0.3757      129.5599      129.9356      66.656146       0.00000
  31     11.80       63.2592        0.5071      129.4082      129.9153      66.656146       0.00000
  30     15.07       63.2373        0.6482      129.2453      129.8935      66.656146      -0.00000
  29     18.79       63.2125        0.8074      129.0613      129.8687      66.656146       0.00000
  28     23.16       63.1835        0.9931      128.8465      129.8396      66.656146      -0.00000
  27     28.12       63.1501        1.2052      128.6010      129.8062      66.656146       0.00000
  26     33.73       63.1125        1.4421      128.3266      129.7686      66.656146       0.00000
  25     40.54       63.0668        1.7276      127.9953      129.7229      66.656146       0.00000
  24     48.69       63.0113        2.0709      127.5965      129.6674      66.656146      -0.00000
  23     57.69       62.9498        2.4467      127.1593      129.6060      66.656146       0.00000
  22     68.43       62.8760        2.8925      126.6397      129.5321      66.656146      -0.00000
  21     81.20       62.7871        3.4208      126.0224      129.4432      66.656146       0.00000
  20     96.49       62.6798        4.0464      125.2896      129.3360      66.656146      -0.00000
  19     114.6       62.5507        4.7834      124.4234      129.2068      66.656146       0.00000
  18     136.5       62.3950        5.6488      123.4024      129.0512      66.656146       0.00000
  17     162.9       62.2062        6.6676      122.1947      128.8623      66.656146       0.00000
  16     196.4       61.9555        7.9697      120.6419      128.6116      66.656146       0.00000
  15     218.7       61.7873        8.8132      119.6303      128.4435      66.656146       0.00000
  14     243.0       61.6014        9.7197      118.5379      128.2576      66.656146       0.00000
  13     269.0       61.3962       10.6899      117.3624      128.0523      66.656146       0.00000
  12     297.5       61.1700       11.7244      116.1018      127.8261      66.656146      -0.00000
  11     328.5       60.9204       12.8260      114.7505      127.5766      66.656146       0.00000
  10     361.9       60.6457       13.9935      113.3083      127.3018      66.656146       0.00000
   9     398.1       60.3429       15.2286      111.7705      126.9991      66.656146       0.00000
   8     437.6       60.0097       16.5305      110.1353      126.6658      66.656146       0.00000
   7     480.5       59.6430       17.8981      108.4010      126.2992      66.656146      -0.00000
   6     533.0       59.1780       19.5425      106.2917      125.8342      66.656146       0.00000
   5     589.8       58.6598       21.2676      104.0483      125.3159      66.656146       0.00000
   4     651.6       58.0823       23.0685      101.6700      124.7385      66.656146       0.00000
   3     718.7       57.4390       24.9394       99.1558      124.0952      66.656146       0.00000
   2     792.3       56.7231       26.8710       96.5083      123.3793      66.656146      -0.00000
   1     891.5       55.7115       29.3612       93.0064      122.3676      66.656146       0.00000
   0    1013.0       54.4268       32.1747       88.9082      121.0829      66.656146       0.00000



 Wavenumbers: 29000. - 38000. cm-1, ATM      1
 LEVEL PRESSURE   UPWARD FLUX   DIFDOWN FLUX  DIRDOWN FLUX  DOWNWARD FLUX   NET FLUX    HEATING RATE
          mb          W/m2          W/m2          W/m2        W/m2          W/m2       degree/day
  51    .06700       11.1727        0.0000       45.8410       45.8410      34.668294       0.00000
  50    .07753       11.1725        0.0003       45.8366       45.8370      34.664475       3.06072
  49    .09103       11.1723        0.0008       45.8305       45.8312      34.658917       3.47428
  48    0.1069       11.1721        0.0012       45.8223       45.8236      34.651469       3.96434
  47    0.1255       11.1719        0.0018       45.8116       45.8134      34.641498       4.52036
  46    0.1487       11.1716        0.0025       45.7959       45.7984      34.626805       5.35589
  45    0.1794       11.1712        0.0035       45.7716       45.7751      34.603860       6.29897
  44    0.2165       11.1709        0.0046       45.7391       45.7437      34.572810       7.06332
  43    0.2613       11.1705        0.0059       45.6954       45.7013      34.530835       7.91210
  42    0.3336       11.1699        0.0081       45.6134       45.6215      34.451592       9.23897
  41    0.4307       11.1693        0.0110       45.4920       45.5030      34.333665      10.25348
  40    0.5894       11.1686        0.0156       45.2670       45.2826      34.113989      11.68210
  39     1.339       11.1707        0.0358       43.8242       43.8600      32.689230      16.04020
  38     1.782       11.1755        0.0464       42.8351       42.8815      31.705940      18.72026
  37     2.292       11.1842        0.0579       41.6852       41.7431      30.558946      18.99721
  36     2.964       11.2001        0.0720       40.2943       40.3663      29.166258      17.48244
  35     3.853       11.2275        0.0899       38.7687       38.8585      27.631001      14.56987
  34     5.035       11.2704        0.1126       37.2304       37.3430      26.072606      11.13253
  33     6.613       11.3318        0.1422       35.7405       35.8827      24.550940       8.13483
  32     8.786       11.4131        0.1811       34.3295       34.5106      23.097483       5.64470
  31     11.80       11.5214        0.2357       32.9481       33.1837      21.662380       4.01784
  30     15.07       11.6285        0.2933       31.8942       32.1875      20.559061       2.84855
  29     18.79       11.7418        0.3571       30.9854       31.3426      19.600751       2.17278
  28     23.16       11.8657        0.4306       30.1559       30.5865      18.720793       1.70155
  27     28.12       11.9969        0.5137       29.4043       29.9180      17.921068       1.35948
  26     33.73       12.1243        0.6065       28.7514       29.3579      17.233640       1.03357
  25     40.54       12.2531        0.7184       28.1328       28.8512      16.598097       0.78846
  24     48.69       12.3839        0.8529       27.5340       28.3869      16.003004       0.61583
  23     57.69       12.5018        1.0001       26.9971       27.9972      15.495353       0.47585
  22     68.43       12.6116        1.1752       26.4694       27.6445      15.032898       0.36355
  21     81.20       12.6935        1.3850       25.9669       27.3518      14.658331       0.24751
  20     96.49       12.7420        1.6357       25.4748       27.1104      14.368407       0.16002
  19     114.6       12.7741        1.9294       24.9506       26.8801      14.105995       0.12253
  18     136.5       12.7951        2.2698       24.3745       26.6443      13.849133       0.09877
  17     162.9       12.8048        2.6651       23.7328       26.3980      13.593187       0.08181
  16     196.4       12.7789        3.1672       22.9761       26.1433      13.364437       0.05758
  15     218.7       12.7464        3.4876       22.5089       25.9964      13.250057       0.04343
  14     243.0       12.7033        3.8273       22.0192       25.8465      13.143209       0.03706
  13     269.0       12.6477        4.1861       21.5077       25.6938      13.046173       0.03148
  12     297.5       12.5782        4.5630       20.9749       25.5380      12.959722       0.02564
  11     328.5       12.4970        4.9566       20.4165       25.3731      12.876107       0.02273
  10     361.9       12.4028        5.3648       19.8338       25.1986      12.795833       0.02031
   9     398.1       12.2941        5.7865       19.2267       25.0132      12.719084       0.01788
   8     437.6       12.1702        6.2192       18.5955       24.8147      12.644517       0.01594
   7     480.5       12.0292        6.6606       17.9419       24.6025      12.573282       0.01399
   6     533.0       11.8450        7.1733       17.1671       24.3404      12.495308       0.01254
   5     589.8       11.6345        7.6876       16.3664       24.0539      12.419397       0.01127
   4     651.6       11.3954        8.1984       15.5420       23.7405      12.345096       0.01016
   3     718.7       11.1243        8.6995       14.6973       23.3967      12.272435       0.00913
   2     792.3       10.8179        9.1819       13.8375       23.0193      12.201490       0.00814
   1     891.5       10.3793        9.7504       12.7437       22.4941      12.114848       0.00737
   0    1013.0        9.8155       10.3080       11.5285       21.8364      12.020958       0.00652



 Wavenumbers: 38000. - 50000. cm-1, ATM      1
 LEVEL PRESSURE   UPWARD FLUX   DIFDOWN FLUX  DIRDOWN FLUX  DOWNWARD FLUX   NET FLUX    HEATING RATE
          mb          W/m2          W/m2          W/m2        W/m2          W/m2       degree/day
  51    .06700        0.0077        0.0000        2.8274        2.8274       2.819732       0.00000
  50    .07753        0.0076        0.0001        2.8250        2.8250       2.817394       1.87426
  49    .09103        0.0076        0.0002        2.8215        2.8216       2.814052       2.08853
  48    0.1069        0.0075        0.0003        2.8169        2.8172       2.809652       2.34203
  47    0.1255        0.0074        0.0004        2.8109        2.8113       2.803854       2.62885
  46    0.1487        0.0073        0.0005        2.8022        2.8027       2.795433       3.06948
  45    0.1794        0.0072        0.0007        2.7889        2.7896       2.782446       3.56531
  44    0.2165        0.0070        0.0009        2.7712        2.7721       2.765088       3.94851
  43    0.2613        0.0068        0.0012        2.7476        2.7487       2.741916       4.36792
  42    0.3336        0.0065        0.0015        2.7038        2.7053       2.698800       5.02689
  41    0.4307        0.0062        0.0020        2.6399        2.6419       2.635738       5.48307
  40    0.5894        0.0056        0.0027        2.5241        2.5268       2.521231       6.08937
  39     1.339        0.0038        0.0042        1.8543        1.8585       1.854685       7.50409
  38     1.782        0.0031        0.0041        1.4655        1.4696       1.466513       7.39018
  37     2.292        0.0024        0.0036        1.0872        1.0908       1.088339       6.26353
  36     2.964        0.0019        0.0030        0.7358        0.7388       0.736859       4.41214
  35     3.853        0.0015        0.0024        0.4711        0.4735       0.472010       2.51347
  34     5.035        0.0012        0.0019        0.2988        0.3008       0.299620       1.23148
  33     6.613        0.0009        0.0016        0.1889        0.1905       0.189608       0.58813
  32     8.786        0.0007        0.0013        0.1196        0.1208       0.120133       0.26981
  31     11.80        0.0005        0.0010        0.0741        0.0751       0.074563       0.12758
  30     15.07        0.0004        0.0008        0.0493        0.0501       0.049700       0.06419
  29     18.79        0.0003        0.0006        0.0330        0.0336       0.033348       0.03707
  28     23.16        0.0002        0.0004        0.0217        0.0221       0.021940       0.02206
  27     28.12        0.0001        0.0003        0.0140        0.0144       0.014212       0.01314
  26     33.73        0.0001        0.0002        0.0091        0.0093       0.009223       0.00750
  25     40.54        0.0001        0.0002        0.0057        0.0059       0.005793       0.00426
  24     48.69        0.0000        0.0001        0.0034        0.0035       0.003483       0.00239
  23     57.69        0.0000        0.0001        0.0020        0.0021       0.002088       0.00131
  22     68.43        0.0000        0.0000        0.0012        0.0012       0.001190       0.00071
  21     81.20        0.0000        0.0000        0.0006        0.0007       0.000647       0.00036
  20     96.49        0.0000        0.0000        0.0003        0.0003       0.000330       0.00018
  19     114.6        0.0000        0.0000        0.0001        0.0002       0.000151       0.00008
  18     136.5        0.0000        0.0000        0.0001        0.0001       0.000060       0.00003
  17     162.9        0.0000        0.0000        0.0000        0.0000       0.000020       0.00001
  16     196.4        0.0000        0.0000        0.0000        0.0000       0.000005       0.00000
  15     218.7        0.0000        0.0000        0.0000        0.0000       0.000002       0.00000
  14     243.0        0.0000        0.0000        0.0000        0.0000       0.000001       0.00000
  13     269.0        0.0000        0.0000        0.0000        0.0000       0.000000       0.00000
  12     297.5        0.0000        0.0000        0.0000        0.0000       0.000000       0.00000
  11     328.5        0.0000        0.0000        0.0000        0.0000       0.000000       0.00000
  10     361.9        0.0000        0.0000        0.0000        0.0000       0.000000       0.00000
   9     398.1        0.0000        0.0000        0.0000        0.0000       0.000000       0.00000
   8     437.6        0.0000        0.0000        0.0000        0.0000       0.000000       0.00000
   7     480.5        0.0000        0.0000        0.0000        0.0000       0.000000       0.00000
   6     533.0        0.0000        0.0000        0.0000        0.0000       0.000000       0.00000
   5     589.8        0.0000        0.0000        0.0000        0.0000       0.000000       0.00000
   4     651.6        0.0000        0.0000        0.0000        0.0000       0.000000       0.00000
   3     718.7        0.0000        0.0000        0.0000        0.0000       0.000000       0.00000
   2     792.3        0.0000        0.0000        0.0000        0.0000       0.000000       0.00000
   1     891.5        0.0000        0.0000        0.0000        0.0000       0.000000       0.00000
   0    1013.0        0.0000        0.0000        0.0000        0.0000       0.000000       0.00000



 Wavenumbers:   820. -  2600. cm-1, ATM      1
 LEVEL PRESSURE   UPWARD FLUX   DIFDOWN FLUX  DIRDOWN FLUX  DOWNWARD FLUX   NET FLUX    HEATING RATE
          mb          W/m2          W/m2          W/m2        W/m2          W/m2       degree/day
  51    .06700        2.7667        0.0000       13.2264       13.2264      10.459660       0.00000
  50    .07753        2.7667        0.0000       13.2194       13.2194      10.452638       5.62802
  49    .09103        2.7667        0.0000       13.2178       13.2178      10.451063       0.98417
  48    0.1069        2.7667        0.0000       13.2167       13.2167      10.449937       0.59963
  47    0.1255        2.7667        0.0000       13.2154       13.2154      10.448646       0.58522
  46    0.1487        2.7667        0.0000       13.2137       13.2137      10.446989       0.60408
  45    0.1794        2.7667        0.0000       13.2114       13.2114      10.444730       0.62020
  44    0.2165        2.7667        0.0000       13.2088       13.2088      10.442111       0.59564
  43    0.2613        2.7667        0.0000       13.2059       13.2059      10.439130       0.56196
  42    0.3336        2.7667        0.0000       13.2013       13.2013      10.434565       0.53218
  41    0.4307        2.7667        0.0000       13.1959       13.1959      10.429194       0.46705
  40    0.5894        2.7667        0.0000       13.1882       13.1882      10.421501       0.40911
  39     1.339        2.7667        0.0000       13.1557       13.1557      10.388956       0.36639
  38     1.782        2.7667        0.0000       13.1371       13.1371      10.370364       0.35397
  37     2.292        2.7667        0.0000       13.1162       13.1162      10.349412       0.34702
  36     2.964        2.7668        0.0000       13.0894       13.0894      10.322650       0.33594
  35     3.853        2.7668        0.0000       13.0549       13.0549      10.288139       0.32752
  34     5.035        2.7668        0.0000       13.0106       13.0106      10.243821       0.31659
  33     6.613        2.7668        0.0000       12.9545       12.9545      10.187687       0.30010
  32     8.786        2.7668        0.0000       12.8834       12.8834      10.116535       0.27633
  31     11.80        2.7669        0.0000       12.7885       12.7885      10.021599       0.26579
  30     15.07        2.7669        0.0000       12.6943       12.6944       9.927456       0.24306
  29     18.79        2.7669        0.0000       12.5999       12.5999       9.832957       0.21426
  28     23.16        2.7670        0.0000       12.5086       12.5086       9.741638       0.17658
  27     28.12        2.7670        0.0000       12.4288       12.4289       9.661806       0.13571
  26     33.73        2.7671        0.0000       12.3650       12.3650       9.597902       0.09608
  25     40.54        2.7672        0.0000       12.3120       12.3120       9.544808       0.06587
  24     48.69        2.7673        0.0000       12.2668       12.2669       9.499567       0.04682
  23     57.69        2.7674        0.0000       12.2260       12.2260       9.458620       0.03838
  22     68.43        2.7675        0.0000       12.1803       12.1803       9.412759       0.03605
  21     81.20        2.7677        0.0000       12.1270       12.1270       9.359370       0.03528
  20     96.49        2.7678        0.0000       12.0640       12.0640       9.296132       0.03490
  19     114.6        2.7681        0.0000       11.9885       11.9886       9.220484       0.03532
  18     136.5        2.7684        0.0000       11.8987       11.8988       9.130413       0.03463
  17     162.9        2.7688        0.0000       11.7817       11.7818       9.013005       0.03753
  16     196.4        2.7694        0.0000       11.5930       11.5930       8.823559       0.04769
  15     218.7        2.7701        0.0000       11.4055       11.4056       8.635448       0.07142
  14     243.0        2.7712        0.0000       11.1045       11.1045       8.333309       0.10479
  13     269.0        2.7728        0.0000       10.6901       10.6901       7.917269       0.13496
  12     297.5        2.7755        0.0000       10.2200       10.2201       7.444568       0.14020
  11     328.5        2.7791        0.0000        9.8187        9.8187       7.039667       0.11009
  10     361.9        2.7839        0.0000        9.4313        9.4314       6.647484       0.09923
   9     398.1        2.7901        0.0000        8.9858        8.9858       6.195678       0.10526
   8     437.6        2.7983        0.0001        8.4654        8.4655       5.667183       0.11300
   7     480.5        2.8083        0.0001        7.9394        7.9395       5.131187       0.10527
   6     533.0        2.8237        0.0001        7.4262        7.4262       4.602524       0.08505
   5     589.8        2.8465        0.0001        7.0503        7.0504       4.203858       0.05917
   4     651.6        2.8867        0.0001        6.7312        6.7313       3.844583       0.04913
   3     718.7        2.9555        0.0001        6.3693        6.3693       3.413790       0.05414
   2     792.3        3.0813        0.0001        5.9171        5.9172       2.835907       0.06628
   1     891.5        3.4037        0.0001        5.2716        5.2716       1.867909       0.08237
   0    1013.0        4.2857        0.0001        4.5136        4.5137       0.227940       0.11387

  Modules and versions used in this calculation:

       rrtmg_sw.1col.f90:  $Revision$                    rrtmg_sw_init.f90:  $Revision$        
     rrtmgsw_cldprop.f90:  $Revision$                  rrtmgsw_cldprmc.f90:  NOT USED          
     rrtmg_sw_reftra.f90:  $Revision$                  rrtmg_sw_spcvrt.f90:  NOT USED          
     rrtmg_sw_spcvmc.f90:  NOT USED                    rrtmgsw_setcoef.f90:  NOT USED          
     rrtmg_sw_taumol.f90:  $Revision$                  rrtmg_sw_vrtqdr.f90:  NOT USED          
                rrtatm.f:  NOT USED                             util_xxx.f:  NOT USED          
                 extra.f:  NOT USED                       rrtmg_sw_k_g.f90:  $Revision$        

