

 Wavenumbers:   820. - 50000. cm-1, ATM      1
 LEVEL PRESSURE   UPWARD FLUX   DIFDOWN FLUX  DIRDOWN FLUX  DOWNWARD FLUX   NET FLUX    HEATING RATE
          mb          W/m2          W/m2          W/m2        W/m2          W/m2       degree/day
  51    .06700      253.2172        0.0000     1360.8491     1360.8491    1107.631953       0.00000
  50    .07753      253.2165        0.0011     1360.8273     1360.8284    1107.611867      16.09941
  49    .09103      253.2157        0.0025     1360.8078     1360.8103    1107.594582      10.80345
  48    0.1069      253.2148        0.0041     1360.7860     1360.7901    1107.575336      10.24457
  47    0.1255      253.2137        0.0060     1360.7600     1360.7660    1107.552231      10.47500
  46    0.1487      253.2124        0.0083     1360.7249     1360.7332    1107.520742      11.47810
  45    0.1794      253.2107        0.0115     1360.6734     1360.6849    1107.474209      12.77443
  44    0.2165      253.2087        0.0153     1360.6074     1360.6226    1107.413896      13.72002
  43    0.2613      253.2064        0.0197     1360.5219     1360.5416    1107.335198      14.83424
  42    0.3336      253.2028        0.0270     1360.3673     1360.3943    1107.191526      16.75075
  41    0.4307      253.1982        0.0366     1360.1456     1360.1823    1106.984088      18.03623
  40    0.5894      253.1911        0.0522     1359.7482     1359.8004    1106.609341      19.92858
  39     1.339      253.1656        0.1224     1357.3733     1357.4957    1104.330115      25.65994
  38     1.782      253.1559        0.1613     1355.8375     1355.9988    1102.842894      28.31429
  37     2.292      253.1494        0.2053     1354.1208     1354.3261    1101.176686      27.59675
  36     2.964      253.1480        0.2621     1352.1205     1352.3827    1099.234613      24.37889
  35     3.853      253.1560        0.3365     1349.9734     1350.3100    1097.153967      19.74570
  34     5.035      253.1763        0.4347     1347.7761     1348.2108    1095.034548      15.14025
  33     6.613      253.2090        0.5652     1345.5290     1346.0941    1092.885160      11.49064
  32     8.786      253.2499        0.7402     1343.2079     1343.9480    1090.698105       8.49373
  31     11.80      253.2937        0.9893     1340.6494     1341.6387    1088.344990       6.58798
  30     15.07      253.3236        1.2556     1338.4304     1339.6860    1086.362362       5.11876
  29     18.79      253.3423        1.5548     1336.2864     1337.8412    1084.498917       4.22500
  28     23.16      253.3468        1.9027     1334.1057     1336.0084    1082.661609       3.55276
  27     28.12      253.3312        2.2990     1331.9136     1334.2126    1080.881345       3.02633
  26     33.73      253.2811        2.7416     1329.7853     1332.5270    1079.245867       2.45899
  25     40.54      253.1807        3.2751     1327.5375     1330.8126    1077.631877       2.00234
  24     48.69      253.0205        3.9162     1325.1261     1329.0424    1076.021852       1.66612
  23     57.69      252.8052        4.6180     1322.7388     1327.3568    1074.551632       1.37811
  22     68.43      252.5039        5.4509     1320.1544     1325.6052    1073.101362       1.14011
  21     81.20      252.0789        6.4407     1317.3916     1323.8323    1071.753374       0.89073
  20     96.49      251.5080        7.6155     1314.3811     1321.9967    1070.488618       0.69805
  19     114.6      250.7969        8.9989     1310.9471     1319.9459    1069.149052       0.62548
  18     136.5      249.9266       10.6195     1306.9977     1317.6173    1067.690650       0.56079
  17     162.9      248.8628       12.5235     1302.3518     1314.8754    1066.012518       0.53640
  16     196.4      247.4264       14.9564     1296.2678     1311.2242    1063.797740       0.55749
  15     218.7      246.4592       16.5288     1291.7724     1308.3013    1061.842073       0.74249
  14     243.0      245.3947       18.2154     1286.1481     1304.3635    1058.968801       0.99655
  13     269.0      244.2281       20.0170     1279.0245     1299.0415    1054.813361       1.34801
  12     297.5      242.9565       21.9332     1270.1087     1292.0418    1049.085357       1.69886
  11     328.5      241.5743       23.9677     1260.1713     1284.1390    1042.564684       1.77295
  10     361.9      240.0794       26.1166     1249.4297     1275.5463    1035.466981       1.79579
   9     398.1      238.4668       28.3815     1237.6382     1266.0197    1027.552888       1.84381
   8     437.6      236.7391       30.7583     1224.3920     1255.1503    1018.411157       1.95456
   7     480.5      234.8985       33.2431     1209.7358     1242.9789    1008.080449       2.02891
   6     533.0      232.6674       36.2133     1191.2571     1227.4704     994.803058       2.13591
   5     589.8      230.3498       39.3045     1170.7333     1210.0379     979.688083       2.24356
   4     651.6      228.0860       42.4988     1147.0297     1189.5286     961.442604       2.49512
   3     718.7      226.0631       45.7778     1120.8952     1166.6729     940.609856       2.61810
   2     792.3      224.7405       49.1094     1092.1619     1141.2713     916.530753       2.76160
   1     891.5      225.4789       53.3111     1053.3991     1106.7102     881.231321       3.00381
   0    1013.0      235.2388       57.9141     1008.4859     1066.4001     831.161274       3.47662



 Wavenumbers:  2600. -  3250. cm-1, ATM      1
 LEVEL PRESSURE   UPWARD FLUX   DIFDOWN FLUX  DIRDOWN FLUX  DOWNWARD FLUX   NET FLUX    HEATING RATE
          mb          W/m2          W/m2          W/m2        W/m2          W/m2       degree/day
  51    .06700        1.8100        0.0000       11.9937       11.9937      10.183739       0.00000
  50    .07753        1.8100        0.0000       11.9937       11.9937      10.183731       0.00640
  49    .09103        1.8100        0.0000       11.9937       11.9937      10.183721       0.00627
  48    0.1069        1.8100        0.0000       11.9937       11.9937      10.183709       0.00613
  47    0.1255        1.8100        0.0000       11.9937       11.9937      10.183696       0.00600
  46    0.1487        1.8100        0.0000       11.9937       11.9937      10.183679       0.00608
  45    0.1794        1.8100        0.0000       11.9936       11.9936      10.183656       0.00625
  44    0.2165        1.8100        0.0000       11.9936       11.9936      10.183629       0.00613
  43    0.2613        1.8100        0.0000       11.9936       11.9936      10.183598       0.00601
  42    0.3336        1.8100        0.0000       11.9935       11.9935      10.183545       0.00619
  41    0.4307        1.8100        0.0000       11.9935       11.9935      10.183473       0.00622
  40    0.5894        1.8100        0.0000       11.9933       11.9933      10.183353       0.00640
  39     1.339        1.8100        0.0000       11.9926       11.9926      10.182636       0.00806
  38     1.782        1.8100        0.0000       11.9921       11.9921      10.182081       0.01057
  37     2.292        1.8100        0.0000       11.9913       11.9913      10.181341       0.01226
  36     2.964        1.8100        0.0000       11.9902       11.9902      10.180251       0.01368
  35     3.853        1.8100        0.0000       11.9886       11.9886      10.178666       0.01504
  34     5.035        1.8100        0.0000       11.9864       11.9864      10.176393       0.01624
  33     6.613        1.8100        0.0000       11.9832       11.9832      10.173177       0.01719
  32     8.786        1.8100        0.0000       11.9787       11.9787      10.168692       0.01742
  31     11.80        1.8100        0.0000       11.9722       11.9722      10.162219       0.01812
  30     15.07        1.8100        0.0000       11.9654       11.9654      10.155410       0.01758
  29     18.79        1.8100        0.0000       11.9581       11.9581      10.148120       0.01653
  28     23.16        1.8100        0.0000       11.9502       11.9502      10.140195       0.01532
  27     28.12        1.8100        0.0000       11.9418       11.9418      10.131854       0.01418
  26     33.73        1.8100        0.0000       11.9329       11.9329      10.122885       0.01348
  25     40.54        1.8100        0.0000       11.9222       11.9222      10.112179       0.01328
  24     48.69        1.8100        0.0000       11.9093       11.9094      10.099326       0.01330
  23     57.69        1.8101        0.0000       11.8949       11.8950      10.084911       0.01351
  22     68.43        1.8101        0.0000       11.8770       11.8771      10.066970       0.01410
  21     81.20        1.8101        0.0000       11.8544       11.8544      10.044251       0.01501
  20     96.49        1.8102        0.0000       11.8256       11.8257      10.015436       0.01590
  19     114.6        1.8103        0.0001       11.7886       11.7887       9.978327       0.01733
  18     136.5        1.8105        0.0001       11.7429       11.7430       9.932496       0.01762
  17     162.9        1.8107        0.0001       11.6869       11.6870       9.876269       0.01797
  16     196.4        1.8111        0.0001       11.6129       11.6130       9.801848       0.01873
  15     218.7        1.8115        0.0001       11.5605       11.5606       9.749029       0.02005
  14     243.0        1.8122        0.0001       11.4957       11.4958       9.683535       0.02272
  13     269.0        1.8133        0.0001       11.4130       11.4131       9.599815       0.02716
  12     297.5        1.8149        0.0001       11.3101       11.3103       9.495322       0.03099
  11     328.5        1.8172        0.0001       11.1933       11.1934       9.376215       0.03238
  10     361.9        1.8202        0.0002       11.0632       11.0633       9.243088       0.03368
   9     398.1        1.8244        0.0002       10.9149       10.9151       9.090662       0.03551
   8     437.6        1.8301        0.0002       10.7385       10.7387       8.908572       0.03893
   7     480.5        1.8379        0.0002       10.5233       10.5234       8.685512       0.04381
   6     533.0        1.8504        0.0002       10.2141       10.2143       8.363857       0.05174
   5     589.8        1.8690        0.0002        9.8147        9.8149       7.945851       0.06205
   4     651.6        1.8989        0.0002        9.2987        9.2989       7.400098       0.07463
   3     718.7        1.9459        0.0002        8.7065        8.7067       6.760864       0.08033
   2     792.3        2.0250        0.0002        8.0516        8.0518       6.026798       0.08419
   1     891.5        2.2158        0.0002        7.1628        7.1630       4.947261       0.09186
   0    1013.0        2.7581        0.0002        6.1112        6.1114       3.353332       0.11067



 Wavenumbers:  3250. -  4000. cm-1, ATM      1
 LEVEL PRESSURE   UPWARD FLUX   DIFDOWN FLUX  DIRDOWN FLUX  DOWNWARD FLUX   NET FLUX    HEATING RATE
          mb          W/m2          W/m2          W/m2        W/m2          W/m2       degree/day
  51    .06700        0.0020        0.0000       20.2197       20.2197      20.217611       0.00000
  50    .07753        0.0020        0.0000       20.2140       20.2140      20.211942       4.54406
  49    .09103        0.0020        0.0000       20.2088       20.2088      20.206711       3.26932
  48    0.1069        0.0020        0.0000       20.2043       20.2043      20.202287       2.35506
  47    0.1255        0.0020        0.0000       20.2005       20.2005      20.198407       1.75884
  46    0.1487        0.0020        0.0000       20.1965       20.1965      20.194485       1.42967
  45    0.1794        0.0020        0.0000       20.1921       20.1921      20.190042       1.21962
  44    0.2165        0.0020        0.0000       20.1875       20.1875      20.185476       1.03878
  43    0.2613        0.0020        0.0000       20.1827       20.1827      20.180636       0.91222
  42    0.3336        0.0020        0.0000       20.1757       20.1757      20.173614       0.81870
  41    0.4307        0.0020        0.0000       20.1678       20.1678      20.165720       0.68638
  40    0.5894        0.0020        0.0000       20.1571       20.1571      20.155026       0.56870
  39     1.339        0.0020        0.0000       20.1195       20.1195      20.117493       0.42255
  38     1.782        0.0020        0.0000       20.1017       20.1017      20.099662       0.33948
  37     2.292        0.0020        0.0000       20.0837       20.0837      20.081635       0.29857
  36     2.964        0.0020        0.0000       20.0629       20.0629      20.060885       0.26048
  35     3.853        0.0020        0.0000       20.0387       20.0387      20.036685       0.22966
  34     5.035        0.0020        0.0000       20.0099       20.0099      20.007843       0.20604
  33     6.613        0.0020        0.0000       19.9743       19.9743      19.972293       0.19005
  32     8.786        0.0020        0.0000       19.9279       19.9279      19.925890       0.18021
  31     11.80        0.0020        0.0000       19.8609       19.8609      19.858852       0.18768
  30     15.07        0.0020        0.0000       19.7861       19.7861      19.784059       0.19310
  29     18.79        0.0020        0.0000       19.6981       19.6981      19.696132       0.19936
  28     23.16        0.0020        0.0000       19.5924       19.5924      19.590411       0.20443
  27     28.12        0.0020        0.0000       19.4692       19.4692      19.467199       0.20945
  26     33.73        0.0020        0.0000       19.3318       19.3319      19.329874       0.20647
  25     40.54        0.0020        0.0001       19.1703       19.1704      19.168396       0.20033
  24     48.69        0.0020        0.0001       18.9874       18.9875      18.985507       0.18926
  23     57.69        0.0020        0.0001       18.8032       18.8032      18.801283       0.17268
  22     68.43        0.0020        0.0001       18.6047       18.6048      18.602875       0.15598
  21     81.20        0.0019        0.0001       18.3903       18.3904      18.388510       0.14165
  20     96.49        0.0019        0.0001       18.1531       18.1532      18.151268       0.13094
  19     114.6        0.0019        0.0001       17.8720       17.8722      17.870272       0.13121
  18     136.5        0.0019        0.0002       17.5464       17.5465      17.544670       0.12520
  17     162.9        0.0018        0.0002       17.1484       17.1486      17.146788       0.12718
  16     196.4        0.0018        0.0002       16.5656       16.5658      16.564022       0.14669
  15     218.7        0.0018        0.0002       16.0235       16.0238      16.022001       0.20579
  14     243.0        0.0018        0.0003       15.2654       15.2657      15.263905       0.26293
  13     269.0        0.0017        0.0003       14.2510       14.2513      14.249524       0.32906
  12     297.5        0.0017        0.0003       13.0349       13.0352      13.033438       0.36068
  11     328.5        0.0017        0.0003       11.8274       11.8277      11.825962       0.32831
  10     361.9        0.0017        0.0002       10.6546       10.6548      10.653112       0.29674
   9     398.1        0.0017        0.0002        9.4801        9.4803       9.478618       0.27363
   8     437.6        0.0017        0.0002        8.3186        8.3188       8.317122       0.24834
   7     480.5        0.0017        0.0002        7.2534        7.2537       7.251933       0.20920
   6     533.0        0.0018        0.0002        6.1288        6.1290       6.127201       0.18093
   5     589.8        0.0019        0.0002        5.0588        5.0590       5.057069       0.15884
   4     651.6        0.0022        0.0001        3.9729        3.9731       3.970831       0.14855
   3     718.7        0.0029        0.0001        2.9378        2.9379       2.934933       0.13018
   2     792.3        0.0048        0.0001        1.9615        1.9616       1.956838       0.11218
   1     891.5        0.0146        0.0000        0.9920        0.9920       0.977405       0.08334
   0    1013.0        0.1406        0.0000        0.3116        0.3117       0.171004       0.05599



 Wavenumbers:  4000. -  4650. cm-1, ATM      1
 LEVEL PRESSURE   UPWARD FLUX   DIFDOWN FLUX  DIRDOWN FLUX  DOWNWARD FLUX   NET FLUX    HEATING RATE
          mb          W/m2          W/m2          W/m2        W/m2          W/m2       degree/day
  51    .06700        6.6389        0.0000       23.7440       23.7440      17.105040       0.00000
  50    .07753        6.6389        0.0000       23.7440       23.7440      17.105039       0.00080
  49    .09103        6.6389        0.0000       23.7440       23.7440      17.105038       0.00078
  48    0.1069        6.6389        0.0000       23.7440       23.7440      17.105036       0.00076
  47    0.1255        6.6389        0.0000       23.7440       23.7440      17.105035       0.00075
  46    0.1487        6.6389        0.0000       23.7440       23.7440      17.105032       0.00076
  45    0.1794        6.6389        0.0000       23.7440       23.7440      17.105030       0.00078
  44    0.2165        6.6389        0.0000       23.7440       23.7440      17.105026       0.00076
  43    0.2613        6.6389        0.0000       23.7440       23.7440      17.105022       0.00075
  42    0.3336        6.6389        0.0000       23.7440       23.7440      17.105016       0.00077
  41    0.4307        6.6389        0.0000       23.7439       23.7439      17.105007       0.00077
  40    0.5894        6.6389        0.0000       23.7439       23.7439      17.104992       0.00080
  39     1.339        6.6389        0.0000       23.7438       23.7438      17.104903       0.00101
  38     1.782        6.6389        0.0000       23.7438       23.7438      17.104833       0.00133
  37     2.292        6.6389        0.0000       23.7437       23.7437      17.104739       0.00156
  36     2.964        6.6389        0.0000       23.7435       23.7435      17.104598       0.00176
  35     3.853        6.6389        0.0000       23.7433       23.7433      17.104390       0.00198
  34     5.035        6.6389        0.0000       23.7430       23.7430      17.104082       0.00220
  33     6.613        6.6389        0.0000       23.7425       23.7426      17.103629       0.00242
  32     8.786        6.6389        0.0000       23.7418       23.7419      17.102959       0.00260
  31     11.80        6.6389        0.0001       23.7408       23.7408      17.101904       0.00295
  30     15.07        6.6389        0.0001       23.7395       23.7396      17.100663       0.00320
  29     18.79        6.6389        0.0001       23.7380       23.7381      17.099157       0.00341
  28     23.16        6.6389        0.0001       23.7361       23.7362      17.097280       0.00363
  27     28.12        6.6389        0.0001       23.7338       23.7339      17.094998       0.00388
  26     33.73        6.6389        0.0002       23.7309       23.7311      17.092170       0.00425
  25     40.54        6.6390        0.0002       23.7271       23.7273      17.088312       0.00479
  24     48.69        6.6390        0.0002       23.7219       23.7221      17.083135       0.00536
  23     57.69        6.6391        0.0003       23.7157       23.7160      17.076949       0.00580
  22     68.43        6.6391        0.0003       23.7079       23.7083      17.069136       0.00614
  21     81.20        6.6393        0.0004       23.6983       23.6987      17.059425       0.00642
  20     96.49        6.6395        0.0005       23.6865       23.6870      17.047505       0.00658
  19     114.6        6.6398        0.0006       23.6717       23.6723      17.032463       0.00702
  18     136.5        6.6402        0.0007       23.6537       23.6544      17.014173       0.00703
  17     162.9        6.6409        0.0008       23.6317       23.6325      16.991559       0.00723
  16     196.4        6.6421        0.0010       23.6012       23.6022      16.960047       0.00793
  15     218.7        6.6432        0.0011       23.5777       23.5788      16.935545       0.00930
  14     243.0        6.6449        0.0012       23.5456       23.5468      16.901922       0.01166
  13     269.0        6.6474        0.0013       23.4995       23.5008      16.853449       0.01572
  12     297.5        6.6510        0.0015       23.4351       23.4365      16.785506       0.02015
  11     328.5        6.6561        0.0016       23.3555       23.3571      16.700979       0.02298
  10     361.9        6.6628        0.0018       23.2571       23.2589      16.596091       0.02654
   9     398.1        6.6711        0.0019       23.1295       23.1315      16.460363       0.03162
   8     437.6        6.6816        0.0021       22.9586       22.9607      16.279177       0.03874
   7     480.5        6.6946        0.0023       22.7369       22.7392      16.044596       0.04607
   6     533.0        6.7142        0.0025       22.4191       22.4216      15.707313       0.05426
   5     589.8        6.7417        0.0027       22.0335       22.0363      15.294545       0.06127
   4     651.6        6.7840        0.0030       21.5654       21.5684      14.784402       0.06976
   3     718.7        6.8505        0.0032       21.0164       21.0196      14.169095       0.07733
   2     792.3        6.9621        0.0034       20.2979       20.3012      13.339142       0.09519
   1     891.5        7.2283        0.0036       19.1088       19.1124      11.884018       0.12382
   0    1013.0        7.9614        0.0038       17.6373       17.6411       9.679660       0.15306



 Wavenumbers:  4650. -  5150. cm-1, ATM      1
 LEVEL PRESSURE   UPWARD FLUX   DIFDOWN FLUX  DIRDOWN FLUX  DOWNWARD FLUX   NET FLUX    HEATING RATE
          mb          W/m2          W/m2          W/m2        W/m2          W/m2       degree/day
  51    .06700        4.8245        0.0000       22.4748       22.4748      17.650282       0.00000
  50    .07753        4.8245        0.0000       22.4746       22.4746      17.650046       0.18925
  49    .09103        4.8245        0.0000       22.4743       22.4743      17.649750       0.18504
  48    0.1069        4.8245        0.0000       22.4739       22.4739      17.649411       0.18064
  47    0.1255        4.8245        0.0000       22.4735       22.4735      17.649022       0.17622
  46    0.1487        4.8245        0.0000       22.4730       22.4730      17.648533       0.17814
  45    0.1794        4.8245        0.0000       22.4724       22.4724      17.647869       0.18241
  44    0.2165        4.8245        0.0000       22.4716       22.4716      17.647087       0.17785
  43    0.2613        4.8245        0.0000       22.4707       22.4707      17.646168       0.17328
  42    0.3336        4.8245        0.0000       22.4692       22.4692      17.644662       0.17553
  41    0.4307        4.8245        0.0000       22.4672       22.4672      17.642694       0.17112
  40    0.5894        4.8245        0.0000       22.4641       22.4641      17.639548       0.16732
  39     1.339        4.8245        0.0000       22.4502       22.4502      17.625714       0.15574
  38     1.782        4.8245        0.0000       22.4428       22.4428      17.618342       0.14035
  37     2.292        4.8245        0.0000       22.4349       22.4350      17.610455       0.13063
  36     2.964        4.8245        0.0000       22.4255       22.4255      17.601024       0.11838
  35     3.853        4.8245        0.0000       22.4145       22.4145      17.590006       0.10456
  34     5.035        4.8245        0.0000       22.4019       22.4020      17.577453       0.08967
  33     6.613        4.8245        0.0000       22.3880       22.3881      17.563587       0.07413
  32     8.786        4.8245        0.0001       22.3731       22.3731      17.548622       0.05812
  31     11.80        4.8245        0.0001       22.3562       22.3563      17.531801       0.04709
  30     15.07        4.8245        0.0001       22.3413       22.3414      17.516850       0.03860
  29     18.79        4.8246        0.0001       22.3259       22.3260      17.501449       0.03492
  28     23.16        4.8246        0.0002       22.3082       22.3083      17.483693       0.03433
  27     28.12        4.8247        0.0002       22.2870       22.2872      17.462510       0.03601
  26     33.73        4.8248        0.0002       22.2617       22.2619      17.437115       0.03818
  25     40.54        4.8249        0.0003       22.2285       22.2288      17.403851       0.04127
  24     48.69        4.8251        0.0003       22.1852       22.1855      17.360387       0.04498
  23     57.69        4.8254        0.0004       22.1340       22.1345      17.309059       0.04811
  22     68.43        4.8258        0.0005       22.0694       22.0699      17.244124       0.05105
  21     81.20        4.8263        0.0006       21.9886       21.9892      17.162903       0.05367
  20     96.49        4.8270        0.0007       21.8895       21.8902      17.063161       0.05505
  19     114.6        4.8280        0.0008       21.7708       21.7716      16.943598       0.05583
  18     136.5        4.8294        0.0010       21.6320       21.6330      16.803540       0.05386
  17     162.9        4.8314        0.0011       21.4726       21.4737      16.642292       0.05154
  16     196.4        4.8344        0.0013       21.2786       21.2799      16.445533       0.04953
  15     218.7        4.8368        0.0015       21.1582       21.1597      16.322924       0.04655
  14     243.0        4.8399        0.0017       21.0313       21.0329      16.193023       0.04505
  13     269.0        4.8441        0.0018       20.8948       20.8966      16.052475       0.04559
  12     297.5        4.8500        0.0020       20.7434       20.7454      15.895370       0.04660
  11     328.5        4.8578        0.0022       20.5767       20.5788      15.721085       0.04739
  10     361.9        4.8677        0.0024       20.3907       20.3931      15.525389       0.04951
   9     398.1        4.8807        0.0026       20.1791       20.1817      15.300975       0.05228
   8     437.6        4.8976        0.0028       19.9341       19.9370      15.039413       0.05592
   7     480.5        4.9194        0.0030       19.6480       19.6511      14.731673       0.06044
   6     533.0        4.9526        0.0033       19.2600       19.2633      14.310710       0.06772
   5     589.8        4.9985        0.0036       18.7890       18.7925      13.794093       0.07668
   4     651.6        5.0658        0.0038       18.1977       18.2015      13.135759       0.09003
   3     718.7        5.1659        0.0040       17.4829       17.4869      12.320963       0.10240
   2     792.3        5.3206        0.0043       16.6464       16.6507      11.330076       0.11364
   1     891.5        5.6544        0.0045       15.4816       15.4861       9.831706       0.12750
   0    1013.0        6.4042        0.0047       14.1857       14.1905       7.786309       0.14202



 Wavenumbers:  5150. -  6150. cm-1, ATM      1
 LEVEL PRESSURE   UPWARD FLUX   DIFDOWN FLUX  DIRDOWN FLUX  DOWNWARD FLUX   NET FLUX    HEATING RATE
          mb          W/m2          W/m2          W/m2        W/m2          W/m2       degree/day
  51    .06700       11.5474        0.0000       56.3444       56.3444      44.796964       0.00000
  50    .07753       11.5474        0.0000       56.3444       56.3444      44.796925       0.03161
  49    .09103       11.5474        0.0000       56.3443       56.3443      44.796874       0.03210
  48    0.1069       11.5474        0.0000       56.3442       56.3442      44.796812       0.03261
  47    0.1255       11.5474        0.0000       56.3442       56.3442      44.796739       0.03312
  46    0.1487       11.5474        0.0000       56.3441       56.3441      44.796644       0.03490
  45    0.1794       11.5474        0.0000       56.3439       56.3439      44.796508       0.03715
  44    0.2165       11.5474        0.0000       56.3438       56.3438      44.796342       0.03772
  43    0.2613       11.5474        0.0000       56.3436       56.3436      44.796139       0.03832
  42    0.3336       11.5474        0.0000       56.3432       56.3432      44.795792       0.04051
  41    0.4307       11.5474        0.0000       56.3427       56.3427      44.795319       0.04108
  40    0.5894       11.5474        0.0000       56.3419       56.3420      44.794527       0.04215
  39     1.339       11.5474        0.0000       56.3381       56.3381      44.790690       0.04319
  38     1.782       11.5474        0.0001       56.3358       56.3359      44.788442       0.04279
  37     2.292       11.5474        0.0001       56.3332       56.3333      44.785886       0.04234
  36     2.964       11.5474        0.0001       56.3299       56.3300      44.782619       0.04101
  35     3.853       11.5474        0.0001       56.3257       56.3259      44.778435       0.03970
  34     5.035       11.5474        0.0002       56.3203       56.3204      44.772995       0.03886
  33     6.613       11.5474        0.0002       56.3131       56.3133      44.765848       0.03820
  32     8.786       11.5474        0.0003       56.3036       56.3039      44.756434       0.03656
  31     11.80       11.5475        0.0004       56.2905       56.2909      44.743418       0.03644
  30     15.07       11.5475        0.0005       56.2770       56.2775      44.730027       0.03457
  29     18.79       11.5475        0.0006       56.2626       56.2632      44.715651       0.03259
  28     23.16       11.5476        0.0007       56.2466       56.2473      44.699711       0.03082
  27     28.12       11.5477        0.0009       56.2292       56.2301      44.682420       0.02939
  26     33.73       11.5478        0.0011       56.2110       56.2121      44.664314       0.02722
  25     40.54       11.5480        0.0013       56.1906       56.1919      44.643943       0.02527
  24     48.69       11.5482        0.0016       56.1681       56.1697      44.621458       0.02327
  23     57.69       11.5485        0.0019       56.1451       56.1470      44.598466       0.02155
  22     68.43       11.5489        0.0022       56.1195       56.1218      44.572811       0.02017
  21     81.20       11.5495        0.0026       56.0907       56.0933      44.543818       0.01916
  20     96.49       11.5501        0.0031       56.0573       56.0604      44.510311       0.01849
  19     114.6       11.5509        0.0037       56.0182       56.0219      44.471039       0.01834
  18     136.5       11.5519        0.0044       55.9719       55.9763      44.424381       0.01794
  17     162.9       11.5531        0.0052       55.9013       55.9065      44.353353       0.02270
  16     196.4       11.5548        0.0063       55.7479       55.7542      44.199364       0.03876
  15     218.7       11.5560        0.0070       55.5243       55.5313      43.975273       0.08508
  14     243.0       11.5575        0.0077       55.1190       55.1267      43.569218       0.14083
  13     269.0       11.5593        0.0084       54.3924       54.4007      42.841490       0.23607
  12     297.5       11.5616        0.0091       53.2527       53.2618      41.700170       0.33850
  11     328.5       11.5646        0.0098       51.9857       51.9955      40.430890       0.34511
  10     361.9       11.5684        0.0105       50.6721       50.6826      39.114196       0.33314
   9     398.1       11.5733        0.0113       49.1893       49.2005      37.627288       0.34642
   8     437.6       11.5797        0.0119       47.4187       47.4306      35.850958       0.37979
   7     480.5       11.5882        0.0126       45.4500       45.4626      33.874408       0.38819
   6     533.0       11.6020        0.0134       43.0596       43.0730      31.471072       0.38662
   5     589.8       11.6232        0.0142       40.5463       40.5605      28.937298       0.37610
   4     651.6       11.6601        0.0150       37.8928       37.9079      26.247748       0.36780
   3     718.7       11.7246        0.0159       35.4719       35.4878      23.763170       0.31224
   2     792.3       11.8453        0.0169       33.4066       33.4235      21.578219       0.25059
   1     891.5       12.1730        0.0182       31.3475       31.3657      19.192656       0.20300
   0    1013.0       13.2236        0.0195       29.2817       29.3012      16.077559       0.21630



 Wavenumbers:  6150. -  7700. cm-1, ATM      1
 LEVEL PRESSURE   UPWARD FLUX   DIFDOWN FLUX  DIRDOWN FLUX  DOWNWARD FLUX   NET FLUX    HEATING RATE
          mb          W/m2          W/m2          W/m2        W/m2          W/m2       degree/day
  51    .06700       17.4992        0.0000      104.2111      104.2111      86.711946       0.00000
  50    .07753       17.4992        0.0000      104.2111      104.2111      86.711889       0.04554
  49    .09103       17.4992        0.0000      104.2110      104.2110      86.711816       0.04583
  48    0.1069       17.4992        0.0000      104.2109      104.2109      86.711729       0.04615
  47    0.1255       17.4992        0.0000      104.2108      104.2108      86.711626       0.04646
  46    0.1487       17.4992        0.0000      104.2107      104.2107      86.711493       0.04854
  45    0.1794       17.4992        0.0000      104.2105      104.2105      86.711306       0.05129
  44    0.2165       17.4992        0.0000      104.2102      104.2102      86.711079       0.05171
  43    0.2613       17.4992        0.0000      104.2099      104.2100      86.710802       0.05215
  42    0.3336       17.4992        0.0000      104.2095      104.2095      86.710333       0.05478
  41    0.4307       17.4991        0.0000      104.2088      104.2088      86.709696       0.05531
  40    0.5894       17.4991        0.0001      104.2077      104.2078      86.708634       0.05648
  39     1.339       17.4991        0.0002      104.2024      104.2026      86.703514       0.05764
  38     1.782       17.4990        0.0002      104.1993      104.1996      86.700517       0.05707
  37     2.292       17.4990        0.0003      104.1958      104.1961      86.697100       0.05659
  36     2.964       17.4990        0.0004      104.1913      104.1917      86.692714       0.05506
  35     3.853       17.4989        0.0005      104.1854      104.1859      86.687066       0.05360
  34     5.035       17.4988        0.0007      104.1778      104.1785      86.679694       0.05266
  33     6.613       17.4987        0.0009      104.1678      104.1686      86.669981       0.05193
  32     8.786       17.4985        0.0011      104.1545      104.1556      86.657124       0.04993
  31     11.80       17.4983        0.0015      104.1359      104.1375      86.639208       0.05016
  30     15.07       17.4980        0.0020      104.1166      104.1186      86.620587       0.04808
  29     18.79       17.4977        0.0025      104.0956      104.0981      86.600343       0.04590
  28     23.16       17.4974        0.0030      104.0720      104.0750      86.577595       0.04399
  27     28.12       17.4970        0.0037      104.0459      104.0496      86.552573       0.04254
  26     33.73       17.4966        0.0044      104.0181      104.0225      86.525959       0.04002
  25     40.54       17.4961        0.0053      103.9863      103.9916      86.495546       0.03773
  24     48.69       17.4954        0.0064      103.9504      103.9568      86.461324       0.03541
  23     57.69       17.4948        0.0075      103.9130      103.9205      86.425785       0.03331
  22     68.43       17.4939        0.0089      103.8705      103.8795      86.385544       0.03163
  21     81.20       17.4930        0.0106      103.8219      103.8325      86.339503       0.03042
  20     96.49       17.4918        0.0126      103.7651      103.7777      86.285908       0.02958
  19     114.6       17.4904        0.0150      103.6981      103.7131      86.222659       0.02953
  18     136.5       17.4888        0.0178      103.6182      103.6359      86.147128       0.02904
  17     162.9       17.4869        0.0211      103.5018      103.5229      86.035988       0.03552
  16     196.4       17.4845        0.0254      103.2601      103.2855      85.800984       0.05915
  15     218.7       17.4830        0.0282      102.9097      102.9379      85.454849       0.13141
  14     243.0       17.4817        0.0311      102.2732      102.3043      84.822629       0.21927
  13     269.0       17.4807        0.0341      101.2641      101.2982      83.817459       0.32607
  12     297.5       17.4805        0.0370       99.6695       99.7065      82.225974       0.47202
  11     328.5       17.4814        0.0399       97.6082       97.6482      80.166825       0.55988
  10     361.9       17.4838        0.0430       95.2483       95.2913      77.807494       0.59693
   9     398.1       17.4886        0.0460       92.6564       92.7024      75.213816       0.60427
   8     437.6       17.4973        0.0489       89.7047       89.7536      72.256310       0.63233
   7     480.5       17.5115        0.0517       86.3265       86.3782      68.866638       0.66572
   6     533.0       17.5388        0.0547       81.9787       82.0334      64.494652       0.70331
   5     589.8       17.5865        0.0575       77.1953       77.2528      59.666281       0.71669
   4     651.6       17.6772        0.0598       71.7796       71.8395      54.162315       0.75268
   3     718.7       17.8426        0.0619       66.2294       66.2913      48.448763       0.71804
   2     792.3       18.1562        0.0638       60.7106       60.7744      42.618231       0.66870
   1     891.5       18.9965        0.0658       54.2338       54.2996      35.303101       0.62248
   0    1013.0       21.6924        0.0683       47.9982       48.0665      26.374070       0.61999



 Wavenumbers:  7700. -  8050. cm-1, ATM      1
 LEVEL PRESSURE   UPWARD FLUX   DIFDOWN FLUX  DIRDOWN FLUX  DOWNWARD FLUX   NET FLUX    HEATING RATE
          mb          W/m2          W/m2          W/m2        W/m2          W/m2       degree/day
  51    .06700        9.2499        0.0000       24.6282       24.6282      15.378270       0.00000
  50    .07753        9.2499        0.0000       24.6282       24.6282      15.378245       0.01952
  49    .09103        9.2499        0.0000       24.6281       24.6281      15.378215       0.01913
  48    0.1069        9.2499        0.0000       24.6281       24.6281      15.378179       0.01873
  47    0.1255        9.2500        0.0000       24.6281       24.6281      15.378139       0.01833
  46    0.1487        9.2500        0.0000       24.6280       24.6281      15.378088       0.01860
  45    0.1794        9.2500        0.0000       24.6280       24.6280      15.378018       0.01914
  44    0.2165        9.2500        0.0000       24.6279       24.6279      15.377936       0.01878
  43    0.2613        9.2500        0.0000       24.6279       24.6279      15.377838       0.01842
  42    0.3336        9.2501        0.0000       24.6277       24.6278      15.377676       0.01885
  41    0.4307        9.2501        0.0000       24.6276       24.6276      15.377462       0.01865
  40    0.5894        9.2502        0.0000       24.6273       24.6273      15.377112       0.01863
  39     1.339        9.2507        0.0001       24.6260       24.6261      15.375454       0.01866
  38     1.782        9.2509        0.0001       24.6253       24.6254      15.374480       0.01854
  37     2.292        9.2512        0.0001       24.6244       24.6246      15.373352       0.01868
  36     2.964        9.2516        0.0002       24.6233       24.6235      15.371871       0.01859
  35     3.853        9.2521        0.0002       24.6218       24.6220      15.369914       0.01857
  34     5.035        9.2528        0.0003       24.6198       24.6201      15.367313       0.01858
  33     6.613        9.2537        0.0004       24.6172       24.6176      15.363837       0.01858
  32     8.786        9.2550        0.0006       24.6136       24.6141      15.359149       0.01820
  31     11.80        9.2568        0.0007       24.6085       24.6092      15.352439       0.01879
  30     15.07        9.2587        0.0010       24.6030       24.6039      15.345231       0.01861
  29     18.79        9.2609        0.0012       24.5968       24.5980      15.337082       0.01848
  28     23.16        9.2634        0.0015       24.5895       24.5910      15.327558       0.01842
  27     28.12        9.2664        0.0018       24.5812       24.5830      15.316660       0.01853
  26     33.73        9.2697        0.0021       24.5720       24.5741      15.304457       0.01835
  25     40.54        9.2736        0.0026       24.5608       24.5634      15.289706       0.01830
  24     48.69        9.2785        0.0031       24.5473       24.5504      15.271914       0.01841
  23     57.69        9.2838        0.0036       24.5326       24.5362      15.252361       0.01833
  22     68.43        9.2903        0.0043       24.5150       24.5193      15.229063       0.01831
  21     81.20        9.2980        0.0051       24.4941       24.4993      15.201298       0.01835
  20     96.49        9.3072        0.0061       24.4694       24.4754      15.168203       0.01827
  19     114.6        9.3183        0.0072       24.4400       24.4472      15.128898       0.01835
  18     136.5        9.3317        0.0086       24.4054       24.4140      15.082298       0.01792
  17     162.9        9.3478        0.0102       24.3644       24.3746      15.026783       0.01774
  16     196.4        9.3691        0.0123       24.3116       24.3238      14.954742       0.01813
  15     218.7        9.3833        0.0136       24.2771       24.2907      14.907364       0.01799
  14     243.0        9.3991        0.0151       24.2397       24.2548      14.855746       0.01790
  13     269.0        9.4164        0.0167       24.1993       24.2160      14.799583       0.01822
  12     297.5        9.4356        0.0185       24.1556       24.1741      14.738485       0.01812
  11     328.5        9.4568        0.0204       24.1084       24.1288      14.671938       0.01809
  10     361.9        9.4804        0.0224       24.0575       24.0799      14.599526       0.01832
   9     398.1        9.5067        0.0246       24.0026       24.0271      14.520475       0.01842
   8     437.6        9.5361        0.0269       23.9430       23.9699      14.433844       0.01852
   7     480.5        9.5691        0.0295       23.8783       23.9078      14.338692       0.01869
   6     533.0        9.6122        0.0326       23.7972       23.8298      14.217609       0.01948
   5     589.8        9.6624        0.0359       23.7068       23.7427      14.080339       0.02038
   4     651.6        9.7227        0.0395       23.6034       23.6430      13.920233       0.02189
   3     718.7        9.7967        0.0434       23.4831       23.5265      13.729739       0.02394
   2     792.3        9.8911        0.0475       23.3388       23.3863      13.495249       0.02689
   1     891.5       10.0517        0.0529       23.1128       23.1657      13.113974       0.03244
   0    1013.0       10.3122        0.0592       22.7908       22.8500      12.537779       0.04001



 Wavenumbers:  8050. - 12850. cm-1, ATM      1
 LEVEL PRESSURE   UPWARD FLUX   DIFDOWN FLUX  DIRDOWN FLUX  DOWNWARD FLUX   NET FLUX    HEATING RATE
          mb          W/m2          W/m2          W/m2        W/m2          W/m2       degree/day
  51    .06700      111.3219        0.0000      344.8128      344.8128     233.490962       0.00000
  50    .07753      111.3219        0.0000      344.8128      344.8128     233.490962       0.00000
  49    .09103      111.3218        0.0001      344.8127      344.8128     233.490962       0.00000
  48    0.1069      111.3218        0.0001      344.8127      344.8128     233.490962      -0.00000
  47    0.1255      111.3218        0.0002      344.8126      344.8128     233.490962       0.00000
  46    0.1487      111.3218        0.0002      344.8125      344.8128     233.490962      -0.00000
  45    0.1794      111.3218        0.0003      344.8124      344.8127     233.490962       0.00000
  44    0.2165      111.3217        0.0005      344.8122      344.8127     233.490962      -0.00000
  43    0.2613      111.3217        0.0006      344.8121      344.8126     233.490962       0.00000
  42    0.3336      111.3216        0.0008      344.8118      344.8126     233.490962      -0.00000
  41    0.4307      111.3215        0.0011      344.8114      344.8125     233.490962       0.00000
  40    0.5894      111.3214        0.0016      344.8108      344.8123     233.490962       0.00000
  39     1.339      111.3207        0.0038      344.8078      344.8116     233.490962      -0.00000
  38     1.782      111.3202        0.0051      344.8061      344.8112     233.490962      -0.00000
  37     2.292      111.3198        0.0067      344.8041      344.8107     233.490962       0.00000
  36     2.964      111.3191        0.0087      344.8014      344.8101     233.490962       0.00000
  35     3.853      111.3183        0.0113      344.7979      344.8092     233.490962       0.00000
  34     5.035      111.3172        0.0148      344.7933      344.8081     233.490962      -0.00000
  33     6.613      111.3157        0.0196      344.7871      344.8066     233.490962       0.00000
  32     8.786      111.3137        0.0259      344.7787      344.8046     233.490962       0.00000
  31     11.80      111.3108        0.0350      344.7667      344.8017     233.490962      -0.00000
  30     15.07      111.3077        0.0448      344.7539      344.7987     233.490962       0.00000
  29     18.79      111.3042        0.0559      344.7393      344.7951     233.490962      -0.00000
  28     23.16      111.3001        0.0688      344.7223      344.7911     233.490962       0.00000
  27     28.12      111.2954        0.0836      344.7028      344.7864     233.490962       0.00000
  26     33.73      111.2901        0.1002      344.6809      344.7811     233.490962      -0.00000
  25     40.54      111.2838        0.1203      344.6545      344.7747     233.490962      -0.00000
  24     48.69      111.2761        0.1445      344.6225      344.7671     233.490962       0.00000
  23     57.69      111.2676        0.1712      344.5874      344.7586     233.490962      -0.00000
  22     68.43      111.2576        0.2030      344.5455      344.7485     233.490962      -0.00000
  21     81.20      111.2455        0.2410      344.4955      344.7365     233.490962       0.00000
  20     96.49      111.2311        0.2863      344.4358      344.7221     233.490962       0.00000
  19     114.6      111.2142        0.3403      344.3587      344.6989     233.484688       0.00293
  18     136.5      111.1941        0.4043      344.2667      344.6710     233.476889       0.00300
  17     162.9      111.1702        0.4808      344.1533      344.6341     233.463910       0.00415
  16     196.4      111.1391        0.5803      343.9892      344.5696     233.430438       0.00843
  15     218.7      111.1190        0.6458      343.8402      344.4860     233.367051       0.02407
  14     243.0      111.0978        0.7170      343.5933      344.3103     233.212546       0.05359
  13     269.0      111.0765        0.7940      343.1662      343.9602     232.883717       0.10667
  12     297.5      111.0569        0.8771      342.4819      343.3590     232.302039       0.17252
  11     328.5      111.0402        0.9667      341.5922      342.5589     231.518712       0.21298
  10     361.9      111.0286        1.0630      340.5080      341.5710     230.542404       0.24702
   9     398.1      111.0260        1.1662      339.1885      340.3547     229.328700       0.28277
   8     437.6      111.0392        1.2761      337.5272      338.8033     227.764132       0.33451
   7     480.5      111.0762        1.3927      335.4327      336.8254     225.749245       0.39572
   6     533.0      111.1649        1.5342      332.3652      333.8993     222.734446       0.48499
   5     589.8      111.3399        1.6831      328.3420      330.0251     218.685217       0.60104
   4     651.6      111.6954        1.8365      322.7671      324.6036     212.908207       0.79002
   3     718.7      112.3574        1.9932      315.5619      317.5551     205.197636       0.96901
   2     792.3      113.6115        2.1497      306.5104      308.6601     195.048620       1.16398
   1     891.5      116.8629        2.3414      292.9732      295.3146     178.451724       1.41232
   0    1013.0      125.8481        2.5493      276.3074      278.8568     153.008709       1.76664



 Wavenumbers: 12850. - 16000. cm-1, ATM      1
 LEVEL PRESSURE   UPWARD FLUX   DIFDOWN FLUX  DIRDOWN FLUX  DOWNWARD FLUX   NET FLUX    HEATING RATE
          mb          W/m2          W/m2          W/m2        W/m2          W/m2       degree/day
  51    .06700       16.2186        0.0000      216.0557      216.0557     199.837074       0.00000
  50    .07753       16.2186        0.0001      216.0548      216.0549     199.836295       0.62485
  49    .09103       16.2186        0.0001      216.0538      216.0539     199.835313       0.61370
  48    0.1069       16.2185        0.0002      216.0525      216.0527     199.834181       0.60243
  47    0.1255       16.2184        0.0003      216.0510      216.0513     199.832877       0.59148
  46    0.1487       16.2184        0.0004      216.0492      216.0496     199.831224       0.60249
  45    0.1794       16.2183        0.0005      216.0467      216.0472     199.828961       0.62104
  44    0.2165       16.2182        0.0007      216.0438      216.0445     199.826280       0.60991
  43    0.2613       16.2181        0.0009      216.0403      216.0412     199.823101       0.59922
  42    0.3336       16.2179        0.0012      216.0345      216.0357     199.817852       0.61208
  41    0.4307       16.2176        0.0017      216.0269      216.0286     199.810948       0.60023
  40    0.5894       16.2173        0.0024      216.0146      216.0171     199.799795       0.59312
  39     1.339       16.2162        0.0059      215.9584      215.9643     199.748015       0.58295
  38     1.782       16.2161        0.0080      215.9258      215.9338     199.717682       0.57748
  37     2.292       16.2164        0.0103      215.8879      215.8982     199.681869       0.59315
  36     2.964       16.2174        0.0134      215.8370      215.8504     199.633063       0.61266
  35     3.853       16.2197        0.0175      215.7678      215.7854     199.565717       0.63913
  34     5.035       16.2236        0.0230      215.6752      215.6982     199.474615       0.65080
  33     6.613       16.2293        0.0302      215.5548      215.5850     199.355715       0.63564
  32     8.786       16.2365        0.0400      215.4027      215.4427     199.206181       0.58073
  31     11.80       16.2450        0.0540      215.2043      215.2583     199.013329       0.53993
  30     15.07       16.2519        0.0690      215.0098      215.0788     198.826945       0.48121
  29     18.79       16.2578        0.0860      214.8056      214.8916     198.633740       0.43806
  28     23.16       16.2625        0.1057      214.5841      214.6898     198.427344       0.39910
  27     28.12       16.2653        0.1283      214.3504      214.4787     198.213438       0.36363
  26     33.73       16.2646        0.1536      214.1164      214.2700     198.005360       0.31285
  25     40.54       16.2596        0.1842      213.8655      214.0497     197.790027       0.26715
  24     48.69       16.2494        0.2210      213.5943      213.8153     197.565838       0.23200
  23     57.69       16.2342        0.2615      213.3269      213.5884     197.354157       0.19842
  22     68.43       16.2117        0.3097      213.0419      213.3516     197.139898       0.16844
  21     81.20       16.1790        0.3672      212.7488      213.1160     196.937067       0.13403
  20     96.49       16.1344        0.4358      212.4447      212.8805     196.746100       0.10540
  19     114.6       16.0808        0.5176      212.1101      212.6277     196.546866       0.09303
  18     136.5       16.0149        0.6145      211.7382      212.3528     196.337908       0.08035
  17     162.9       15.9339        0.7299      211.3198      212.0497     196.115796       0.07100
  16     196.4       15.8241        0.8796      210.8156      211.6952     195.871018       0.06161
  15     218.7       15.7502        0.9779      210.4965      211.4743     195.724105       0.05578
  14     243.0       15.6690        1.0847      210.1519      211.2366     195.567613       0.05428
  13     269.0       15.5800        1.2003      209.7781      210.9784     195.398352       0.05491
  12     297.5       15.4832        1.3253      209.3683      210.6936     195.210420       0.05574
  11     328.5       15.3781        1.4602      208.9170      210.3772     194.999067       0.05747
  10     361.9       15.2647        1.6053      208.4189      210.0242     194.759507       0.06061
   9     398.1       15.1426        1.7613      207.8679      209.6292     194.486629       0.06357
   8     437.6       15.0117        1.9285      207.2544      209.1829     194.171154       0.06745
   7     480.5       14.8722        2.1074      206.5713      208.6786     193.806464       0.07162
   6     533.0       14.7021        2.3267      205.6883      208.0151     193.312976       0.07939
   5     589.8       14.5226        2.5619      204.6670      207.2288     192.706190       0.09007
   4     651.6       14.3389        2.8118      203.4324      206.2442     191.905308       0.10952
   3     718.7       14.1542        3.0756      201.9561      205.0317     190.877456       0.12917
   2     792.3       13.9811        3.3501      200.1346      203.4847     189.503612       0.15756
   1     891.5       13.8088        3.7047      197.2502      200.9549     187.146078       0.20061
   0    1013.0       13.7382        4.1070      193.2807      197.3876     183.649459       0.24279



 Wavenumbers: 16000. - 22650. cm-1, ATM      1
 LEVEL PRESSURE   UPWARD FLUX   DIFDOWN FLUX  DIRDOWN FLUX  DOWNWARD FLUX   NET FLUX    HEATING RATE
          mb          W/m2          W/m2          W/m2        W/m2          W/m2       degree/day
  51    .06700       38.9771        0.0000      344.4769      344.4769     305.499786       0.00000
  50    .07753       38.9769        0.0003      344.4763      344.4766     305.499686       0.07986
  49    .09103       38.9767        0.0006      344.4756      344.4763     305.499541       0.09058
  48    0.1069       38.9765        0.0011      344.4748      344.4758     305.499347       0.10329
  47    0.1255       38.9762        0.0015      344.4737      344.4753     305.499087       0.11773
  46    0.1487       38.9758        0.0021      344.4724      344.4745     305.498705       0.13951
  45    0.1794       38.9754        0.0030      344.4705      344.4735     305.498106       0.16427
  44    0.2165       38.9748        0.0039      344.4682      344.4721     305.497295       0.18462
  43    0.2613       38.9742        0.0051      344.4653      344.4704     305.496194       0.20755
  42    0.3336       38.9732        0.0070      344.4603      344.4673     305.494100       0.24408
  41    0.4307       38.9720        0.0095      344.4534      344.4629     305.490944       0.27437
  40    0.5894       38.9701        0.0137      344.4414      344.4550     305.484926       0.32004
  39     1.339       38.9639        0.0332      344.3711      344.4043     305.440464       0.50057
  38     1.782       38.9621        0.0447      344.3200      344.3647     305.402588       0.72110
  37     2.292       38.9620        0.0580      344.2517      344.3097     305.347763       0.90804
  36     2.964       38.9645        0.0755      344.1480      344.2235     305.258949       1.11488
  35     3.853       38.9718        0.0985      343.9913      344.0898     305.118032       1.33733
  34     5.035       38.9853        0.1291      343.7640      343.8931     304.907812       1.50172
  33     6.613       39.0054        0.1700      343.4511      343.6211     304.615705       1.56160
  32     8.786       39.0302        0.2249      343.0410      343.2659     304.235676       1.47590
  31     11.80       39.0581        0.3034      342.4947      342.7981     303.739956       1.38786
  30     15.07       39.0790        0.3875      341.9547      342.3423     303.263225       1.23083
  29     18.79       39.0945        0.4825      341.3868      341.8693     302.774766       1.10749
  28     23.16       39.1032        0.5932      340.7717      341.3649     302.261688       0.99213
  27     28.12       39.1022        0.7196      340.1241      340.8437     301.741527       0.88424
  26     33.73       39.0854        0.8610      339.4775      340.3385     301.253120       0.73433
  25     40.54       39.0470        1.0317      338.7859      339.8176     300.770581       0.59864
  24     48.69       38.9831        1.2372      338.0389      339.2761     300.293052       0.49417
  23     57.69       38.8957        1.4628      337.3015      338.7643     299.868653       0.39781
  22     68.43       38.7731        1.7312      336.5123      338.2435     299.470415       0.31307
  21     81.20       38.6018        2.0508      335.6921      337.7429     299.141111       0.21760
  20     96.49       38.3741        2.4313      334.8256      337.2569     298.882787       0.14258
  19     114.6       38.0910        2.8819      333.8560      336.7379     298.646961       0.11011
  18     136.5       37.7456        3.4141      332.7466      336.1607     298.415062       0.08917
  17     162.9       37.3246        4.0450      331.4625      335.5074     298.182875       0.07422
  16     196.4       36.7593        4.8592      329.8743      334.7335     297.974161       0.05254
  15     218.7       36.3801        5.3914      328.8601      334.2515     297.871379       0.03902
  14     243.0       35.9631        5.9675      327.7715      333.7390     297.775923       0.03311
  13     269.0       35.5059        6.5891      326.6061      333.1952     297.689360       0.02808
  12     297.5       35.0061        7.2576      325.3603      332.6180     297.611884       0.02298
  11     328.5       34.4610        7.9762      324.0212      331.9974     297.536361       0.02053
  10     361.9       33.8685        8.7455      322.5859      331.3313     297.462839       0.01860
   9     398.1       33.2246        9.5683      321.0470      330.6152     297.390638       0.01682
   8     437.6       32.5262       10.4460      319.3978      329.8438     297.317534       0.01563
   7     480.5       31.7698       11.3800      317.6330      329.0130     297.243208       0.01460
   6     533.0       30.8277       12.5203      315.4613      327.9816     297.153858       0.01437
   5     589.8       29.7989       13.7376      313.1151      326.8527     297.053850       0.01484
   4     651.6       28.6777       15.0327      310.5763      325.6090     296.931237       0.01677
   3     718.7       27.4576       16.4060      307.8270      324.2330     296.775400       0.01958
   2     792.3       26.1342       17.8549      304.8404      322.6953     296.561103       0.02458
   1     891.5       24.3229       19.7721      300.7148      320.4869     296.164002       0.03379
   0    1013.0       22.1080       22.0131      295.6311      317.6442     295.536150       0.04360



 Wavenumbers: 22650. - 29000. cm-1, ATM      1
 LEVEL PRESSURE   UPWARD FLUX   DIFDOWN FLUX  DIRDOWN FLUX  DOWNWARD FLUX   NET FLUX    HEATING RATE
          mb          W/m2          W/m2          W/m2        W/m2          W/m2       degree/day
  51    .06700       26.9161        0.0000      129.9930      129.9930     103.076957       0.00000
  50    .07753       26.9159        0.0004      129.9925      129.9929     103.076957       0.00000
  49    .09103       26.9157        0.0008      129.9918      129.9926     103.076957       0.00000
  48    0.1069       26.9154        0.0014      129.9910      129.9924     103.076957      -0.00000
  47    0.1255       26.9151        0.0020      129.9901      129.9921     103.076957       0.00000
  46    0.1487       26.9147        0.0027      129.9889      129.9917     103.076957      -0.00000
  45    0.1794       26.9142        0.0038      129.9874      129.9911     103.076957       0.00000
  44    0.2165       26.9135        0.0050      129.9855      129.9905     103.076957       0.00000
  43    0.2613       26.9128        0.0065      129.9833      129.9898     103.076957       0.00000
  42    0.3336       26.9116        0.0089      129.9796      129.9885     103.076957       0.00000
  41    0.4307       26.9099        0.0121      129.9747      129.9869     103.076957       0.00000
  40    0.5894       26.9072        0.0174      129.9668      129.9842     103.076957      -0.00000
  39     1.339       26.8946        0.0423      129.9292      129.9715     103.076957       0.00000
  38     1.782       26.8871        0.0570      129.9071      129.9641     103.076957       0.00000
  37     2.292       26.8785        0.0739      129.8815      129.9554     103.076957       0.00000
  36     2.964       26.8671        0.0961      129.8480      129.9441     103.076957       0.00000
  35     3.853       26.8522        0.1255      129.8036      129.9291     103.076957      -0.00000
  34     5.035       26.8322        0.1645      129.7447      129.9092     103.076957       0.00000
  33     6.613       26.8056        0.2166      129.6660      129.8826     103.076957      -0.00000
  32     8.786       26.7697        0.2867      129.5599      129.8466     103.076957       0.00000
  31     11.80       26.7181        0.3869      129.4082      129.7951     103.076957       0.00000
  30     15.07       26.6627        0.4944      129.2453      129.7397     103.076957      -0.00000
  29     18.79       26.5999        0.6156      129.0613      129.6769     103.076957      -0.00000
  28     23.16       26.5265        0.7569      128.8465      129.6034     103.076957       0.00000
  27     28.12       26.4422        0.9181      128.6010      129.5191     103.076957       0.00000
  26     33.73       26.3476        1.0980      128.3266      129.4245     103.076957      -0.00000
  25     40.54       26.2329        1.3146      127.9953      129.3099     103.076957      -0.00000
  24     48.69       26.0941        1.5746      127.5965      129.1711     103.076957      -0.00000
  23     57.69       25.9410        1.8587      127.1593      129.0180     103.076957       0.00000
  22     68.43       25.7578        2.1951      126.6397      128.8348     103.076957       0.00000
  21     81.20       25.5384        2.5929      126.0224      128.6153     103.076957       0.00000
  20     96.49       25.2752        3.0626      125.2896      128.3522     103.076957       0.00000
  19     114.6       24.9605        3.6141      124.4234      128.0375     103.076957       0.00000
  18     136.5       24.5844        4.2589      123.4024      127.6613     103.076957      -0.00000
  17     162.9       24.1320        5.0143      122.1947      127.2090     103.076957      -0.00000
  16     196.4       23.5385        5.9735      120.6419      126.6154     103.076957       0.00000
  15     218.7       23.1443        6.5910      119.6303      126.2213     103.076957       0.00000
  14     243.0       22.7120        7.2511      118.5379      125.7890     103.076957       0.00000
  13     269.0       22.2389        7.9535      117.3624      125.3159     103.076957       0.00000
  12     297.5       21.7222        8.6974      116.1018      124.7991     103.076957      -0.00000
  11     328.5       21.1573        9.4838      114.7505      124.2343     103.076957       0.00000
  10     361.9       20.5416       10.3102      113.3083      123.6186     103.076957       0.00000
   9     398.1       19.8701       11.1765      111.7705      122.9470     103.076957       0.00000
   8     437.6       19.1385       12.0801      110.1353      122.2155     103.076957      -0.00000
   7     480.5       18.3423       13.0183      108.4010      121.4193     103.076957       0.00000
   6     533.0       17.3448       14.1301      106.2917      120.4217     103.076957      -0.00000
   5     589.8       16.2473       15.2760      104.0483      119.3242     103.076957       0.00000
   4     651.6       15.0408       16.4478      101.6700      118.1177     103.076957      -0.00000
   3     718.7       13.7148       17.6360       99.1558      116.7918     103.076957       0.00000
   2     792.3       12.2595       18.8281       96.5083      115.3364     103.076957      -0.00000
   1     891.5       10.2350       20.3055       93.0064      113.3119     103.076957       0.00000
   0    1013.0        7.7108       21.8796       88.9082      110.7878     103.076957       0.00000



 Wavenumbers: 29000. - 38000. cm-1, ATM      1
 LEVEL PRESSURE   UPWARD FLUX   DIFDOWN FLUX  DIRDOWN FLUX  DOWNWARD FLUX   NET FLUX    HEATING RATE
          mb          W/m2          W/m2          W/m2        W/m2          W/m2       degree/day
  51    .06700        6.8887        0.0000       45.8410       45.8410      38.952273       0.00000
  50    .07753        6.8885        0.0003       45.8366       45.8370      38.948461       3.05529
  49    .09103        6.8883        0.0007       45.8305       45.8312      38.942912       3.46805
  48    0.1069        6.8880        0.0011       45.8223       45.8235      38.935478       3.95715
  47    0.1255        6.8877        0.0017       45.8116       45.8132      38.925526       4.51204
  46    0.1487        6.8873        0.0023       45.7959       45.7982      38.910860       5.34589
  45    0.1794        6.8869        0.0032       45.7716       45.7748      38.887958       6.28702
  44    0.2165        6.8863        0.0042       45.7391       45.7433      38.856968       7.04966
  43    0.2613        6.8857        0.0054       45.6954       45.7008      38.815076       7.89649
  42    0.3336        6.8848        0.0074       45.6134       45.6208      38.735994       9.22025
  41    0.4307        6.8837        0.0101       45.4920       45.5020      38.618313      10.23203
  40    0.5894        6.8822        0.0143       45.2670       45.2813      38.399118      11.65653
  39     1.339        6.8787        0.0326       43.8242       43.8567      36.978007      15.99913
  38     1.782        6.8793        0.0421       42.8351       42.8771      35.997804      18.66149
  37     2.292        6.8823        0.0522       41.6852       41.7375      34.855204      18.92442
  36     2.964        6.8895        0.0647       40.2943       40.3590      33.469534      17.39435
  35     3.853        6.9037        0.0803       38.7687       38.8490      31.945308      14.46519
  34     5.035        6.9272        0.1001       37.2304       37.3305      30.403300      11.01546
  33     6.613        6.9617        0.1257       35.7405       35.8662      28.904476       8.01271
  32     8.786        7.0077        0.1593       34.3295       34.4887      27.481078       5.52797
  31     11.80        7.0681        0.2061       32.9481       33.1542      26.086051       3.90563
  30     15.07        7.1271        0.2554       31.8942       32.1496      25.022540       2.74578
  29     18.79        7.1887        0.3098       30.9854       31.2952      24.106481       2.07699
  28     23.16        7.2552        0.3721       30.1559       30.5280      23.272835       1.61200
  27     28.12        7.3242        0.4423       29.4043       29.8466      22.522399       1.27569
  26     33.73        7.3882        0.5205       28.7514       29.2719      21.883704       0.96029
  25     40.54        7.4484        0.6145       28.1328       28.7473      21.298910       0.72550
  24     48.69        7.5041        0.7271       27.5340       28.2611      20.756987       0.56081
  23     57.69        7.5476        0.8499       26.9971       27.8470      20.299371       0.42895
  22     68.43        7.5782        0.9954       26.4694       27.4647      19.886581       0.32451
  21     81.20        7.5807        1.1693       25.9669       27.1361      19.555400       0.21884
  20     96.49        7.5498        1.3763       25.4748       26.8511      19.301306       0.14024
  19     114.6        7.4949        1.6176       24.9506       26.5682      19.073318       0.10645
  18     136.5        7.4174        1.8951       24.3745       26.2696      18.852155       0.08504
  17     162.9        7.3134        2.2148       23.7328       25.9476      18.634192       0.06967
  16     196.4        7.1512        2.6171       22.9761       25.5931      18.441965       0.04839
  15     218.7        7.0332        2.8710       22.5089       25.3799      18.346695       0.03617
  14     243.0        6.8987        3.1380       22.0192       25.1572      18.258450       0.03061
  13     269.0        6.7460        3.4172       21.5077       24.9250      18.179027       0.02576
  12     297.5        6.5734        3.7074       20.9749       24.6824      18.108950       0.02078
  11     328.5        6.3812        4.0066       20.4165       24.4230      18.041876       0.01824
  10     361.9        6.1677        4.3122       19.8338       24.1460      17.978226       0.01610
   9     398.1        5.9310        4.6225       19.2267       23.8492      17.918140       0.01400
   8     437.6        5.6694        4.9345       18.5955       23.5300      17.860573       0.01231
   7     480.5        5.3806        5.2452       17.9419       23.1871      17.806438       0.01063
   6     533.0        5.0138        5.5951       17.1671       22.7621      17.748320       0.00935
   5     589.8        4.6049        5.9316       16.3664       22.2980      17.693002       0.00821
   4     651.6        4.1503        6.2485       15.5420       21.7906      17.640302       0.00721
   3     718.7        3.6451        6.5382       14.6973       21.2354      17.590346       0.00628
   2     792.3        3.0847        6.7905       13.8375       20.6280      17.543272       0.00540
   1     891.5        2.2973        7.0422       12.7437       19.7859      17.488617       0.00465
   0    1013.0        1.3042        7.2093       11.5285       18.7378      17.433653       0.00382



 Wavenumbers: 38000. - 50000. cm-1, ATM      1
 LEVEL PRESSURE   UPWARD FLUX   DIFDOWN FLUX  DIRDOWN FLUX  DOWNWARD FLUX   NET FLUX    HEATING RATE
          mb          W/m2          W/m2          W/m2        W/m2          W/m2       degree/day
  51    .06700        0.0077        0.0000        2.8274        2.8274       2.819732       0.00000
  50    .07753        0.0076        0.0001        2.8250        2.8250       2.817394       1.87426
  49    .09103        0.0076        0.0002        2.8215        2.8216       2.814052       2.08853
  48    0.1069        0.0075        0.0003        2.8169        2.8172       2.809652       2.34203
  47    0.1255        0.0074        0.0004        2.8109        2.8113       2.803854       2.62885
  46    0.1487        0.0073        0.0005        2.8022        2.8027       2.795433       3.06948
  45    0.1794        0.0072        0.0007        2.7889        2.7896       2.782446       3.56531
  44    0.2165        0.0070        0.0009        2.7712        2.7721       2.765088       3.94851
  43    0.2613        0.0068        0.0012        2.7476        2.7487       2.741916       4.36792
  42    0.3336        0.0065        0.0015        2.7038        2.7053       2.698800       5.02689
  41    0.4307        0.0062        0.0020        2.6399        2.6419       2.635738       5.48307
  40    0.5894        0.0056        0.0027        2.5241        2.5268       2.521231       6.08937
  39     1.339        0.0038        0.0042        1.8543        1.8585       1.854685       7.50409
  38     1.782        0.0031        0.0041        1.4655        1.4696       1.466513       7.39018
  37     2.292        0.0024        0.0036        1.0872        1.0908       1.088339       6.26353
  36     2.964        0.0019        0.0030        0.7358        0.7388       0.736859       4.41214
  35     3.853        0.0015        0.0024        0.4711        0.4735       0.472010       2.51347
  34     5.035        0.0012        0.0019        0.2988        0.3008       0.299620       1.23148
  33     6.613        0.0009        0.0016        0.1889        0.1905       0.189608       0.58813
  32     8.786        0.0007        0.0013        0.1196        0.1208       0.120133       0.26981
  31     11.80        0.0005        0.0010        0.0741        0.0751       0.074563       0.12758
  30     15.07        0.0004        0.0008        0.0493        0.0501       0.049700       0.06419
  29     18.79        0.0003        0.0006        0.0330        0.0336       0.033348       0.03707
  28     23.16        0.0002        0.0004        0.0217        0.0221       0.021940       0.02206
  27     28.12        0.0001        0.0003        0.0140        0.0144       0.014212       0.01314
  26     33.73        0.0001        0.0002        0.0091        0.0093       0.009223       0.00750
  25     40.54        0.0001        0.0002        0.0057        0.0059       0.005793       0.00426
  24     48.69        0.0000        0.0001        0.0034        0.0035       0.003483       0.00239
  23     57.69        0.0000        0.0001        0.0020        0.0021       0.002088       0.00131
  22     68.43        0.0000        0.0000        0.0012        0.0012       0.001190       0.00071
  21     81.20        0.0000        0.0000        0.0006        0.0007       0.000647       0.00036
  20     96.49        0.0000        0.0000        0.0003        0.0003       0.000330       0.00018
  19     114.6        0.0000        0.0000        0.0001        0.0002       0.000151       0.00008
  18     136.5        0.0000        0.0000        0.0001        0.0001       0.000060       0.00003
  17     162.9        0.0000        0.0000        0.0000        0.0000       0.000020       0.00001
  16     196.4        0.0000        0.0000        0.0000        0.0000       0.000005       0.00000
  15     218.7        0.0000        0.0000        0.0000        0.0000       0.000002       0.00000
  14     243.0        0.0000        0.0000        0.0000        0.0000       0.000001       0.00000
  13     269.0        0.0000        0.0000        0.0000        0.0000       0.000000       0.00000
  12     297.5        0.0000        0.0000        0.0000        0.0000       0.000000       0.00000
  11     328.5        0.0000        0.0000        0.0000        0.0000       0.000000       0.00000
  10     361.9        0.0000        0.0000        0.0000        0.0000       0.000000       0.00000
   9     398.1        0.0000        0.0000        0.0000        0.0000       0.000000       0.00000
   8     437.6        0.0000        0.0000        0.0000        0.0000       0.000000       0.00000
   7     480.5        0.0000        0.0000        0.0000        0.0000       0.000000       0.00000
   6     533.0        0.0000        0.0000        0.0000        0.0000       0.000000       0.00000
   5     589.8        0.0000        0.0000        0.0000        0.0000       0.000000       0.00000
   4     651.6        0.0000        0.0000        0.0000        0.0000       0.000000       0.00000
   3     718.7        0.0000        0.0000        0.0000        0.0000       0.000000       0.00000
   2     792.3        0.0000        0.0000        0.0000        0.0000       0.000000       0.00000
   1     891.5        0.0000        0.0000        0.0000        0.0000       0.000000       0.00000
   0    1013.0        0.0000        0.0000        0.0000        0.0000       0.000000       0.00000



 Wavenumbers:   820. -  2600. cm-1, ATM      1
 LEVEL PRESSURE   UPWARD FLUX   DIFDOWN FLUX  DIRDOWN FLUX  DOWNWARD FLUX   NET FLUX    HEATING RATE
          mb          W/m2          W/m2          W/m2        W/m2          W/m2       degree/day
  51    .06700        1.3151        0.0000       13.2264       13.2264      11.911317       0.00000
  50    .07753        1.3151        0.0000       13.2194       13.2194      11.904295       5.62798
  49    .09103        1.3151        0.0000       13.2178       13.2178      11.902721       0.98413
  48    0.1069        1.3151        0.0000       13.2167       13.2167      11.901594       0.59959
  47    0.1255        1.3151        0.0000       13.2154       13.2154      11.900304       0.58518
  46    0.1487        1.3151        0.0000       13.2137       13.2137      11.898646       0.60404
  45    0.1794        1.3151        0.0000       13.2114       13.2114      11.896387       0.62015
  44    0.2165        1.3151        0.0000       13.2088       13.2088      11.893769       0.59559
  43    0.2613        1.3151        0.0000       13.2059       13.2059      11.890788       0.56191
  42    0.3336        1.3151        0.0000       13.2013       13.2013      11.886224       0.53213
  41    0.4307        1.3151        0.0000       13.1959       13.1959      11.880853       0.46699
  40    0.5894        1.3151        0.0000       13.1882       13.1882      11.873161       0.40906
  39     1.339        1.3151        0.0000       13.1557       13.1557      11.840621       0.36634
  38     1.782        1.3151        0.0000       13.1371       13.1371      11.822032       0.35391
  37     2.292        1.3151        0.0000       13.1162       13.1162      11.801083       0.34697
  36     2.964        1.3151        0.0000       13.0894       13.0894      11.774326       0.33589
  35     3.853        1.3151        0.0000       13.0549       13.0549      11.739820       0.32746
  34     5.035        1.3151        0.0000       13.0106       13.0106      11.695510       0.31654
  33     6.613        1.3151        0.0000       12.9545       12.9545      11.639385       0.30004
  32     8.786        1.3151        0.0000       12.8834       12.8834      11.568247       0.27628
  31     11.80        1.3151        0.0000       12.7885       12.7885      11.473330       0.26574
  30     15.07        1.3151        0.0000       12.6943       12.6944      11.379207       0.24301
  29     18.79        1.3152        0.0000       12.5999       12.5999      11.284731       0.21421
  28     23.16        1.3152        0.0000       12.5086       12.5086      11.193439       0.17653
  27     28.12        1.3152        0.0000       12.4288       12.4289      11.113637       0.13566
  26     33.73        1.3152        0.0000       12.3650       12.3650      11.049767       0.09603
  25     40.54        1.3153        0.0000       12.3120       12.3120      10.996714       0.06582
  24     48.69        1.3153        0.0000       12.2668       12.2668      10.951523       0.04677
  23     57.69        1.3154        0.0000       12.2260       12.2260      10.910629       0.03833
  22     68.43        1.3154        0.0000       12.1803       12.1803      10.864834       0.03600
  21     81.20        1.3155        0.0000       12.1270       12.1270      10.811523       0.03523
  20     96.49        1.3156        0.0000       12.0640       12.0640      10.748384       0.03485
  19     114.6        1.3157        0.0000       11.9885       11.9886      10.672855       0.03527
  18     136.5        1.3158        0.0000       11.8987       11.8988      10.582932       0.03458
  17     162.9        1.3160        0.0000       11.7817       11.7818      10.465735       0.03746
  16     196.4        1.3163        0.0000       11.5930       11.5930      10.276655       0.04759
  15     218.7        1.3167        0.0000       11.4055       11.4056      10.088897       0.07128
  14     243.0        1.3172        0.0000       11.1045       11.1045       9.787333       0.10459
  13     269.0        1.3180        0.0000       10.6901       10.6901       9.372152       0.13468
  12     297.5        1.3192        0.0000       10.2200       10.2201       8.900842       0.13979
  11     328.5        1.3209        0.0000        9.8187        9.8187       8.497817       0.10958
  10     361.9        1.3232        0.0000        9.4313        9.4313       8.108150       0.09859
   9     398.1        1.3262        0.0000        8.9858        8.9858       7.659628       0.10450
   8     437.6        1.3300        0.0000        8.4654        8.4655       7.135412       0.11208
   7     480.5        1.3348        0.0000        7.9394        7.9395       6.604683       0.10423
   6     533.0        1.3421        0.0000        7.4262        7.4262       6.084086       0.08375
   5     589.8        1.3530        0.0000        7.0503        7.0503       5.697391       0.05740
   4     651.6        1.3721        0.0001        6.7312        6.7313       5.359207       0.04625
   3     718.7        1.4048        0.0001        6.3693        6.3693       4.964533       0.04960
   2     792.3        1.4645        0.0001        5.9171        5.9172       4.452636       0.05871
   1     891.5        1.6178        0.0001        5.2716        5.2716       3.653821       0.06798
   0    1013.0        2.0370        0.0001        4.5136        4.5136       2.476634       0.08174

  Modules and versions used in this calculation:

       rrtmg_sw.1col.f90:  $Revision$                    rrtmg_sw_init.f90:  $Revision$        
     rrtmgsw_cldprop.f90:  $Revision$                  rrtmgsw_cldprmc.f90:  NOT USED          
     rrtmg_sw_reftra.f90:  $Revision$                  rrtmg_sw_spcvrt.f90:  NOT USED          
     rrtmg_sw_spcvmc.f90:  NOT USED                    rrtmgsw_setcoef.f90:  NOT USED          
     rrtmg_sw_taumol.f90:  $Revision$                  rrtmg_sw_vrtqdr.f90:  NOT USED          
                rrtatm.f:  NOT USED                             util_xxx.f:  NOT USED          
                 extra.f:  NOT USED                       rrtmg_sw_k_g.f90:  $Revision$        

