

 Wavenumbers:   820. - 50000. cm-1, ATM      1
 LEVEL PRESSURE   UPWARD FLUX   DIFDOWN FLUX  DIRDOWN FLUX  DOWNWARD FLUX   NET FLUX    HEATING RATE
          mb          W/m2          W/m2          W/m2        W/m2          W/m2       degree/day
  51    .06700      136.2950        0.0000     1360.8491     1360.8491    1224.554134       0.00000
  50    .07753      136.2943        0.0011     1360.8273     1360.8284    1224.534056      16.09349
  49    .09103      136.2935        0.0025     1360.8078     1360.8102    1224.516781      10.79728
  48    0.1069      136.2925        0.0041     1360.7860     1360.7900    1224.497547      10.23810
  47    0.1255      136.2914        0.0059     1360.7600     1360.7659    1224.474457      10.46817
  46    0.1487      136.2901        0.0082     1360.7249     1360.7330    1224.442988      11.47058
  45    0.1794      136.2882        0.0113     1360.6734     1360.6847    1224.396486      12.76607
  44    0.2165      136.2862        0.0150     1360.6074     1360.6224    1224.336212      13.71112
  43    0.2613      136.2838        0.0194     1360.5219     1360.5413    1224.257565      14.82473
  42    0.3336      136.2799        0.0266     1360.3673     1360.3939    1224.113984      16.74006
  41    0.4307      136.2750        0.0360     1360.1456     1360.1817    1223.906680      18.02467
  40    0.5894      136.2674        0.0513     1359.7482     1359.7996    1223.532176      19.91565
  39     1.339      136.2390        0.1202     1357.3733     1357.4936    1221.254579      25.64160
  38     1.782      136.2273        0.1585     1355.8375     1355.9959    1219.768666      28.28940
  37     2.292      136.2181        0.2016     1354.1208     1354.3224    1218.104297      27.56629
  36     2.964      136.2127        0.2573     1352.1205     1352.3778    1216.165137      24.34232
  35     3.853      136.2146        0.3302     1349.9734     1350.3037    1214.089043      19.70251
  34     5.035      136.2262        0.4264     1347.7761     1348.2025    1211.976362      15.09211
  33     6.613      136.2469        0.5543     1345.5290     1346.0832    1209.836337      11.44058
  32     8.786      136.2720        0.7257     1343.2079     1343.9336    1207.661548       8.44609
  31     11.80      136.2946        0.9698     1340.6494     1341.6192    1205.324648       6.54258
  30     15.07      136.3031        1.2306     1338.4304     1339.6610    1203.357884       5.07780
  29     18.79      136.2991        1.5236     1336.2864     1337.8101    1201.510977       4.18751
  28     23.16      136.2787        1.8644     1334.1057     1335.9701    1199.691395       3.51848
  27     28.12      136.2364        2.2524     1331.9136     1334.1660    1197.929539       2.99504
  26     33.73      136.1591        2.6857     1329.7853     1332.4711    1196.311946       2.43209
  25     40.54      136.0290        3.2079     1327.5375     1330.7454    1194.716408       1.97945
  24     48.69      135.8360        3.8355     1325.1261     1328.9616    1193.125575       1.64626
  23     57.69      135.5876        4.5223     1322.7388     1327.2611    1191.673471       1.36113
  22     68.43      135.2500        5.3372     1320.1544     1325.4916    1190.241553       1.12568
  21     81.20      134.7863        6.3056     1317.3916     1323.6972    1188.910919       0.87926
  20     96.49      134.1733        7.4548     1314.3811     1321.8360    1187.662660       0.68895
  19     114.6      133.4135        8.8076     1310.9471     1319.7547    1186.341223       0.61702
  18     136.5      132.4867       10.3920     1306.9977     1317.3897    1184.903057       0.55301
  17     162.9      131.3562       12.2525     1302.3518     1314.6044    1183.248128       0.52898
  16     196.4      129.8352       14.6287     1296.2678     1310.8965    1181.061296       0.55045
  15     218.7      128.8124       16.1639     1291.7724     1307.9363    1179.123886       0.73556
  14     243.0      127.6861       17.8097     1286.1481     1303.9578    1176.271688       0.98924
  13     269.0      126.4498       19.5669     1279.0245     1298.5914    1172.141621       1.33977
  12     297.5      125.0978       21.4351     1270.1087     1291.5437    1166.445930       1.68928
  11     328.5      123.6224       23.4174     1260.1713     1283.5886    1159.966234       1.76181
  10     361.9      122.0185       25.5099     1249.4297     1274.9396    1152.921051       1.78250
   9     398.1      120.2763       27.7137     1237.6382     1265.3518    1145.075552       1.82783
   8     437.6      118.3904       30.0245     1224.3920     1254.4165    1136.026115       1.93483
   7     480.5      116.3539       32.4382     1209.7358     1242.1740    1125.820114       2.00442
   6     533.0      113.8326       35.3203     1191.2571     1226.5775    1112.744823       2.10340
   5     589.8      111.1125       38.3160     1170.7333     1209.0493    1097.936804       2.19800
   4     651.6      108.2298       41.4069     1147.0297     1188.4366    1080.206880       2.42462
   3     718.7      105.2324       44.5744     1120.8952     1165.4696    1060.237150       2.50964
   2     792.3      102.2651       47.7868     1092.1619     1139.9487    1037.683571       2.58664
   1     891.5       99.0444       51.8284     1053.3991     1105.2275    1006.183091       2.68054
   0    1013.0       98.0549       56.2400     1008.4859     1064.7259     966.670935       2.74353



 Wavenumbers:  2600. -  3250. cm-1, ATM      1
 LEVEL PRESSURE   UPWARD FLUX   DIFDOWN FLUX  DIRDOWN FLUX  DOWNWARD FLUX   NET FLUX    HEATING RATE
          mb          W/m2          W/m2          W/m2        W/m2          W/m2       degree/day
  51    .06700        0.6018        0.0000       11.9937       11.9937      11.391953       0.00000
  50    .07753        0.6018        0.0000       11.9937       11.9937      11.391945       0.00640
  49    .09103        0.6018        0.0000       11.9937       11.9937      11.391935       0.00627
  48    0.1069        0.6018        0.0000       11.9937       11.9937      11.391923       0.00613
  47    0.1255        0.6018        0.0000       11.9937       11.9937      11.391910       0.00600
  46    0.1487        0.6018        0.0000       11.9937       11.9937      11.391894       0.00608
  45    0.1794        0.6018        0.0000       11.9936       11.9936      11.391871       0.00625
  44    0.2165        0.6018        0.0000       11.9936       11.9936      11.391844       0.00613
  43    0.2613        0.6018        0.0000       11.9936       11.9936      11.391812       0.00601
  42    0.3336        0.6018        0.0000       11.9935       11.9935      11.391759       0.00619
  41    0.4307        0.6018        0.0000       11.9935       11.9935      11.391687       0.00622
  40    0.5894        0.6018        0.0000       11.9933       11.9933      11.391567       0.00640
  39     1.339        0.6018        0.0000       11.9926       11.9926      11.390851       0.00806
  38     1.782        0.6018        0.0000       11.9921       11.9921      11.390295       0.01057
  37     2.292        0.6018        0.0000       11.9913       11.9913      11.389555       0.01226
  36     2.964        0.6018        0.0000       11.9902       11.9902      11.388465       0.01368
  35     3.853        0.6018        0.0000       11.9886       11.9886      11.386881       0.01504
  34     5.035        0.6018        0.0000       11.9864       11.9864      11.384607       0.01624
  33     6.613        0.6018        0.0000       11.9832       11.9832      11.381391       0.01719
  32     8.786        0.6018        0.0000       11.9787       11.9787      11.376907       0.01741
  31     11.80        0.6018        0.0000       11.9722       11.9722      11.370435       0.01812
  30     15.07        0.6018        0.0000       11.9654       11.9654      11.363628       0.01758
  29     18.79        0.6018        0.0000       11.9581       11.9581      11.356339       0.01653
  28     23.16        0.6018        0.0000       11.9502       11.9502      11.348417       0.01532
  27     28.12        0.6018        0.0000       11.9418       11.9418      11.340080       0.01417
  26     33.73        0.6018        0.0000       11.9329       11.9329      11.331117       0.01348
  25     40.54        0.6018        0.0000       11.9222       11.9222      11.320420       0.01327
  24     48.69        0.6018        0.0000       11.9093       11.9093      11.307580       0.01329
  23     57.69        0.6018        0.0000       11.8949       11.8950      11.293185       0.01349
  22     68.43        0.6018        0.0000       11.8770       11.8771      11.275271       0.01408
  21     81.20        0.6018        0.0000       11.8544       11.8544      11.252592       0.01499
  20     96.49        0.6018        0.0000       11.8256       11.8257      11.223833       0.01587
  19     114.6        0.6019        0.0000       11.7886       11.7887      11.186801       0.01729
  18     136.5        0.6019        0.0001       11.7429       11.7430      11.141080       0.01758
  17     162.9        0.6020        0.0001       11.6869       11.6870      11.085014       0.01792
  16     196.4        0.6021        0.0001       11.6129       11.6130      11.010865       0.01866
  15     218.7        0.6022        0.0001       11.5605       11.5606      10.958323       0.01995
  14     243.0        0.6025        0.0001       11.4957       11.4958      10.893299       0.02255
  13     269.0        0.6028        0.0001       11.4130       11.4131      10.810302       0.02692
  12     297.5        0.6033        0.0001       11.3101       11.3102      10.706895       0.03067
  11     328.5        0.6041        0.0001       11.1933       11.1934      10.589294       0.03198
  10     361.9        0.6051        0.0001       11.0632       11.0633      10.458217       0.03316
   9     398.1        0.6065        0.0001       10.9149       10.9151      10.308586       0.03486
   8     437.6        0.6084        0.0002       10.7385       10.7387      10.130318       0.03811
   7     480.5        0.6109        0.0002       10.5233       10.5234       9.912466       0.04279
   6     533.0        0.6151        0.0002       10.2141       10.2142       9.599146       0.05040
   5     589.8        0.6213        0.0002        9.8147        9.8149       9.193588       0.06020
   4     651.6        0.6312        0.0002        9.2987        9.2989       8.667744       0.07191
   3     718.7        0.6468        0.0002        8.7065        8.7067       8.059910       0.07639
   2     792.3        0.6731        0.0002        8.0516        8.0518       7.378697       0.07813
   1     891.5        0.7365        0.0002        7.1628        7.1630       6.426526       0.08103
   0    1013.0        0.9167        0.0002        6.1112        6.1114       5.194658       0.08553



 Wavenumbers:  3250. -  4000. cm-1, ATM      1
 LEVEL PRESSURE   UPWARD FLUX   DIFDOWN FLUX  DIRDOWN FLUX  DOWNWARD FLUX   NET FLUX    HEATING RATE
          mb          W/m2          W/m2          W/m2        W/m2          W/m2       degree/day
  51    .06700        0.0010        0.0000       20.2197       20.2197      20.218644       0.00000
  50    .07753        0.0010        0.0000       20.2140       20.2140      20.212974       4.54406
  49    .09103        0.0010        0.0000       20.2088       20.2088      20.207744       3.26932
  48    0.1069        0.0010        0.0000       20.2043       20.2043      20.203319       2.35506
  47    0.1255        0.0010        0.0000       20.2005       20.2005      20.199440       1.75884
  46    0.1487        0.0010        0.0000       20.1965       20.1965      20.195517       1.42967
  45    0.1794        0.0010        0.0000       20.1921       20.1921      20.191075       1.21962
  44    0.2165        0.0010        0.0000       20.1875       20.1875      20.186508       1.03878
  43    0.2613        0.0010        0.0000       20.1827       20.1827      20.181669       0.91222
  42    0.3336        0.0010        0.0000       20.1757       20.1757      20.174647       0.81870
  41    0.4307        0.0010        0.0000       20.1678       20.1678      20.166753       0.68638
  40    0.5894        0.0010        0.0000       20.1571       20.1571      20.156059       0.56870
  39     1.339        0.0010        0.0000       20.1195       20.1195      20.118526       0.42255
  38     1.782        0.0010        0.0000       20.1017       20.1017      20.100694       0.33948
  37     2.292        0.0010        0.0000       20.0837       20.0837      20.082668       0.29857
  36     2.964        0.0010        0.0000       20.0629       20.0629      20.061917       0.26048
  35     3.853        0.0010        0.0000       20.0387       20.0387      20.037717       0.22966
  34     5.035        0.0010        0.0000       20.0099       20.0099      20.008875       0.20604
  33     6.613        0.0010        0.0000       19.9743       19.9743      19.973325       0.19005
  32     8.786        0.0010        0.0000       19.9279       19.9279      19.926922       0.18021
  31     11.80        0.0010        0.0000       19.8609       19.8609      19.859885       0.18768
  30     15.07        0.0010        0.0000       19.7861       19.7861      19.785091       0.19310
  29     18.79        0.0010        0.0000       19.6981       19.6981      19.697164       0.19936
  28     23.16        0.0010        0.0000       19.5924       19.5924      19.591444       0.20443
  27     28.12        0.0010        0.0000       19.4692       19.4692      19.468231       0.20945
  26     33.73        0.0010        0.0000       19.3318       19.3319      19.330907       0.20647
  25     40.54        0.0010        0.0001       19.1703       19.1704      19.169428       0.20033
  24     48.69        0.0009        0.0001       18.9874       18.9875      18.986540       0.18926
  23     57.69        0.0009        0.0001       18.8032       18.8032      18.802316       0.17268
  22     68.43        0.0009        0.0001       18.6047       18.6048      18.603908       0.15598
  21     81.20        0.0009        0.0001       18.3903       18.3904      18.389542       0.14165
  20     96.49        0.0009        0.0001       18.1531       18.1532      18.152300       0.13094
  19     114.6        0.0009        0.0001       17.8720       17.8722      17.871304       0.13121
  18     136.5        0.0008        0.0002       17.5464       17.5465      17.545702       0.12520
  17     162.9        0.0008        0.0002       17.1484       17.1486      17.147821       0.12718
  16     196.4        0.0008        0.0002       16.5656       16.5658      16.565055       0.14669
  15     218.7        0.0007        0.0002       16.0235       16.0238      16.023034       0.20579
  14     243.0        0.0007        0.0003       15.2654       15.2657      15.264938       0.26293
  13     269.0        0.0007        0.0003       14.2510       14.2513      14.250559       0.32906
  12     297.5        0.0007        0.0003       13.0349       13.0352      13.034475       0.36068
  11     328.5        0.0007        0.0003       11.8274       11.8277      11.827003       0.32831
  10     361.9        0.0006        0.0002       10.6546       10.6548      10.654159       0.29674
   9     398.1        0.0006        0.0002        9.4801        9.4803       9.479676       0.27363
   8     437.6        0.0006        0.0002        8.3186        8.3188       8.318197       0.24833
   7     480.5        0.0006        0.0002        7.2534        7.2537       7.253037       0.20919
   6     533.0        0.0006        0.0002        6.1288        6.1290       6.128361       0.18092
   5     589.8        0.0007        0.0002        5.0588        5.0590       5.058330       0.15883
   4     651.6        0.0008        0.0001        3.9729        3.9731       3.972304       0.14852
   3     718.7        0.0010        0.0001        2.9378        2.9379       2.936873       0.13013
   2     792.3        0.0016        0.0001        1.9615        1.9616       1.960006       0.11204
   1     891.5        0.0048        0.0000        0.9920        0.9920       0.987137       0.08279
   0    1013.0        0.0467        0.0000        0.3116        0.3117       0.264904       0.05015



 Wavenumbers:  4000. -  4650. cm-1, ATM      1
 LEVEL PRESSURE   UPWARD FLUX   DIFDOWN FLUX  DIRDOWN FLUX  DOWNWARD FLUX   NET FLUX    HEATING RATE
          mb          W/m2          W/m2          W/m2        W/m2          W/m2       degree/day
  51    .06700        2.2085        0.0000       23.7440       23.7440      21.535443       0.00000
  50    .07753        2.2085        0.0000       23.7440       23.7440      21.535442       0.00080
  49    .09103        2.2085        0.0000       23.7440       23.7440      21.535441       0.00078
  48    0.1069        2.2085        0.0000       23.7440       23.7440      21.535440       0.00076
  47    0.1255        2.2085        0.0000       23.7440       23.7440      21.535438       0.00075
  46    0.1487        2.2085        0.0000       23.7440       23.7440      21.535436       0.00076
  45    0.1794        2.2085        0.0000       23.7440       23.7440      21.535433       0.00078
  44    0.2165        2.2085        0.0000       23.7440       23.7440      21.535430       0.00076
  43    0.2613        2.2085        0.0000       23.7440       23.7440      21.535426       0.00075
  42    0.3336        2.2085        0.0000       23.7440       23.7440      21.535419       0.00077
  41    0.4307        2.2085        0.0000       23.7439       23.7439      21.535410       0.00077
  40    0.5894        2.2085        0.0000       23.7439       23.7439      21.535395       0.00080
  39     1.339        2.2085        0.0000       23.7438       23.7438      21.535306       0.00101
  38     1.782        2.2085        0.0000       23.7438       23.7438      21.535236       0.00133
  37     2.292        2.2085        0.0000       23.7437       23.7437      21.535142       0.00156
  36     2.964        2.2085        0.0000       23.7435       23.7435      21.535002       0.00176
  35     3.853        2.2085        0.0000       23.7433       23.7433      21.534793       0.00198
  34     5.035        2.2085        0.0000       23.7430       23.7430      21.534486       0.00220
  33     6.613        2.2085        0.0000       23.7425       23.7426      21.534033       0.00242
  32     8.786        2.2085        0.0000       23.7418       23.7419      21.533364       0.00260
  31     11.80        2.2085        0.0000       23.7408       23.7408      21.532311       0.00295
  30     15.07        2.2085        0.0001       23.7395       23.7396      21.531073       0.00320
  29     18.79        2.2085        0.0001       23.7380       23.7381      21.529571       0.00340
  28     23.16        2.2085        0.0001       23.7361       23.7362      21.527701       0.00362
  27     28.12        2.2085        0.0001       23.7338       23.7339      21.525429       0.00386
  26     33.73        2.2085        0.0001       23.7309       23.7311      21.522615       0.00423
  25     40.54        2.2085        0.0002       23.7271       23.7272      21.518780       0.00476
  24     48.69        2.2084        0.0002       23.7219       23.7221      21.513638       0.00532
  23     57.69        2.2084        0.0002       23.7157       23.7159      21.507502       0.00575
  22     68.43        2.2084        0.0003       23.7079       23.7082      21.499764       0.00608
  21     81.20        2.2085        0.0003       23.6983       23.6986      21.490160       0.00635
  20     96.49        2.2085        0.0004       23.6865       23.6869      21.478396       0.00649
  19     114.6        2.2086        0.0005       23.6717       23.6721      21.463587       0.00691
  18     136.5        2.2087        0.0005       23.6537       23.6543      21.445626       0.00691
  17     162.9        2.2088        0.0006       23.6317       23.6323      21.423499       0.00707
  16     196.4        2.2091        0.0008       23.6012       23.6020      21.392825       0.00772
  15     218.7        2.2095        0.0009       23.5777       23.5785      21.369087       0.00901
  14     243.0        2.2100        0.0010       23.5456       23.5465      21.336596       0.01127
  13     269.0        2.2107        0.0011       23.4995       23.5005      21.289819       0.01517
  12     297.5        2.2119        0.0012       23.4351       23.4363      21.224374       0.01941
  11     328.5        2.2135        0.0013       23.3555       23.3568      21.143284       0.02205
  10     361.9        2.2156        0.0014       23.2571       23.2585      21.042891       0.02540
   9     398.1        2.2183        0.0015       23.1295       23.1311      20.912749       0.03032
   8     437.6        2.2217        0.0017       22.9586       22.9603      20.738581       0.03724
   7     480.5        2.2260        0.0018       22.7369       22.7387      20.512775       0.04435
   6     533.0        2.2324        0.0020       22.4191       22.4210      20.188648       0.05214
   5     589.8        2.2414        0.0022       22.0335       22.0357      19.794292       0.05854
   4     651.6        2.2553        0.0023       21.5654       21.5677      19.312419       0.06590
   3     718.7        2.2773        0.0025       21.0164       21.0189      18.741573       0.07174
   2     792.3        2.3143        0.0026       20.2979       20.3005      17.986221       0.08663
   1     891.5        2.4026        0.0028       19.1088       19.1115      16.708933       0.10869
   0    1013.0        2.6460        0.0029       17.6373       17.6401      14.994124       0.11907



 Wavenumbers:  4650. -  5150. cm-1, ATM      1
 LEVEL PRESSURE   UPWARD FLUX   DIFDOWN FLUX  DIRDOWN FLUX  DOWNWARD FLUX   NET FLUX    HEATING RATE
          mb          W/m2          W/m2          W/m2        W/m2          W/m2       degree/day
  51    .06700        1.6062        0.0000       22.4748       22.4748      20.868617       0.00000
  50    .07753        1.6062        0.0000       22.4746       22.4746      20.868381       0.18925
  49    .09103        1.6062        0.0000       22.4743       22.4743      20.868085       0.18504
  48    0.1069        1.6062        0.0000       22.4739       22.4739      20.867745       0.18064
  47    0.1255        1.6062        0.0000       22.4735       22.4735      20.867357       0.17622
  46    0.1487        1.6062        0.0000       22.4730       22.4730      20.866868       0.17814
  45    0.1794        1.6062        0.0000       22.4724       22.4724      20.866204       0.18241
  44    0.2165        1.6062        0.0000       22.4716       22.4716      20.865422       0.17785
  43    0.2613        1.6062        0.0000       22.4707       22.4707      20.864502       0.17328
  42    0.3336        1.6062        0.0000       22.4692       22.4692      20.862997       0.17553
  41    0.4307        1.6062        0.0000       22.4672       22.4672      20.861029       0.17112
  40    0.5894        1.6062        0.0000       22.4641       22.4641      20.857883       0.16731
  39     1.339        1.6062        0.0000       22.4502       22.4502      20.844050       0.15574
  38     1.782        1.6062        0.0000       22.4428       22.4428      20.836678       0.14034
  37     2.292        1.6062        0.0000       22.4349       22.4350      20.828791       0.13062
  36     2.964        1.6062        0.0000       22.4255       22.4255      20.819362       0.11837
  35     3.853        1.6062        0.0000       22.4145       22.4145      20.808346       0.10455
  34     5.035        1.6062        0.0000       22.4019       22.4020      20.795795       0.08965
  33     6.613        1.6062        0.0000       22.3880       22.3881      20.781934       0.07410
  32     8.786        1.6061        0.0001       22.3731       22.3731      20.766978       0.05808
  31     11.80        1.6061        0.0001       22.3562       22.3563      20.750173       0.04705
  30     15.07        1.6061        0.0001       22.3413       22.3414      20.735244       0.03854
  29     18.79        1.6061        0.0001       22.3259       22.3260      20.719872       0.03485
  28     23.16        1.6061        0.0001       22.3082       22.3083      20.702159       0.03425
  27     28.12        1.6061        0.0002       22.2870       22.2872      20.681034       0.03591
  26     33.73        1.6062        0.0002       22.2617       22.2619      20.655716       0.03807
  25     40.54        1.6062        0.0002       22.2285       22.2287      20.622562       0.04113
  24     48.69        1.6062        0.0003       22.1852       22.1855      20.579252       0.04482
  23     57.69        1.6063        0.0003       22.1340       22.1344      20.528122       0.04793
  22     68.43        1.6064        0.0004       22.0694       22.0698      20.463461       0.05083
  21     81.20        1.6065        0.0005       21.9886       21.9891      20.382617       0.05342
  20     96.49        1.6067        0.0006       21.8895       21.8901      20.283396       0.05476
  19     114.6        1.6070        0.0007       21.7708       21.7715      20.164547       0.05549
  18     136.5        1.6074        0.0008       21.6320       21.6328      20.025469       0.05348
  17     162.9        1.6079        0.0009       21.4726       21.4735      19.865578       0.05111
  16     196.4        1.6088        0.0011       21.2786       21.2797      19.670895       0.04900
  15     218.7        1.6095        0.0012       21.1582       21.1595      19.549921       0.04593
  14     243.0        1.6105        0.0014       21.0313       21.0326      19.422141       0.04432
  13     269.0        1.6118        0.0015       20.8948       20.8963      19.284452       0.04467
  12     297.5        1.6137        0.0016       20.7434       20.7450      19.131357       0.04541
  11     328.5        1.6162        0.0018       20.5767       20.5785      18.962295       0.04597
  10     361.9        1.6194        0.0020       20.3907       20.3927      18.773327       0.04781
   9     398.1        1.6236        0.0021       20.1791       20.1812      18.557635       0.05025
   8     437.6        1.6291        0.0023       19.9341       19.9365      18.307380       0.05351
   7     480.5        1.6362        0.0025       19.6480       19.6505      18.014286       0.05756
   6     533.0        1.6471        0.0027       19.2600       19.2627      17.615561       0.06414
   5     589.8        1.6622        0.0029       18.7890       18.7919      17.129666       0.07212
   4     651.6        1.6844        0.0031       18.1977       18.2008      16.516360       0.08387
   3     718.7        1.7175        0.0032       17.4829       17.4861      15.768533       0.09398
   2     792.3        1.7688        0.0034       16.6464       16.6498      14.881024       0.10179
   1     891.5        1.8795        0.0035       15.4816       15.4851      13.605625       0.10853
   0    1013.0        2.1284        0.0036       14.1857       14.1894      12.060956       0.10725



 Wavenumbers:  5150. -  6150. cm-1, ATM      1
 LEVEL PRESSURE   UPWARD FLUX   DIFDOWN FLUX  DIRDOWN FLUX  DOWNWARD FLUX   NET FLUX    HEATING RATE
          mb          W/m2          W/m2          W/m2        W/m2          W/m2       degree/day
  51    .06700        3.8495        0.0000       56.3444       56.3444      52.494921       0.00000
  50    .07753        3.8495        0.0000       56.3444       56.3444      52.494882       0.03157
  49    .09103        3.8495        0.0000       56.3443       56.3443      52.494831       0.03206
  48    0.1069        3.8495        0.0000       56.3442       56.3442      52.494770       0.03258
  47    0.1255        3.8495        0.0000       56.3442       56.3442      52.494697       0.03308
  46    0.1487        3.8495        0.0000       56.3441       56.3441      52.494601       0.03486
  45    0.1794        3.8495        0.0000       56.3439       56.3439      52.494466       0.03711
  44    0.2165        3.8495        0.0000       56.3438       56.3438      52.494300       0.03769
  43    0.2613        3.8495        0.0000       56.3436       56.3436      52.494097       0.03828
  42    0.3336        3.8495        0.0000       56.3432       56.3432      52.493750       0.04047
  41    0.4307        3.8495        0.0000       56.3427       56.3427      52.493278       0.04105
  40    0.5894        3.8495        0.0000       56.3419       56.3420      52.492486       0.04211
  39     1.339        3.8495        0.0000       56.3381       56.3381      52.488654       0.04314
  38     1.782        3.8494        0.0000       56.3358       56.3359      52.486409       0.04273
  37     2.292        3.8494        0.0001       56.3332       56.3333      52.483858       0.04226
  36     2.964        3.8494        0.0001       56.3299       56.3300      52.480597       0.04093
  35     3.853        3.8494        0.0001       56.3257       56.3258      52.476424       0.03961
  34     5.035        3.8494        0.0001       56.3203       56.3204      52.470999       0.03875
  33     6.613        3.8494        0.0002       56.3131       56.3132      52.463875       0.03809
  32     8.786        3.8493        0.0002       56.3036       56.3038      52.454493       0.03643
  31     11.80        3.8493        0.0003       56.2905       56.2908      52.441529       0.03630
  30     15.07        3.8493        0.0004       56.2770       56.2774      52.428198       0.03442
  29     18.79        3.8492        0.0005       56.2626       56.2631      52.413896       0.03243
  28     23.16        3.8492        0.0006       56.2466       56.2472      52.398049       0.03064
  27     28.12        3.8491        0.0008       56.2292       56.2300      52.380869       0.02920
  26     33.73        3.8490        0.0009       56.2110       56.2120      52.362903       0.02701
  25     40.54        3.8490        0.0011       56.1906       56.1917      52.342722       0.02504
  24     48.69        3.8489        0.0013       56.1681       56.1694      52.320494       0.02300
  23     57.69        3.8489        0.0016       56.1451       56.1467      52.297810       0.02126
  22     68.43        3.8489        0.0019       56.1195       56.1214      52.272545       0.01986
  21     81.20        3.8488        0.0022       56.0907       56.0929      52.244040       0.01884
  20     96.49        3.8488        0.0026       56.0573       56.0599      52.211136       0.01816
  19     114.6        3.8488        0.0031       56.0182       56.0214      52.172602       0.01799
  18     136.5        3.8487        0.0037       55.9719       55.9756      52.126846       0.01759
  17     162.9        3.8487        0.0044       55.9013       55.9056      52.056926       0.02235
  16     196.4        3.8487        0.0053       55.7479       55.7532      51.904435       0.03838
  15     218.7        3.8488        0.0059       55.5243       55.5302      51.681386       0.08468
  14     243.0        3.8489        0.0064       55.1190       55.1254      51.276556       0.14041
  13     269.0        3.8491        0.0070       54.3924       54.3994      50.550300       0.23559
  12     297.5        3.8495        0.0076       53.2527       53.2603      49.410828       0.33796
  11     328.5        3.8500        0.0081       51.9857       51.9938      48.143821       0.34450
  10     361.9        3.8508        0.0087       50.6721       50.6808      46.829940       0.33242
   9     398.1        3.8520        0.0092       49.1893       49.1985      45.346569       0.34559
   8     437.6        3.8536        0.0097       47.4187       47.4284      43.574830       0.37881
   7     480.5        3.8559        0.0102       45.4500       45.4602      41.604256       0.38701
   6     533.0        3.8599        0.0107       43.0596       43.0703      39.210442       0.38509
   5     589.8        3.8663        0.0112       40.5463       40.5575      36.691167       0.37394
   4     651.6        3.8780        0.0117       37.8928       37.9046      34.026586       0.36439
   3     718.7        3.8988        0.0123       35.4719       35.4842      31.585410       0.30679
   2     792.3        3.9382        0.0129       33.4066       33.4195      29.481316       0.24132
   1     891.5        4.0463        0.0137       31.3475       31.3612      27.314965       0.18435
   0    1013.0        4.3944        0.0146       29.2817       29.2962      24.901791       0.16756



 Wavenumbers:  6150. -  7700. cm-1, ATM      1
 LEVEL PRESSURE   UPWARD FLUX   DIFDOWN FLUX  DIRDOWN FLUX  DOWNWARD FLUX   NET FLUX    HEATING RATE
          mb          W/m2          W/m2          W/m2        W/m2          W/m2       degree/day
  51    .06700        5.8642        0.0000      104.2111      104.2111      98.346882       0.00000
  50    .07753        5.8642        0.0000      104.2111      104.2111      98.346825       0.04554
  49    .09103        5.8642        0.0000      104.2110      104.2110      98.346752       0.04583
  48    0.1069        5.8642        0.0000      104.2109      104.2109      98.346665       0.04615
  47    0.1255        5.8642        0.0000      104.2108      104.2108      98.346563       0.04646
  46    0.1487        5.8642        0.0000      104.2107      104.2107      98.346430       0.04854
  45    0.1794        5.8642        0.0000      104.2105      104.2105      98.346243       0.05129
  44    0.2165        5.8642        0.0000      104.2102      104.2102      98.346015       0.05171
  43    0.2613        5.8642        0.0000      104.2099      104.2100      98.345739       0.05215
  42    0.3336        5.8642        0.0000      104.2095      104.2095      98.345269       0.05478
  41    0.4307        5.8642        0.0000      104.2088      104.2088      98.344633       0.05531
  40    0.5894        5.8642        0.0001      104.2077      104.2078      98.343571       0.05648
  39     1.339        5.8641        0.0001      104.2024      104.2026      98.338451       0.05764
  38     1.782        5.8641        0.0002      104.1993      104.1995      98.335453       0.05707
  37     2.292        5.8640        0.0003      104.1958      104.1961      98.332036       0.05659
  36     2.964        5.8640        0.0003      104.1913      104.1916      98.327650       0.05506
  35     3.853        5.8639        0.0004      104.1854      104.1859      98.322002       0.05360
  34     5.035        5.8638        0.0006      104.1778      104.1784      98.314631       0.05266
  33     6.613        5.8636        0.0007      104.1678      104.1685      98.304918       0.05193
  32     8.786        5.8634        0.0010      104.1545      104.1555      98.292061       0.04993
  31     11.80        5.8631        0.0013      104.1359      104.1373      98.274146       0.05016
  30     15.07        5.8628        0.0017      104.1166      104.1183      98.255525       0.04808
  29     18.79        5.8625        0.0021      104.0956      104.0977      98.235282       0.04590
  28     23.16        5.8620        0.0026      104.0720      104.0746      98.212535       0.04398
  27     28.12        5.8616        0.0032      104.0459      104.0491      98.187515       0.04253
  26     33.73        5.8610        0.0038      104.0181      104.0219      98.160903       0.04001
  25     40.54        5.8604        0.0046      103.9863      103.9909      98.130493       0.03773
  24     48.69        5.8596        0.0055      103.9504      103.9559      98.096274       0.03541
  23     57.69        5.8588        0.0065      103.9130      103.9195      98.060740       0.03331
  22     68.43        5.8578        0.0077      103.8705      103.8783      98.020506       0.03163
  21     81.20        5.8566        0.0092      103.8219      103.8310      97.974474       0.03042
  20     96.49        5.8551        0.0109      103.7651      103.7760      97.920891       0.02957
  19     114.6        5.8534        0.0129      103.6981      103.7111      97.857661       0.02952
  18     136.5        5.8514        0.0154      103.6182      103.6335      97.782157       0.02903
  17     162.9        5.8490        0.0183      103.5018      103.5200      97.671066       0.03551
  16     196.4        5.8458        0.0220      103.2601      103.2820      97.436188       0.05912
  15     218.7        5.8439        0.0244      102.9097      102.9341      97.090204       0.13136
  14     243.0        5.8418        0.0268      102.2732      102.3001      96.458278       0.21917
  13     269.0        5.8398        0.0294      101.2641      101.2935      95.453701       0.32588
  12     297.5        5.8379        0.0318       99.6695       99.7013      93.863373       0.47167
  11     328.5        5.8363        0.0342       97.6082       97.6424      91.806117       0.55936
  10     361.9        5.8352        0.0367       95.2483       95.2849      89.449762       0.59618
   9     398.1        5.8347        0.0391       92.6564       92.6954      86.860705       0.60319
   8     437.6        5.8355        0.0413       89.7047       89.7459      83.910426       0.63079
   7     480.5        5.8381        0.0433       86.3265       86.3698      80.531710       0.66357
   6     533.0        5.8446        0.0454       81.9787       82.0242      76.179554       0.70012
   5     589.8        5.8578        0.0472       77.1953       77.2425      71.384655       0.71172
   4     651.6        5.8854        0.0485       71.7796       71.8282      65.942797       0.74419
   3     718.7        5.9377        0.0495       66.2294       66.2789      60.341189       0.70397
   2     792.3        6.0394        0.0502       60.7106       60.7609      54.721491       0.64452
   1     891.5        6.3154        0.0509       54.2338       54.2846      47.969278       0.57458
   0    1013.0        7.2075        0.0517       47.9982       48.0499      40.842396       0.49486



 Wavenumbers:  7700. -  8050. cm-1, ATM      1
 LEVEL PRESSURE   UPWARD FLUX   DIFDOWN FLUX  DIRDOWN FLUX  DOWNWARD FLUX   NET FLUX    HEATING RATE
          mb          W/m2          W/m2          W/m2        W/m2          W/m2       degree/day
  51    .06700        3.0974        0.0000       24.6282       24.6282      21.530751       0.00000
  50    .07753        3.0974        0.0000       24.6282       24.6282      21.530731       0.01599
  49    .09103        3.0974        0.0000       24.6281       24.6281      21.530706       0.01567
  48    0.1069        3.0974        0.0000       24.6281       24.6281      21.530678       0.01534
  47    0.1255        3.0974        0.0000       24.6281       24.6281      21.530644       0.01501
  46    0.1487        3.0975        0.0000       24.6280       24.6281      21.530603       0.01523
  45    0.1794        3.0975        0.0000       24.6280       24.6280      21.530545       0.01568
  44    0.2165        3.0975        0.0000       24.6279       24.6279      21.530478       0.01538
  43    0.2613        3.0975        0.0000       24.6279       24.6279      21.530398       0.01509
  42    0.3336        3.0975        0.0000       24.6277       24.6277      21.530265       0.01544
  41    0.4307        3.0975        0.0000       24.6276       24.6276      21.530090       0.01527
  40    0.5894        3.0975        0.0000       24.6273       24.6273      21.529803       0.01526
  39     1.339        3.0977        0.0001       24.6260       24.6261      21.528445       0.01528
  38     1.782        3.0977        0.0001       24.6253       24.6254      21.527648       0.01518
  37     2.292        3.0978        0.0001       24.6244       24.6245      21.526724       0.01529
  36     2.964        3.0979        0.0001       24.6233       24.6234      21.525512       0.01522
  35     3.853        3.0981        0.0002       24.6218       24.6220      21.523910       0.01521
  34     5.035        3.0983        0.0002       24.6198       24.6201      21.521780       0.01521
  33     6.613        3.0985        0.0003       24.6172       24.6175      21.518935       0.01521
  32     8.786        3.0989        0.0004       24.6136       24.6140      21.515100       0.01489
  31     11.80        3.0994        0.0006       24.6085       24.6090      21.509613       0.01536
  30     15.07        3.1000        0.0007       24.6030       24.6037      21.503719       0.01522
  29     18.79        3.1006        0.0009       24.5968       24.5977      21.497061       0.01510
  28     23.16        3.1014        0.0011       24.5895       24.5906      21.489284       0.01504
  27     28.12        3.1022        0.0014       24.5812       24.5826      21.480390       0.01512
  26     33.73        3.1032        0.0016       24.5720       24.5736      21.470440       0.01496
  25     40.54        3.1043        0.0019       24.5608       24.5627      21.458422       0.01491
  24     48.69        3.1057        0.0023       24.5473       24.5497      21.443942       0.01498
  23     57.69        3.1073        0.0028       24.5326       24.5353      21.428048       0.01490
  22     68.43        3.1091        0.0033       24.5150       24.5183      21.409139       0.01487
  21     81.20        3.1114        0.0039       24.4941       24.4980      21.386641       0.01487
  20     96.49        3.1141        0.0046       24.4694       24.4740      21.359879       0.01477
  19     114.6        3.1173        0.0055       24.4400       24.4455      21.328173       0.01480
  18     136.5        3.1212        0.0065       24.4054       24.4119      21.290690       0.01441
  17     162.9        3.1259        0.0077       24.3644       24.3721      21.246191       0.01422
  16     196.4        3.1322        0.0093       24.3116       24.3209      21.188694       0.01447
  15     218.7        3.1364        0.0103       24.2771       24.2874      21.151035       0.01430
  14     243.0        3.1410        0.0114       24.2397       24.2511      21.110147       0.01418
  13     269.0        3.1461        0.0127       24.1993       24.2119      21.065825       0.01438
  12     297.5        3.1518        0.0140       24.1556       24.1696      21.017814       0.01424
  11     328.5        3.1580        0.0154       24.1084       24.1238      20.965761       0.01415
  10     361.9        3.1650        0.0169       24.0575       24.0745      20.909411       0.01426
   9     398.1        3.1729        0.0185       24.0026       24.0211      20.848239       0.01425
   8     437.6        3.1817        0.0203       23.9430       23.9633      20.781627       0.01424
   7     480.5        3.1916        0.0222       23.8783       23.9005      20.708943       0.01427
   6     533.0        3.2046        0.0245       23.7972       23.8217      20.617135       0.01477
   5     589.8        3.2199        0.0270       23.7068       23.7338      20.513963       0.01531
   4     651.6        3.2384        0.0297       23.6034       23.6331      20.394746       0.01630
   3     718.7        3.2613        0.0325       23.4831       23.5156      20.254341       0.01765
   2     792.3        3.2908        0.0356       23.3388       23.3744      20.083566       0.01959
   1     891.5        3.3417        0.0395       23.1128       23.1523      19.810571       0.02323
   0    1013.0        3.4252        0.0441       22.7908       22.8349      19.409638       0.02784



 Wavenumbers:  8050. - 12850. cm-1, ATM      1
 LEVEL PRESSURE   UPWARD FLUX   DIFDOWN FLUX  DIRDOWN FLUX  DOWNWARD FLUX   NET FLUX    HEATING RATE
          mb          W/m2          W/m2          W/m2        W/m2          W/m2       degree/day
  51    .06700       38.1292        0.0000      344.8128      344.8128     306.683596       0.00000
  50    .07753       38.1292        0.0000      344.8128      344.8128     306.683596       0.00000
  49    .09103       38.1292        0.0001      344.8127      344.8128     306.683596       0.00000
  48    0.1069       38.1292        0.0001      344.8127      344.8128     306.683596       0.00000
  47    0.1255       38.1291        0.0001      344.8126      344.8127     306.683596      -0.00000
  46    0.1487       38.1291        0.0002      344.8125      344.8127     306.683596       0.00000
  45    0.1794       38.1291        0.0003      344.8124      344.8126     306.683596       0.00000
  44    0.2165       38.1290        0.0004      344.8122      344.8126     306.683596       0.00000
  43    0.2613       38.1289        0.0005      344.8121      344.8125     306.683596      -0.00000
  42    0.3336       38.1288        0.0006      344.8118      344.8124     306.683596       0.00000
  41    0.4307       38.1286        0.0008      344.8114      344.8122     306.683596       0.00000
  40    0.5894       38.1284        0.0012      344.8108      344.8120     306.683596       0.00000
  39     1.339       38.1272        0.0030      344.8078      344.8108     306.683596      -0.00000
  38     1.782       38.1265        0.0040      344.8061      344.8101     306.683596       0.00000
  37     2.292       38.1256        0.0052      344.8041      344.8092     306.683596       0.00000
  36     2.964       38.1245        0.0067      344.8014      344.8081     306.683596      -0.00000
  35     3.853       38.1231        0.0088      344.7979      344.8067     306.683596       0.00000
  34     5.035       38.1212        0.0115      344.7933      344.8048     306.683596       0.00000
  33     6.613       38.1186        0.0152      344.7871      344.8022     306.683596       0.00000
  32     8.786       38.1152        0.0201      344.7787      344.7988     306.683596      -0.00000
  31     11.80       38.1103        0.0271      344.7667      344.7939     306.683596      -0.00000
  30     15.07       38.1050        0.0347      344.7539      344.7886     306.683596       0.00000
  29     18.79       38.0990        0.0433      344.7393      344.7826     306.683596       0.00000
  28     23.16       38.0920        0.0533      344.7223      344.7756     306.683596       0.00000
  27     28.12       38.0840        0.0648      344.7028      344.7676     306.683596       0.00000
  26     33.73       38.0750        0.0777      344.6809      344.7586     306.683596       0.00000
  25     40.54       38.0641        0.0932      344.6545      344.7477     306.683596       0.00000
  24     48.69       38.0510        0.1120      344.6225      344.7346     306.683596       0.00000
  23     57.69       38.0365        0.1327      344.5874      344.7201     306.683596       0.00000
  22     68.43       38.0192        0.1573      344.5455      344.7028     306.683596       0.00000
  21     81.20       37.9987        0.1868      344.4955      344.6822     306.683596      -0.00000
  20     96.49       37.9741        0.2219      344.4358      344.6576     306.683596       0.00000
  19     114.6       37.9449        0.2637      344.3587      344.6223     306.677472       0.00286
  18     136.5       37.9102        0.3133      344.2667      344.5800     306.669845       0.00293
  17     162.9       37.8687        0.3726      344.1533      344.5258     306.657103       0.00407
  16     196.4       37.8148        0.4496      343.9892      344.4388     306.624032       0.00832
  15     218.7       37.7794        0.5003      343.8402      344.3405     306.561077       0.02390
  14     243.0       37.7411        0.5553      343.5933      344.1486     306.407501       0.05327
  13     269.0       37.7002        0.6148      343.1662      343.7810     306.080770       0.10599
  12     297.5       37.6572        0.6789      342.4819      343.1607     305.503549       0.17120
  11     328.5       37.6122        0.7478      341.5922      342.3400     304.727854       0.21091
  10     361.9       37.5658        0.8218      340.5080      341.3298     303.763947       0.24388
   9     398.1       37.5193        0.9009      339.1885      340.0894     302.570060       0.27815
   8     437.6       37.4748        0.9848      337.5272      338.5120     301.037214       0.32773
   7     480.5       37.4348        1.0734      335.4327      336.5062     299.071345       0.38609
   6     533.0       37.4001        1.1803      332.3652      333.5455     296.145362       0.47070
   5     589.8       37.3894        1.2918      328.3420      329.6338     292.244436       0.57903
   4     651.6       37.4342        1.4049      322.7671      324.1721     286.737931       0.75303
   3     718.7       37.5762        1.5187      315.5619      317.0806     279.504387       0.90906
   2     792.3       37.9104        1.6300      306.5104      308.1404     270.229978       1.06367
   1     891.5       38.8804        1.7625      292.9732      294.7357     255.855365       1.22321
   0    1013.0       41.7314        1.9021      276.3074      278.2095     236.478071       1.34546



 Wavenumbers: 12850. - 16000. cm-1, ATM      1
 LEVEL PRESSURE   UPWARD FLUX   DIFDOWN FLUX  DIRDOWN FLUX  DOWNWARD FLUX   NET FLUX    HEATING RATE
          mb          W/m2          W/m2          W/m2        W/m2          W/m2       degree/day
  51    .06700       13.4793        0.0000      216.0557      216.0557     202.576381       0.00000
  50    .07753       13.4793        0.0001      216.0548      216.0549     202.575602       0.62434
  49    .09103       13.4792        0.0001      216.0538      216.0539     202.574621       0.61312
  48    0.1069       13.4792        0.0002      216.0525      216.0527     202.573490       0.60177
  47    0.1255       13.4791        0.0003      216.0510      216.0513     202.572187       0.59072
  46    0.1487       13.4791        0.0004      216.0492      216.0496     202.570537       0.60160
  45    0.1794       13.4790        0.0005      216.0467      216.0472     202.568278       0.61999
  44    0.2165       13.4788        0.0007      216.0438      216.0444     202.565603       0.60872
  43    0.2613       13.4787        0.0009      216.0403      216.0411     202.562431       0.59789
  42    0.3336       13.4785        0.0012      216.0345      216.0357     202.557194       0.61052
  41    0.4307       13.4782        0.0017      216.0269      216.0286     202.550311       0.59847
  40    0.5894       13.4778        0.0024      216.0146      216.0170     202.539196       0.59107
  39     1.339       13.4765        0.0058      215.9584      215.9642     202.487701       0.57975
  38     1.782       13.4760        0.0078      215.9258      215.9337     202.457611       0.57286
  37     2.292       13.4759        0.0102      215.8879      215.8981     202.422150       0.58733
  36     2.964       13.4763        0.0132      215.8370      215.8502     202.373913       0.60551
  35     3.853       13.4776        0.0172      215.7678      215.7851     202.307471       0.63055
  34     5.035       13.4801        0.0226      215.6752      215.6978     202.217720       0.64114
  33     6.613       13.4838        0.0297      215.5548      215.5845     202.100702       0.62558
  32     8.786       13.4884        0.0394      215.4027      215.4420     201.953623       0.57120
  31     11.80       13.4934        0.0531      215.2043      215.2574     201.763986       0.53093
  30     15.07       13.4970        0.0679      215.0098      215.0777     201.580708       0.47319
  29     18.79       13.4994        0.0845      214.8056      214.8901     201.390701       0.43080
  28     23.16       13.5004        0.1040      214.5841      214.6881     201.187683       0.39257
  27     28.12       13.4993        0.1262      214.3504      214.4765     200.977218       0.35777
  26     33.73       13.4950        0.1510      214.1164      214.2674     200.772392       0.30796
  25     40.54       13.4863        0.1810      213.8655      214.0465     200.560292       0.26313
  24     48.69       13.4722        0.2172      213.5943      213.8115     200.339325       0.22867
  23     57.69       13.4534        0.2570      213.3269      213.5839     200.130528       0.19572
  22     68.43       13.4273        0.3044      213.0419      213.3463     199.918993       0.16629
  21     81.20       13.3913        0.3609      212.7488      213.1098     199.718431       0.13253
  20     96.49       13.3438        0.4284      212.4447      212.8731     199.529267       0.10441
  19     114.6       13.2867        0.5087      212.1101      212.6188     199.332120       0.09205
  18     136.5       13.2169        0.6039      211.7382      212.3421     199.125241       0.07955
  17     162.9       13.1318        0.7172      211.3198      212.0370     198.905238       0.07032
  16     196.4       13.0174        0.8642      210.8156      211.6798     198.662420       0.06112
  15     218.7       12.9407        0.9607      210.4965      211.4572     198.516517       0.05539
  14     243.0       12.8565        1.0656      210.1519      211.2175     198.361009       0.05394
  13     269.0       12.7645        1.1791      209.7781      210.9572     198.192708       0.05460
  12     297.5       12.6644        1.3018      209.3683      210.6701     198.005742       0.05545
  11     328.5       12.5558        1.4342      208.9170      210.3512     197.795444       0.05718
  10     361.9       12.4385        1.5766      208.4189      209.9956     197.557067       0.06031
   9     398.1       12.3121        1.7297      207.8679      209.5976     197.285571       0.06325
   8     437.6       12.1764        1.8938      207.2544      209.1482     196.971795       0.06709
   7     480.5       12.0313        2.0693      206.5713      208.6405     196.609245       0.07120
   6     533.0       11.8538        2.2844      205.6883      207.9728     196.119012       0.07886
   5     589.8       11.6650        2.5150      204.6670      207.1819     195.516894       0.08937
   4     651.6       11.4689        2.7599      203.4324      206.1923     194.723408       0.10851
   3     718.7       11.2678        3.0183      201.9561      204.9744     193.706672       0.12778
   2     792.3       11.0711        3.2871      200.1346      203.4218     192.350625       0.15552
   1     891.5       10.8526        3.6340      197.2502      200.8842     190.031641       0.19733
   0    1013.0       10.6941        4.0272      193.2807      197.3079     186.613786       0.23732



 Wavenumbers: 16000. - 22650. cm-1, ATM      1
 LEVEL PRESSURE   UPWARD FLUX   DIFDOWN FLUX  DIRDOWN FLUX  DOWNWARD FLUX   NET FLUX    HEATING RATE
          mb          W/m2          W/m2          W/m2        W/m2          W/m2       degree/day
  51    .06700       34.7044        0.0000      344.4769      344.4769     309.772489       0.00000
  50    .07753       34.7042        0.0003      344.4763      344.4766     309.772392       0.07822
  49    .09103       34.7040        0.0006      344.4756      344.4763     309.772250       0.08872
  48    0.1069       34.7037        0.0010      344.4748      344.4758     309.772060       0.10117
  47    0.1255       34.7034        0.0015      344.4737      344.4752     309.771805       0.11532
  46    0.1487       34.7031        0.0021      344.4724      344.4745     309.771430       0.13666
  45    0.1794       34.7026        0.0029      344.4705      344.4734     309.770844       0.16090
  44    0.2165       34.7020        0.0039      344.4682      344.4720     309.770049       0.18084
  43    0.2613       34.7013        0.0050      344.4653      344.4703     309.768971       0.20330
  42    0.3336       34.7003        0.0069      344.4603      344.4672     309.766920       0.23908
  41    0.4307       34.6989        0.0094      344.4534      344.4628     309.763829       0.26875
  40    0.5894       34.6969        0.0135      344.4414      344.4548     309.757934       0.31348
  39     1.339       34.6894        0.0327      344.3711      344.4038     309.714383       0.49031
  38     1.782       34.6867        0.0440      344.3200      344.3640     309.677283       0.70632
  37     2.292       34.6852        0.0571      344.2517      344.3088     309.623583       0.88942
  36     2.964       34.6857        0.0743      344.1480      344.2223     309.536592       1.09199
  35     3.853       34.6897        0.0970      343.9913      344.0883     309.398570       1.30985
  34     5.035       34.6984        0.1271      343.7640      343.8911     309.192679       1.47080
  33     6.613       34.7118        0.1673      343.4511      343.6184     308.906602       1.52937
  32     8.786       34.7279        0.2213      343.0410      343.2624     308.534444       1.44533
  31     11.80       34.7442        0.2986      342.4947      342.7933     308.049039       1.35898
  30     15.07       34.7538        0.3814      341.9547      342.3361     307.582278       1.20509
  29     18.79       34.7575        0.4748      341.3868      341.8616     307.104087       1.08421
  28     23.16       34.7536        0.5837      340.7717      341.3555     306.601853       0.97116
  27     28.12       34.7395        0.7081      340.1241      340.8322     306.092748       0.86544
  26     33.73       34.7100        0.8472      339.4775      340.3247     305.614783       0.71863
  25     40.54       34.6584        1.0151      338.7859      339.8010     305.142619       0.58577
  24     48.69       34.5807        1.2173      338.0389      339.2562     304.675418       0.48348
  23     57.69       34.4804        1.4391      337.3015      338.7407     304.260252       0.38916
  22     68.43       34.3447        1.7031      336.5123      338.2154     303.870729       0.30622
  21     81.20       34.1608        2.0174      335.6921      337.7095     303.548672       0.21281
  20     96.49       33.9211        2.3915      334.8256      337.2171     303.296065       0.13942
  19     114.6       33.6251        2.8345      333.8560      336.6906     303.065491       0.10766
  18     136.5       33.2655        3.3577      332.7466      336.1043     302.838788       0.08717
  17     162.9       32.8284        3.9778      331.4625      335.4403     302.611839       0.07254
  16     196.4       32.2444        4.7780      329.8743      334.6523     302.407870       0.05134
  15     218.7       31.8535        5.3009      328.8601      334.1610     302.307442       0.03813
  14     243.0       31.4242        5.8669      327.7715      333.6384     302.214183       0.03235
  13     269.0       30.9539        6.4775      326.6061      333.0836     302.129620       0.02743
  12     297.5       30.4404        7.1340      325.3603      332.4943     302.053938       0.02245
  11     328.5       29.8806        7.8396      324.0212      331.8608     301.980169       0.02006
  10     361.9       29.2723        8.5948      322.5859      331.1807     301.908357       0.01817
   9     398.1       28.6115        9.4024      321.0470      330.4494     301.837835       0.01643
   8     437.6       27.8951       10.2637      319.3978      329.6615     301.766426       0.01527
   7     480.5       27.1193       11.1801      317.6330      328.8131     301.693816       0.01426
   6     533.0       26.1532       12.2984      315.4613      327.7597     301.606517       0.01404
   5     589.8       25.0981       13.4918      313.1151      326.6069     301.508788       0.01451
   4     651.6       23.9483       14.7610      310.5763      325.3372     301.388941       0.01639
   3     718.7       22.6965       16.1061      307.8270      323.9331     301.236620       0.01914
   2     792.3       21.3378       17.5246      304.8404      322.3650     301.027244       0.02401
   1     891.5       19.4753       19.4002      300.7148      320.1150     300.639690       0.03298
   0    1013.0       17.1934       21.5905      295.6311      317.2216     300.028174       0.04246



 Wavenumbers: 22650. - 29000. cm-1, ATM      1
 LEVEL PRESSURE   UPWARD FLUX   DIFDOWN FLUX  DIRDOWN FLUX  DOWNWARD FLUX   NET FLUX    HEATING RATE
          mb          W/m2          W/m2          W/m2        W/m2          W/m2       degree/day
  51    .06700       25.5681        0.0000      129.9930      129.9930     104.424973       0.00000
  50    .07753       25.5679        0.0004      129.9925      129.9929     104.424973      -0.00000
  49    .09103       25.5676        0.0008      129.9918      129.9926     104.424973       0.00000
  48    0.1069       25.5674        0.0013      129.9910      129.9923     104.424973       0.00000
  47    0.1255       25.5671        0.0019      129.9901      129.9920     104.424973       0.00000
  46    0.1487       25.5667        0.0027      129.9889      129.9916     104.424973       0.00000
  45    0.1794       25.5661        0.0037      129.9874      129.9911     104.424973      -0.00000
  44    0.2165       25.5655        0.0050      129.9855      129.9904     104.424973       0.00000
  43    0.2613       25.5647        0.0064      129.9833      129.9897     104.424973       0.00000
  42    0.3336       25.5634        0.0088      129.9796      129.9884     104.424973      -0.00000
  41    0.4307       25.5618        0.0120      129.9747      129.9867     104.424973       0.00000
  40    0.5894       25.5590        0.0172      129.9668      129.9840     104.424973       0.00000
  39     1.339       25.5461        0.0418      129.9292      129.9710     104.424973       0.00000
  38     1.782       25.5384        0.0563      129.9071      129.9634     104.424973       0.00000
  37     2.292       25.5296        0.0731      129.8815      129.9546     104.424973      -0.00000
  36     2.964       25.5180        0.0950      129.8480      129.9430     104.424973       0.00000
  35     3.853       25.5027        0.1241      129.8036      129.9277     104.424973       0.00000
  34     5.035       25.4824        0.1626      129.7447      129.9073     104.424973      -0.00000
  33     6.613       25.4551        0.2141      129.6660      129.8801     104.424973       0.00000
  32     8.786       25.4184        0.2834      129.5599      129.8433     104.424973       0.00000
  31     11.80       25.3657        0.3825      129.4082      129.7907     104.424973       0.00000
  30     15.07       25.3090        0.4887      129.2453      129.7340     104.424973      -0.00000
  29     18.79       25.2449        0.6085      129.0613      129.6698     104.424973       0.00000
  28     23.16       25.1697        0.7482      128.8465      129.5947     104.424973       0.00000
  27     28.12       25.0836        0.9075      128.6010      129.5086     104.424973       0.00000
  26     33.73       24.9869        1.0853      128.3266      129.4119     104.424973      -0.00000
  25     40.54       24.8697        1.2994      127.9953      129.2947     104.424973       0.00000
  24     48.69       24.7279        1.5563      127.5965      129.1528     104.424973       0.00000
  23     57.69       24.5714        1.8371      127.1593      128.9964     104.424973       0.00000
  22     68.43       24.3842        2.1695      126.6397      128.8091     104.424973      -0.00000
  21     81.20       24.1599        2.5625      126.0224      128.5849     104.424973       0.00000
  20     96.49       23.8910        3.0264      125.2896      128.3160     104.424973       0.00000
  19     114.6       23.5695        3.5711      124.4234      127.9945     104.424973       0.00000
  18     136.5       23.1852        4.2078      123.4024      127.6102     104.424973      -0.00000
  17     162.9       22.7232        4.9535      122.1947      127.1482     104.424973       0.00000
  16     196.4       22.1170        5.9001      120.6419      126.5420     104.424973      -0.00000
  15     218.7       21.7146        6.5093      119.6303      126.1396     104.424973       0.00000
  14     243.0       21.2732        7.1604      118.5379      125.6982     104.424973       0.00000
  13     269.0       20.7903        7.8529      117.3624      125.2152     104.424973       0.00000
  12     297.5       20.2628        8.5860      116.1018      124.6878     104.424973       0.00000
  11     328.5       19.6864        9.3608      114.7505      124.1114     104.424973      -0.00000
  10     361.9       19.0581       10.1748      113.3083      123.4831     104.424973       0.00000
   9     398.1       18.3730       11.0275      111.7705      122.7980     104.424973      -0.00000
   8     437.6       17.6268       11.9165      110.1353      122.0518     104.424973       0.00000
   7     480.5       16.8148       12.8388      108.4010      121.2398     104.424973      -0.00000
   6     533.0       15.7977       13.9310      106.2917      120.2227     104.424973       0.00000
   5     589.8       14.6789       15.0556      104.0483      119.1039     104.424973      -0.00000
   4     651.6       13.4493       16.2043      101.6700      117.8742     104.424973      -0.00000
   3     718.7       12.0982       17.3674       99.1558      116.5232     104.424973       0.00000
   2     792.3       10.6157       18.5323       96.5083      115.0406     104.424973       0.00000
   1     891.5        8.5539       19.9725       93.0064      112.9789     104.424973       0.00000
   0    1013.0        5.9842       21.5009       88.9082      110.4091     104.424973      -0.00000



 Wavenumbers: 29000. - 38000. cm-1, ATM      1
 LEVEL PRESSURE   UPWARD FLUX   DIFDOWN FLUX  DIRDOWN FLUX  DOWNWARD FLUX   NET FLUX    HEATING RATE
          mb          W/m2          W/m2          W/m2        W/m2          W/m2       degree/day
  51    .06700        6.7404        0.0000       45.8410       45.8410      39.100512       0.00000
  50    .07753        6.7403        0.0003       45.8366       45.8370      39.096700       3.05510
  49    .09103        6.7400        0.0007       45.8305       45.8312      39.091152       3.46783
  48    0.1069        6.7397        0.0011       45.8223       45.8235      39.083718       3.95690
  47    0.1255        6.7394        0.0016       45.8116       45.8132      39.073766       4.51176
  46    0.1487        6.7391        0.0023       45.7959       45.7982      39.059101       5.34555
  45    0.1794        6.7386        0.0032       45.7716       45.7748      39.036201       6.28661
  44    0.2165        6.7381        0.0042       45.7391       45.7433      39.005213       7.04919
  43    0.2613        6.7375        0.0054       45.6954       45.7008      38.963324       7.89595
  42    0.3336        6.7366        0.0074       45.6134       45.6208      38.884247       9.21960
  41    0.4307        6.7354        0.0100       45.4920       45.5020      38.766575      10.23129
  40    0.5894        6.7338        0.0142       45.2670       45.2812      38.547397      11.65564
  39     1.339        6.7302        0.0325       43.8242       43.8566      37.126411      15.99772
  38     1.782        6.7307        0.0419       42.8351       42.8770      36.146314      18.65946
  37     2.292        6.7334        0.0520       41.6852       41.7373      35.003866      18.92192
  36     2.964        6.7403        0.0644       40.2943       40.3587      33.618438      17.39131
  35     3.853        6.7540        0.0800       38.7687       38.8486      32.094592      14.46158
  34     5.035        6.7769        0.0997       37.2304       37.3301      30.553148      11.01143
  33     6.613        6.8105        0.1251       35.7405       35.8656      29.055112       8.00851
  32     8.786        6.8552        0.1585       34.3295       34.4880      27.632749       5.52394
  31     11.80        6.9141        0.2051       32.9481       33.1532      26.239104       3.90177
  30     15.07        6.9713        0.2541       31.8942       32.1483      25.176965       2.74224
  29     18.79        7.0312        0.3081       30.9854       31.2936      24.262362       2.07369
  28     23.16        7.0957        0.3701       30.1559       30.5260      23.430314       1.60891
  27     28.12        7.1625        0.4398       29.4043       29.8441      22.681577       1.27280
  26     33.73        7.2244        0.5175       28.7514       29.2689      22.044563       0.95777
  25     40.54        7.2822        0.6109       28.1328       28.7437      21.461521       0.72333
  24     48.69        7.3353        0.7227       27.5340       28.2568      20.921433       0.55891
  23     57.69        7.3762        0.8447       26.9971       27.8418      20.465545       0.42733
  22     68.43        7.4041        0.9892       26.4694       27.4585      20.054469       0.32316
  21     81.20        7.4039        1.1618       25.9669       27.1287      19.724787       0.21785
  20     96.49        7.3702        1.3673       25.4748       26.8421      19.471932       0.13956
  19     114.6        7.3123        1.6068       24.9506       26.5574      19.245133       0.10590
  18     136.5        7.2314        1.8821       24.3745       26.2566      19.025204       0.08457
  17     162.9        7.1235        2.1992       23.7328       25.9320      18.808554       0.06925
  16     196.4        6.9565        2.5980       22.9761       25.5741      18.617590       0.04807
  15     218.7        6.8356        2.8497       22.5089       25.3585      18.522981       0.03592
  14     243.0        6.6979        3.1142       22.0192       25.1333      18.435379       0.03038
  13     269.0        6.5418        3.3907       21.5077       24.8984      18.356565       0.02557
  12     297.5        6.3657        3.6779       20.9749       24.6528      18.287054       0.02062
  11     328.5        6.1696        3.9737       20.4165       24.3902      18.220553       0.01808
  10     361.9        5.9521        4.2758       19.8338       24.1096      18.157478       0.01596
   9     398.1        5.7109        4.5823       19.2267       23.8089      18.097968       0.01386
   8     437.6        5.4446        4.8900       18.5955       23.4856      18.040990       0.01218
   7     480.5        5.1507        5.1962       17.9419       23.1381      17.987447       0.01052
   6     533.0        4.7776        5.5405       17.1671       22.7076      17.930015       0.00924
   5     589.8        4.3618        5.8709       16.3664       22.2372      17.875411       0.00811
   4     651.6        3.8997        6.1811       15.5420       21.7231      17.823459       0.00710
   3     718.7        3.3864        6.4635       14.6973       21.1607      17.774289       0.00618
   2     792.3        2.8173        6.7078       13.8375       20.5453      17.728041       0.00530
   1     891.5        2.0178        6.9485       12.7437       19.6923      17.674494       0.00456
   0    1013.0        1.0098        7.1022       11.5285       18.6307      17.620878       0.00372



 Wavenumbers: 38000. - 50000. cm-1, ATM      1
 LEVEL PRESSURE   UPWARD FLUX   DIFDOWN FLUX  DIRDOWN FLUX  DOWNWARD FLUX   NET FLUX    HEATING RATE
          mb          W/m2          W/m2          W/m2        W/m2          W/m2       degree/day
  51    .06700        0.0077        0.0000        2.8274        2.8274       2.819732       0.00000
  50    .07753        0.0076        0.0001        2.8250        2.8250       2.817394       1.87426
  49    .09103        0.0076        0.0002        2.8215        2.8216       2.814052       2.08853
  48    0.1069        0.0075        0.0003        2.8169        2.8172       2.809652       2.34203
  47    0.1255        0.0074        0.0004        2.8109        2.8113       2.803854       2.62885
  46    0.1487        0.0073        0.0005        2.8022        2.8027       2.795433       3.06948
  45    0.1794        0.0072        0.0007        2.7889        2.7896       2.782446       3.56531
  44    0.2165        0.0070        0.0009        2.7712        2.7721       2.765088       3.94851
  43    0.2613        0.0068        0.0012        2.7476        2.7487       2.741916       4.36792
  42    0.3336        0.0065        0.0015        2.7038        2.7053       2.698800       5.02689
  41    0.4307        0.0062        0.0020        2.6399        2.6419       2.635738       5.48307
  40    0.5894        0.0056        0.0027        2.5241        2.5268       2.521231       6.08937
  39     1.339        0.0038        0.0042        1.8543        1.8585       1.854685       7.50409
  38     1.782        0.0031        0.0041        1.4655        1.4696       1.466513       7.39018
  37     2.292        0.0024        0.0036        1.0872        1.0908       1.088339       6.26353
  36     2.964        0.0019        0.0030        0.7358        0.7388       0.736859       4.41214
  35     3.853        0.0015        0.0024        0.4711        0.4735       0.472010       2.51347
  34     5.035        0.0012        0.0019        0.2988        0.3008       0.299620       1.23148
  33     6.613        0.0009        0.0016        0.1889        0.1905       0.189608       0.58813
  32     8.786        0.0007        0.0013        0.1196        0.1208       0.120133       0.26981
  31     11.80        0.0005        0.0010        0.0741        0.0751       0.074563       0.12758
  30     15.07        0.0004        0.0008        0.0493        0.0501       0.049700       0.06419
  29     18.79        0.0003        0.0006        0.0330        0.0336       0.033348       0.03707
  28     23.16        0.0002        0.0004        0.0217        0.0221       0.021940       0.02206
  27     28.12        0.0001        0.0003        0.0140        0.0144       0.014212       0.01314
  26     33.73        0.0001        0.0002        0.0091        0.0093       0.009223       0.00750
  25     40.54        0.0001        0.0002        0.0057        0.0059       0.005793       0.00426
  24     48.69        0.0000        0.0001        0.0034        0.0035       0.003483       0.00239
  23     57.69        0.0000        0.0001        0.0020        0.0021       0.002088       0.00131
  22     68.43        0.0000        0.0000        0.0012        0.0012       0.001190       0.00071
  21     81.20        0.0000        0.0000        0.0006        0.0007       0.000647       0.00036
  20     96.49        0.0000        0.0000        0.0003        0.0003       0.000330       0.00018
  19     114.6        0.0000        0.0000        0.0001        0.0002       0.000151       0.00008
  18     136.5        0.0000        0.0000        0.0001        0.0001       0.000060       0.00003
  17     162.9        0.0000        0.0000        0.0000        0.0000       0.000020       0.00001
  16     196.4        0.0000        0.0000        0.0000        0.0000       0.000005       0.00000
  15     218.7        0.0000        0.0000        0.0000        0.0000       0.000002       0.00000
  14     243.0        0.0000        0.0000        0.0000        0.0000       0.000001       0.00000
  13     269.0        0.0000        0.0000        0.0000        0.0000       0.000000       0.00000
  12     297.5        0.0000        0.0000        0.0000        0.0000       0.000000       0.00000
  11     328.5        0.0000        0.0000        0.0000        0.0000       0.000000       0.00000
  10     361.9        0.0000        0.0000        0.0000        0.0000       0.000000       0.00000
   9     398.1        0.0000        0.0000        0.0000        0.0000       0.000000       0.00000
   8     437.6        0.0000        0.0000        0.0000        0.0000       0.000000       0.00000
   7     480.5        0.0000        0.0000        0.0000        0.0000       0.000000       0.00000
   6     533.0        0.0000        0.0000        0.0000        0.0000       0.000000       0.00000
   5     589.8        0.0000        0.0000        0.0000        0.0000       0.000000       0.00000
   4     651.6        0.0000        0.0000        0.0000        0.0000       0.000000       0.00000
   3     718.7        0.0000        0.0000        0.0000        0.0000       0.000000       0.00000
   2     792.3        0.0000        0.0000        0.0000        0.0000       0.000000       0.00000
   1     891.5        0.0000        0.0000        0.0000        0.0000       0.000000       0.00000
   0    1013.0        0.0000        0.0000        0.0000        0.0000       0.000000       0.00000



 Wavenumbers:   820. -  2600. cm-1, ATM      1
 LEVEL PRESSURE   UPWARD FLUX   DIFDOWN FLUX  DIRDOWN FLUX  DOWNWARD FLUX   NET FLUX    HEATING RATE
          mb          W/m2          W/m2          W/m2        W/m2          W/m2       degree/day
  51    .06700        0.4371        0.0000       13.2264       13.2264      12.789240       0.00000
  50    .07753        0.4371        0.0000       13.2194       13.2194      12.782218       5.62795
  49    .09103        0.4371        0.0000       13.2178       13.2178      12.780644       0.98410
  48    0.1069        0.4371        0.0000       13.2167       13.2167      12.779517       0.59957
  47    0.1255        0.4371        0.0000       13.2154       13.2154      12.778227       0.58515
  46    0.1487        0.4371        0.0000       13.2137       13.2137      12.776570       0.60401
  45    0.1794        0.4371        0.0000       13.2114       13.2114      12.774311       0.62012
  44    0.2165        0.4371        0.0000       13.2088       13.2088      12.771693       0.59557
  43    0.2613        0.4371        0.0000       13.2059       13.2059      12.768712       0.56189
  42    0.3336        0.4371        0.0000       13.2013       13.2013      12.764148       0.53210
  41    0.4307        0.4371        0.0000       13.1959       13.1959      12.758777       0.46696
  40    0.5894        0.4371        0.0000       13.1882       13.1882      12.751086       0.40903
  39     1.339        0.4371        0.0000       13.1557       13.1557      12.718549       0.36630
  38     1.782        0.4371        0.0000       13.1371       13.1371      12.699962       0.35388
  37     2.292        0.4371        0.0000       13.1162       13.1162      12.679015       0.34694
  36     2.964        0.4371        0.0000       13.0894       13.0894      12.652260       0.33586
  35     3.853        0.4371        0.0000       13.0549       13.0549      12.617758       0.32743
  34     5.035        0.4371        0.0000       13.0106       13.0106      12.573452       0.31650
  33     6.613        0.4371        0.0000       12.9545       12.9545      12.517333       0.30001
  32     8.786        0.4372        0.0000       12.8834       12.8834      12.446202       0.27624
  31     11.80        0.4372        0.0000       12.7885       12.7885      12.351297       0.26571
  30     15.07        0.4372        0.0000       12.6943       12.6944      12.257187       0.24297
  29     18.79        0.4372        0.0000       12.5999       12.5999      12.162724       0.21418
  28     23.16        0.4372        0.0000       12.5086       12.5086      12.071448       0.17650
  27     28.12        0.4372        0.0000       12.4288       12.4289      11.991665       0.13563
  26     33.73        0.4372        0.0000       12.3650       12.3650      11.927816       0.09600
  25     40.54        0.4372        0.0000       12.3120       12.3120      11.874788       0.06579
  24     48.69        0.4372        0.0000       12.2668       12.2668      11.829626       0.04674
  23     57.69        0.4372        0.0000       12.2260       12.2260      11.788765       0.03830
  22     68.43        0.4373        0.0000       12.1803       12.1803      11.743009       0.03597
  21     81.20        0.4373        0.0000       12.1270       12.1270      11.689746       0.03520
  20     96.49        0.4373        0.0000       12.0640       12.0640      11.626667       0.03482
  19     114.6        0.4373        0.0000       11.9885       11.9885      11.551209       0.03523
  18     136.5        0.4374        0.0000       11.8987       11.8988      11.461377       0.03454
  17     162.9        0.4374        0.0000       11.7817       11.7818      11.344307       0.03742
  16     196.4        0.4376        0.0000       11.5930       11.5930      11.155449       0.04754
  15     218.7        0.4377        0.0000       11.4055       11.4056      10.967904       0.07120
  14     243.0        0.4378        0.0000       11.1045       11.1045      10.666688       0.10447
  13     269.0        0.4381        0.0000       10.6901       10.6901      10.252026       0.13451
  12     297.5        0.4385        0.0000       10.2200       10.2201       9.781557       0.13954
  11     328.5        0.4391        0.0000        9.8187        9.8187       9.379667       0.10927
  10     361.9        0.4398        0.0000        9.4313        9.4313       8.991521       0.09820
   9     398.1        0.4408        0.0000        8.9858        8.9858       8.544985       0.10403
   8     437.6        0.4421        0.0000        8.4654        8.4654       8.023357       0.11153
   7     480.5        0.4437        0.0000        7.9394        7.9395       7.495814       0.10361
   6     533.0        0.4461        0.0000        7.4262        7.4262       6.980095       0.08296
   5     589.8        0.4497        0.0000        7.0503        7.0503       6.600639       0.05632
   4     651.6        0.4560        0.0000        6.7312        6.7313       6.275211       0.04450
   3     718.7        0.4669        0.0000        6.3693        6.3693       5.902381       0.04685
   2     792.3        0.4868        0.0000        5.9171        5.9172       5.430391       0.05413
   1     891.5        0.5377        0.0000        5.2716        5.2716       4.733893       0.05927
   0    1013.0        0.6770        0.0000        4.5136        4.5136       3.836585       0.06230

  Modules and versions used in this calculation:

       rrtmg_sw.1col.f90:  $Revision$                    rrtmg_sw_init.f90:  $Revision$        
     rrtmgsw_cldprop.f90:  $Revision$                  rrtmgsw_cldprmc.f90:  NOT USED          
     rrtmg_sw_reftra.f90:  $Revision$                  rrtmg_sw_spcvrt.f90:  NOT USED          
     rrtmg_sw_spcvmc.f90:  NOT USED                    rrtmgsw_setcoef.f90:  NOT USED          
     rrtmg_sw_taumol.f90:  $Revision$                  rrtmg_sw_vrtqdr.f90:  NOT USED          
                rrtatm.f:  NOT USED                             util_xxx.f:  NOT USED          
                 extra.f:  NOT USED                       rrtmg_sw_k_g.f90:  $Revision$        

