

 Wavenumbers:   820. - 50000. cm-1, ATM      1
 LEVEL PRESSURE   UPWARD FLUX   DIFDOWN FLUX  DIRDOWN FLUX  DOWNWARD FLUX   NET FLUX    HEATING RATE
          mb          W/m2          W/m2          W/m2        W/m2          W/m2       degree/day
  51    .06700      330.9371        0.0000     1360.8491     1360.8491    1029.912047       0.00000
  50    .07753      330.9368        0.0015     1360.8273     1360.8287    1029.891890      16.15642
  49    .09103      330.9366        0.0033     1360.8078     1360.8111    1029.874500      10.86892
  48    0.1069      330.9363        0.0054     1360.7860     1360.7914    1029.855112      10.32009
  47    0.1255      330.9360        0.0078     1360.7600     1360.7678    1029.831815      10.56196
  46    0.1487      330.9357        0.0108     1360.7249     1360.7357    1029.800041      11.58210
  45    0.1794      330.9354        0.0150     1360.6734     1360.6884    1029.753058      12.89778
  44    0.2165      330.9351        0.0199     1360.6074     1360.6273    1029.692132      13.85961
  43    0.2613      330.9350        0.0257     1360.5219     1360.5476    1029.612596      14.99218
  42    0.3336      330.9353        0.0353     1360.3673     1360.4026    1029.467321      16.93765
  41    0.4307      330.9361        0.0479     1360.1456     1360.1935    1029.257454      18.24751
  40    0.5894      330.9385        0.0683     1359.7482     1359.8165    1028.878044      20.17654
  39     1.339      330.9709        0.1616     1357.3733     1357.5349    1026.564006      26.05186
  38     1.782      331.0045        0.2141     1355.8375     1356.0515    1025.047040      28.88058
  37     2.292      331.0568        0.2737     1354.1208     1354.3946    1023.337793      28.30958
  36     2.964      331.1457        0.3512     1352.1205     1352.4717    1021.326011      25.25394
  35     3.853      331.2916        0.4528     1349.9734     1350.4263    1019.134699      20.79596
  34     5.035      331.5134        0.5872     1347.7761     1348.3633    1016.849953      16.32128
  33     6.613      331.8248        0.7660     1345.5290     1346.2950    1014.470207      12.72213
  32     8.786      332.2320        1.0063     1343.2079     1344.2142    1011.982153       9.66270
  31     11.80      332.7645        1.3489     1340.6494     1341.9984    1009.233846       7.69439
  30     15.07      333.2783        1.7158     1338.4304     1340.1462    1006.867971       6.10823
  29     18.79      333.8070        2.1289     1336.2864     1338.4154    1004.608324       5.12331
  28     23.16      334.3654        2.6103     1334.1057     1336.7159    1002.350540       4.36583
  27     28.12      334.9340        3.1595     1331.9136     1335.0731    1000.139074       3.75934
  26     33.73      335.4653        3.7739     1329.7853     1333.5592     998.093938       3.07492
  25     40.54      335.9827        4.5156     1327.5375     1332.0531     996.070453       2.51036
  24     48.69      336.4850        5.4089     1325.1261     1330.5351     994.050062       2.09079
  23     57.69      336.9170        6.3889     1322.7388     1329.1276     992.210641       1.72418
  22     68.43      337.2988        7.5545     1320.1544     1327.7089     990.410062       1.41550
  21     81.20      337.5641        8.9430     1317.3916     1326.3346     988.770448       1.08343
  20     96.49      337.6997       10.5955     1314.3811     1324.9766     987.276888       0.82434
  19     114.6      337.7718       12.5487     1310.9471     1323.4957     985.723916       0.72513
  18     136.5      337.7904       14.8476     1306.9977     1321.8453     984.054908       0.64177
  17     162.9      337.7496       17.5629     1302.3518     1319.9147     982.165105       0.60406
  16     196.4      337.5582       21.0543     1296.2678     1317.3221     979.763982       0.60439
  15     218.7      337.3784       23.3257     1291.7724     1315.0981     977.719767       0.77611
  14     243.0      337.1555       25.7749     1286.1481     1311.9230     974.767519       1.02394
  13     269.0      336.8846       28.4065     1279.0245     1307.4310     970.546448       1.36930
  12     297.5      336.5628       31.2239     1270.1087     1301.3326     964.769845       1.71328
  11     328.5      336.1965       34.2370     1260.1713     1294.4082     958.211714       1.78314
  10     361.9      335.7836       37.4450     1249.4297     1286.8747     951.091117       1.80158
   9     398.1      335.3210       40.8562     1237.6382     1278.4944     943.173353       1.84466
   8     437.6      334.8101       44.4717     1224.3920     1268.8636     934.053566       1.94987
   7     480.5      334.2487       48.2932     1209.7358     1258.0291     923.780317       2.01763
   6     533.0      333.5474       52.9223     1191.2571     1244.1794     910.632050       2.11514
   5     589.8      332.7968       57.8189     1170.7333     1228.5523     895.755441       2.20818
   4     651.6      332.0394       62.9755     1147.0297     1210.0053     877.965903       2.43277
   3     718.7      331.3173       68.3854     1120.8952     1189.2805     857.963284       2.51378
   2     792.3      330.7545       74.0268     1092.1619     1166.1886     835.434113       2.58384
   1     891.5      330.6153       81.3937     1053.3991     1134.7928     804.177479       2.65979
   0    1013.0      332.3542       89.8720     1008.4859     1098.3580     766.003791       2.65060



 Wavenumbers:  2600. -  3250. cm-1, ATM      1
 LEVEL PRESSURE   UPWARD FLUX   DIFDOWN FLUX  DIRDOWN FLUX  DOWNWARD FLUX   NET FLUX    HEATING RATE
          mb          W/m2          W/m2          W/m2        W/m2          W/m2       degree/day
  51    .06700        0.3712        0.0000       11.9937       11.9937      11.622526       0.00000
  50    .07753        0.3712        0.0000       11.9937       11.9937      11.622518       0.00640
  49    .09103        0.3712        0.0000       11.9937       11.9937      11.622508       0.00627
  48    0.1069        0.3712        0.0000       11.9937       11.9937      11.622496       0.00613
  47    0.1255        0.3712        0.0000       11.9937       11.9937      11.622483       0.00600
  46    0.1487        0.3712        0.0000       11.9937       11.9937      11.622466       0.00608
  45    0.1794        0.3712        0.0000       11.9936       11.9936      11.622443       0.00625
  44    0.2165        0.3712        0.0000       11.9936       11.9936      11.622416       0.00613
  43    0.2613        0.3712        0.0000       11.9936       11.9936      11.622385       0.00601
  42    0.3336        0.3712        0.0000       11.9935       11.9935      11.622332       0.00619
  41    0.4307        0.3712        0.0000       11.9935       11.9935      11.622260       0.00622
  40    0.5894        0.3712        0.0000       11.9933       11.9933      11.622140       0.00640
  39     1.339        0.3712        0.0000       11.9926       11.9926      11.621423       0.00806
  38     1.782        0.3712        0.0000       11.9921       11.9921      11.620868       0.01057
  37     2.292        0.3712        0.0000       11.9913       11.9913      11.620128       0.01226
  36     2.964        0.3712        0.0000       11.9902       11.9902      11.619038       0.01368
  35     3.853        0.3712        0.0000       11.9886       11.9886      11.617454       0.01504
  34     5.035        0.3712        0.0000       11.9864       11.9864      11.615180       0.01624
  33     6.613        0.3712        0.0000       11.9832       11.9832      11.611964       0.01719
  32     8.786        0.3712        0.0000       11.9787       11.9787      11.607480       0.01741
  31     11.80        0.3712        0.0000       11.9722       11.9722      11.601008       0.01812
  30     15.07        0.3712        0.0000       11.9654       11.9654      11.594201       0.01757
  29     18.79        0.3712        0.0000       11.9581       11.9581      11.586913       0.01652
  28     23.16        0.3712        0.0000       11.9502       11.9502      11.578991       0.01532
  27     28.12        0.3712        0.0000       11.9418       11.9418      11.570655       0.01417
  26     33.73        0.3712        0.0000       11.9329       11.9329      11.561693       0.01347
  25     40.54        0.3712        0.0000       11.9222       11.9222      11.550997       0.01327
  24     48.69        0.3712        0.0000       11.9093       11.9093      11.538161       0.01328
  23     57.69        0.3712        0.0000       11.8949       11.8950      11.523769       0.01349
  22     68.43        0.3712        0.0000       11.8770       11.8771      11.505860       0.01408
  21     81.20        0.3712        0.0000       11.8544       11.8544      11.483189       0.01498
  20     96.49        0.3712        0.0000       11.8256       11.8257      11.454441       0.01587
  19     114.6        0.3712        0.0000       11.7886       11.7887      11.417423       0.01728
  18     136.5        0.3713        0.0001       11.7429       11.7430      11.371723       0.01757
  17     162.9        0.3713        0.0001       11.6869       11.6870      11.315687       0.01791
  16     196.4        0.3714        0.0001       11.6129       11.6130      11.241591       0.01865
  15     218.7        0.3715        0.0001       11.5605       11.5606      11.189101       0.01993
  14     243.0        0.3716        0.0001       11.4957       11.4958      11.124168       0.02252
  13     269.0        0.3718        0.0001       11.4130       11.4131      11.041308       0.02688
  12     297.5        0.3721        0.0001       11.3101       11.3102      10.938109       0.03061
  11     328.5        0.3726        0.0001       11.1933       11.1934      10.820795       0.03190
  10     361.9        0.3732        0.0001       11.0632       11.0633      10.690109       0.03306
   9     398.1        0.3740        0.0001       10.9149       10.9151      10.541012       0.03474
   8     437.6        0.3752        0.0001       10.7385       10.7387      10.363473       0.03796
   7     480.5        0.3768        0.0002       10.5233       10.5234      10.146615       0.04259
   6     533.0        0.3793        0.0002       10.2141       10.2142       9.834886       0.05015
   5     589.8        0.3831        0.0002        9.8147        9.8149       9.431703       0.05985
   4     651.6        0.3892        0.0002        9.2987        9.2989       8.909659       0.07139
   3     718.7        0.3989        0.0002        8.7065        8.7067       8.307817       0.07563
   2     792.3        0.4151        0.0002        8.0516        8.0518       7.636690       0.07697
   1     891.5        0.4542        0.0002        7.1628        7.1630       6.708825       0.07896
   0    1013.0        0.5653        0.0002        6.1112        6.1114       5.546053       0.08074



 Wavenumbers:  3250. -  4000. cm-1, ATM      1
 LEVEL PRESSURE   UPWARD FLUX   DIFDOWN FLUX  DIRDOWN FLUX  DOWNWARD FLUX   NET FLUX    HEATING RATE
          mb          W/m2          W/m2          W/m2        W/m2          W/m2       degree/day
  51    .06700        0.0015        0.0000       20.2197       20.2197      20.218201       0.00000
  50    .07753        0.0015        0.0000       20.2140       20.2140      20.212532       4.54406
  49    .09103        0.0015        0.0000       20.2088       20.2088      20.207301       3.26932
  48    0.1069        0.0015        0.0000       20.2043       20.2043      20.202877       2.35506
  47    0.1255        0.0015        0.0000       20.2005       20.2005      20.198997       1.75884
  46    0.1487        0.0015        0.0000       20.1965       20.1965      20.195075       1.42967
  45    0.1794        0.0015        0.0000       20.1921       20.1921      20.190632       1.21962
  44    0.2165        0.0015        0.0000       20.1875       20.1875      20.186066       1.03878
  43    0.2613        0.0015        0.0000       20.1827       20.1827      20.181227       0.91222
  42    0.3336        0.0015        0.0000       20.1757       20.1757      20.174204       0.81870
  41    0.4307        0.0015        0.0000       20.1678       20.1678      20.166310       0.68638
  40    0.5894        0.0015        0.0000       20.1571       20.1571      20.155616       0.56870
  39     1.339        0.0015        0.0000       20.1195       20.1195      20.118083       0.42255
  38     1.782        0.0015        0.0000       20.1017       20.1017      20.100252       0.33948
  37     2.292        0.0014        0.0000       20.0837       20.0837      20.082225       0.29857
  36     2.964        0.0014        0.0000       20.0629       20.0629      20.061475       0.26048
  35     3.853        0.0014        0.0000       20.0387       20.0387      20.037275       0.22966
  34     5.035        0.0014        0.0000       20.0099       20.0099      20.008433       0.20604
  33     6.613        0.0014        0.0000       19.9743       19.9743      19.972883       0.19005
  32     8.786        0.0014        0.0000       19.9279       19.9279      19.926480       0.18021
  31     11.80        0.0014        0.0000       19.8609       19.8609      19.859442       0.18768
  30     15.07        0.0014        0.0000       19.7861       19.7861      19.784649       0.19310
  29     18.79        0.0014        0.0000       19.6981       19.6981      19.696722       0.19936
  28     23.16        0.0014        0.0000       19.5924       19.5924      19.591001       0.20443
  27     28.12        0.0014        0.0000       19.4692       19.4692      19.467789       0.20945
  26     33.73        0.0014        0.0000       19.3318       19.3319      19.330464       0.20647
  25     40.54        0.0014        0.0001       19.1703       19.1704      19.168986       0.20033
  24     48.69        0.0014        0.0001       18.9874       18.9875      18.986097       0.18926
  23     57.69        0.0014        0.0001       18.8032       18.8032      18.801873       0.17268
  22     68.43        0.0014        0.0001       18.6047       18.6048      18.603465       0.15598
  21     81.20        0.0013        0.0001       18.3903       18.3904      18.389100       0.14165
  20     96.49        0.0013        0.0001       18.1531       18.1532      18.151858       0.13094
  19     114.6        0.0013        0.0001       17.8720       17.8722      17.870862       0.13121
  18     136.5        0.0013        0.0002       17.5464       17.5465      17.545260       0.12520
  17     162.9        0.0013        0.0002       17.1484       17.1486      17.147378       0.12718
  16     196.4        0.0012        0.0002       16.5656       16.5658      16.564612       0.14669
  15     218.7        0.0012        0.0002       16.0235       16.0238      16.022592       0.20579
  14     243.0        0.0012        0.0003       15.2654       15.2657      15.264495       0.26293
  13     269.0        0.0011        0.0003       14.2510       14.2513      14.250115       0.32906
  12     297.5        0.0011        0.0003       13.0349       13.0352      13.034031       0.36068
  11     328.5        0.0011        0.0003       11.8274       11.8277      11.826557       0.32831
  10     361.9        0.0011        0.0002       10.6546       10.6548      10.653710       0.29674
   9     398.1        0.0011        0.0002        9.4801        9.4803       9.479223       0.27363
   8     437.6        0.0011        0.0002        8.3186        8.3188       8.317736       0.24833
   7     480.5        0.0011        0.0002        7.2534        7.2537       7.252564       0.20920
   6     533.0        0.0011        0.0002        6.1288        6.1290       6.127864       0.18093
   5     589.8        0.0012        0.0002        5.0588        5.0590       5.057790       0.15883
   4     651.6        0.0014        0.0001        3.9729        3.9731       3.971673       0.14853
   3     718.7        0.0018        0.0001        2.9378        2.9379       2.936041       0.13015
   2     792.3        0.0029        0.0001        1.9615        1.9616       1.958648       0.11210
   1     891.5        0.0090        0.0000        0.9920        0.9920       0.982967       0.08303
   0    1013.0        0.0870        0.0000        0.3116        0.3117       0.224670       0.05265



 Wavenumbers:  4000. -  4650. cm-1, ATM      1
 LEVEL PRESSURE   UPWARD FLUX   DIFDOWN FLUX  DIRDOWN FLUX  DOWNWARD FLUX   NET FLUX    HEATING RATE
          mb          W/m2          W/m2          W/m2        W/m2          W/m2       degree/day
  51    .06700        0.7926        0.0000       23.7440       23.7440      22.951359       0.00000
  50    .07753        0.7926        0.0000       23.7440       23.7440      22.951358       0.00080
  49    .09103        0.7926        0.0000       23.7440       23.7440      22.951357       0.00078
  48    0.1069        0.7926        0.0000       23.7440       23.7440      22.951355       0.00076
  47    0.1255        0.7926        0.0000       23.7440       23.7440      22.951354       0.00075
  46    0.1487        0.7926        0.0000       23.7440       23.7440      22.951352       0.00076
  45    0.1794        0.7926        0.0000       23.7440       23.7440      22.951349       0.00078
  44    0.2165        0.7926        0.0000       23.7440       23.7440      22.951345       0.00076
  43    0.2613        0.7926        0.0000       23.7440       23.7440      22.951341       0.00075
  42    0.3336        0.7926        0.0000       23.7440       23.7440      22.951335       0.00077
  41    0.4307        0.7926        0.0000       23.7439       23.7439      22.951326       0.00077
  40    0.5894        0.7926        0.0000       23.7439       23.7439      22.951311       0.00080
  39     1.339        0.7926        0.0000       23.7438       23.7438      22.951222       0.00101
  38     1.782        0.7926        0.0000       23.7438       23.7438      22.951152       0.00133
  37     2.292        0.7926        0.0000       23.7437       23.7437      22.951058       0.00156
  36     2.964        0.7926        0.0000       23.7435       23.7435      22.950917       0.00176
  35     3.853        0.7926        0.0000       23.7433       23.7433      22.950709       0.00198
  34     5.035        0.7926        0.0000       23.7430       23.7430      22.950402       0.00219
  33     6.613        0.7926        0.0000       23.7425       23.7426      22.949950       0.00242
  32     8.786        0.7926        0.0000       23.7418       23.7419      22.949281       0.00260
  31     11.80        0.7926        0.0000       23.7408       23.7408      22.948228       0.00295
  30     15.07        0.7926        0.0001       23.7395       23.7396      22.946991       0.00319
  29     18.79        0.7926        0.0001       23.7380       23.7381      22.945491       0.00340
  28     23.16        0.7926        0.0001       23.7361       23.7362      22.943623       0.00361
  27     28.12        0.7925        0.0001       23.7338       23.7339      22.941353       0.00386
  26     33.73        0.7925        0.0001       23.7309       23.7311      22.938544       0.00422
  25     40.54        0.7925        0.0001       23.7271       23.7272      22.934716       0.00475
  24     48.69        0.7925        0.0002       23.7219       23.7221      22.929586       0.00531
  23     57.69        0.7925        0.0002       23.7157       23.7159      22.923466       0.00574
  22     68.43        0.7924        0.0003       23.7079       23.7082      22.915751       0.00606
  21     81.20        0.7924        0.0003       23.6983       23.6986      22.906182       0.00632
  20     96.49        0.7924        0.0004       23.6865       23.6869      22.894468       0.00647
  19     114.6        0.7924        0.0004       23.6717       23.6721      22.879733       0.00688
  18     136.5        0.7924        0.0005       23.6537       23.6542      22.861877       0.00687
  17     162.9        0.7924        0.0006       23.6317       23.6323      22.839905       0.00702
  16     196.4        0.7924        0.0007       23.6012       23.6019      22.809500       0.00765
  15     218.7        0.7925        0.0008       23.5777       23.5785      22.786006       0.00892
  14     243.0        0.7926        0.0009       23.5456       23.5465      22.753877       0.01114
  13     269.0        0.7928        0.0010       23.4995       23.5005      22.707642       0.01500
  12     297.5        0.7932        0.0011       23.4351       23.4362      22.642995       0.01917
  11     328.5        0.7937        0.0012       23.3555       23.3567      22.563004       0.02175
  10     361.9        0.7944        0.0013       23.2571       23.2584      22.464047       0.02504
   9     398.1        0.7953        0.0014       23.1295       23.1310      22.335691       0.02990
   8     437.6        0.7964        0.0015       22.9586       22.9602      22.163765       0.03676
   7     480.5        0.7978        0.0017       22.7369       22.7386      21.940764       0.04380
   6     533.0        0.8000        0.0018       22.4191       22.4209      21.620841       0.05147
   5     589.8        0.8031        0.0020       22.0335       22.0355      21.232369       0.05766
   4     651.6        0.8080        0.0021       21.5654       21.5675      20.759532       0.06466
   3     718.7        0.8158        0.0023       21.0164       21.0186      20.202896       0.06995
   2     792.3        0.8289        0.0024       20.2979       20.3002      19.471386       0.08390
   1     891.5        0.8603        0.0025       19.1088       19.1112      18.250935       0.10385
   0    1013.0        0.9473        0.0026       17.6373       17.6398      16.692587       0.10820



 Wavenumbers:  4650. -  5150. cm-1, ATM      1
 LEVEL PRESSURE   UPWARD FLUX   DIFDOWN FLUX  DIRDOWN FLUX  DOWNWARD FLUX   NET FLUX    HEATING RATE
          mb          W/m2          W/m2          W/m2        W/m2          W/m2       degree/day
  51    .06700        0.6065        0.0000       22.4748       22.4748      21.868288       0.00000
  50    .07753        0.6065        0.0000       22.4746       22.4746      21.868051       0.18925
  49    .09103        0.6065        0.0000       22.4743       22.4743      21.867755       0.18504
  48    0.1069        0.6065        0.0000       22.4739       22.4739      21.867416       0.18064
  47    0.1255        0.6065        0.0000       22.4735       22.4735      21.867027       0.17622
  46    0.1487        0.6065        0.0000       22.4730       22.4730      21.866539       0.17814
  45    0.1794        0.6065        0.0000       22.4724       22.4724      21.865874       0.18241
  44    0.2165        0.6065        0.0000       22.4716       22.4716      21.865092       0.17785
  43    0.2613        0.6065        0.0000       22.4707       22.4707      21.864173       0.17328
  42    0.3336        0.6065        0.0000       22.4692       22.4692      21.862668       0.17553
  41    0.4307        0.6065        0.0000       22.4672       22.4672      21.860699       0.17112
  40    0.5894        0.6065        0.0000       22.4641       22.4641      21.857553       0.16731
  39     1.339        0.6065        0.0000       22.4502       22.4502      21.843720       0.15573
  38     1.782        0.6065        0.0000       22.4428       22.4428      21.836349       0.14034
  37     2.292        0.6065        0.0000       22.4349       22.4350      21.828462       0.13062
  36     2.964        0.6065        0.0000       22.4255       22.4255      21.819033       0.11836
  35     3.853        0.6065        0.0000       22.4145       22.4145      21.808018       0.10454
  34     5.035        0.6065        0.0000       22.4019       22.4019      21.795468       0.08965
  33     6.613        0.6065        0.0000       22.3880       22.3881      21.781608       0.07410
  32     8.786        0.6065        0.0000       22.3731       22.3731      21.766655       0.05807
  31     11.80        0.6065        0.0001       22.3562       22.3563      21.749855       0.04704
  30     15.07        0.6064        0.0001       22.3413       22.3414      21.734933       0.03853
  29     18.79        0.6064        0.0001       22.3259       22.3260      21.719571       0.03483
  28     23.16        0.6064        0.0001       22.3082       22.3083      21.701870       0.03423
  27     28.12        0.6064        0.0002       22.2870       22.2872      21.680764       0.03588
  26     33.73        0.6064        0.0002       22.2617       22.2619      21.655469       0.03803
  25     40.54        0.6064        0.0002       22.2285       22.2287      21.622349       0.04109
  24     48.69        0.6064        0.0003       22.1852       22.1854      21.579088       0.04477
  23     57.69        0.6064        0.0003       22.1340       22.1344      21.528019       0.04787
  22     68.43        0.6064        0.0004       22.0694       22.0698      21.463443       0.05077
  21     81.20        0.6064        0.0005       21.9886       21.9891      21.382716       0.05334
  20     96.49        0.6064        0.0005       21.8895       21.8900      21.283657       0.05467
  19     114.6        0.6064        0.0006       21.7708       21.7715      21.165029       0.05539
  18     136.5        0.6065        0.0007       21.6320       21.6328      21.026256       0.05336
  17     162.9        0.6066        0.0009       21.4726       21.4734      20.866786       0.05097
  16     196.4        0.6069        0.0010       21.2786       21.2796      20.672748       0.04884
  15     218.7        0.6071        0.0012       21.1582       21.1594      20.552282       0.04574
  14     243.0        0.6074        0.0013       21.0313       21.0325      20.425162       0.04409
  13     269.0        0.6078        0.0014       20.8948       20.8962      20.288361       0.04438
  12     297.5        0.6084        0.0015       20.7434       20.7449      20.136511       0.04504
  11     328.5        0.6093        0.0017       20.5767       20.5783      19.969072       0.04553
  10     361.9        0.6104        0.0018       20.3907       20.3926      19.782193       0.04728
   9     398.1        0.6119        0.0020       20.1791       20.1811      19.569211       0.04962
   8     437.6        0.6138        0.0021       19.9341       19.9363      19.322468       0.05276
   7     480.5        0.6164        0.0023       19.6480       19.6503      19.033924       0.05667
   6     533.0        0.6204        0.0025       19.2600       19.2625      18.642107       0.06303
   5     589.8        0.6259        0.0027       18.7890       18.7916      18.165755       0.07071
   4     651.6        0.6341        0.0028       18.1977       18.2005      17.566436       0.08196
   3     718.7        0.6464        0.0030       17.4829       17.4858      16.839412       0.09137
   2     792.3        0.6655        0.0031       16.6464       16.6495      15.984016       0.09810
   1     891.5        0.7069        0.0032       15.4816       15.4848      14.777880       0.10264
   0    1013.0        0.8003        0.0033       14.1857       14.1890      13.388756       0.09645



 Wavenumbers:  5150. -  6150. cm-1, ATM      1
 LEVEL PRESSURE   UPWARD FLUX   DIFDOWN FLUX  DIRDOWN FLUX  DOWNWARD FLUX   NET FLUX    HEATING RATE
          mb          W/m2          W/m2          W/m2        W/m2          W/m2       degree/day
  51    .06700        1.5225        0.0000       56.3444       56.3444      54.821890       0.00000
  50    .07753        1.5225        0.0000       56.3444       56.3444      54.821851       0.03156
  49    .09103        1.5225        0.0000       56.3443       56.3443      54.821799       0.03205
  48    0.1069        1.5225        0.0000       56.3442       56.3442      54.821738       0.03256
  47    0.1255        1.5225        0.0000       56.3442       56.3442      54.821665       0.03307
  46    0.1487        1.5225        0.0000       56.3441       56.3441      54.821570       0.03485
  45    0.1794        1.5225        0.0000       56.3439       56.3439      54.821435       0.03710
  44    0.2165        1.5225        0.0000       56.3438       56.3438      54.821269       0.03768
  43    0.2613        1.5225        0.0000       56.3436       56.3436      54.821066       0.03827
  42    0.3336        1.5225        0.0000       56.3432       56.3432      54.820719       0.04046
  41    0.4307        1.5225        0.0000       56.3427       56.3427      54.820247       0.04103
  40    0.5894        1.5225        0.0000       56.3419       56.3419      54.819455       0.04210
  39     1.339        1.5225        0.0000       56.3381       56.3381      54.815624       0.04313
  38     1.782        1.5225        0.0000       56.3358       56.3358      54.813381       0.04271
  37     2.292        1.5225        0.0001       56.3332       56.3333      54.810831       0.04224
  36     2.964        1.5224        0.0001       56.3299       56.3300      54.807572       0.04090
  35     3.853        1.5224        0.0001       56.3257       56.3258      54.803402       0.03958
  34     5.035        1.5224        0.0001       56.3203       56.3204      54.797982       0.03872
  33     6.613        1.5224        0.0002       56.3131       56.3132      54.790864       0.03805
  32     8.786        1.5223        0.0002       56.3036       56.3038      54.781493       0.03639
  31     11.80        1.5223        0.0003       56.2905       56.2908      54.768544       0.03625
  30     15.07        1.5222        0.0004       56.2770       56.2774      54.755231       0.03437
  29     18.79        1.5221        0.0005       56.2626       56.2631      54.740952       0.03238
  28     23.16        1.5220        0.0006       56.2466       56.2472      54.725132       0.03059
  27     28.12        1.5219        0.0007       56.2292       56.2299      54.707987       0.02915
  26     33.73        1.5218        0.0009       56.2110       56.2119      54.690062       0.02695
  25     40.54        1.5217        0.0010       56.1906       56.1917      54.669939       0.02496
  24     48.69        1.5216        0.0013       56.1681       56.1694      54.647788       0.02292
  23     57.69        1.5214        0.0015       56.1451       56.1466      54.625197       0.02118
  22     68.43        1.5212        0.0018       56.1195       56.1213      54.600051       0.01977
  21     81.20        1.5210        0.0021       56.0907       56.0927      54.571693       0.01874
  20     96.49        1.5208        0.0025       56.0573       56.0598      54.538971       0.01806
  19     114.6        1.5205        0.0029       56.0182       56.0212      54.500660       0.01789
  18     136.5        1.5202        0.0035       55.9719       55.9754      54.455177       0.01749
  17     162.9        1.5198        0.0041       55.9013       55.9054      54.385592       0.02224
  16     196.4        1.5193        0.0050       55.7479       55.7529      54.233554       0.03827
  15     218.7        1.5190        0.0055       55.5243       55.5298      54.010820       0.08456
  14     243.0        1.5187        0.0061       55.1190       55.1251      53.606360       0.14028
  13     269.0        1.5184        0.0066       54.3924       54.3990      52.880550       0.23545
  12     297.5        1.5182        0.0071       53.2527       53.2598      51.741636       0.33779
  11     328.5        1.5180        0.0076       51.9857       51.9933      50.475316       0.34431
  10     361.9        1.5179        0.0081       50.6721       50.6802      49.162286       0.33221
   9     398.1        1.5179        0.0086       49.1893       49.1979      47.679984       0.34534
   8     437.6        1.5181        0.0091       47.4187       47.4278      45.909633       0.37851
   7     480.5        1.5186        0.0095       45.4500       45.4594      43.940865       0.38666
   6     533.0        1.5196        0.0099       43.0596       43.0695      41.549930       0.38463
   5     589.8        1.5216        0.0103       40.5463       40.5566      39.035039       0.37329
   4     651.6        1.5256        0.0107       37.8928       37.9036      36.378005       0.36336
   3     718.7        1.5332        0.0112       35.4719       35.4831      33.949951       0.30514
   2     792.3        1.5480        0.0117       33.4066       33.4183      31.870301       0.23851
   1     891.5        1.5897        0.0124       31.3475       31.3599      29.770225       0.17871
   0    1013.0        1.7255        0.0131       29.2817       29.2947      27.569267       0.15282



 Wavenumbers:  6150. -  7700. cm-1, ATM      1
 LEVEL PRESSURE   UPWARD FLUX   DIFDOWN FLUX  DIRDOWN FLUX  DOWNWARD FLUX   NET FLUX    HEATING RATE
          mb          W/m2          W/m2          W/m2        W/m2          W/m2       degree/day
  51    .06700        2.3829        0.0000      104.2111      104.2111     101.828246       0.00000
  50    .07753        2.3829        0.0000      104.2111      104.2111     101.828189       0.04554
  49    .09103        2.3829        0.0000      104.2110      104.2110     101.828116       0.04583
  48    0.1069        2.3829        0.0000      104.2109      104.2109     101.828029       0.04615
  47    0.1255        2.3829        0.0000      104.2108      104.2108     101.827927       0.04646
  46    0.1487        2.3829        0.0000      104.2107      104.2107     101.827794       0.04854
  45    0.1794        2.3829        0.0000      104.2105      104.2105     101.827607       0.05129
  44    0.2165        2.3829        0.0000      104.2102      104.2102     101.827379       0.05171
  43    0.2613        2.3829        0.0000      104.2099      104.2100     101.827103       0.05215
  42    0.3336        2.3828        0.0000      104.2095      104.2095     101.826633       0.05478
  41    0.4307        2.3828        0.0000      104.2088      104.2088     101.825997       0.05531
  40    0.5894        2.3828        0.0001      104.2077      104.2078     101.824935       0.05648
  39     1.339        2.3827        0.0001      104.2024      104.2026     101.819815       0.05764
  38     1.782        2.3827        0.0002      104.1993      104.1995     101.816817       0.05707
  37     2.292        2.3827        0.0002      104.1958      104.1961     101.813401       0.05659
  36     2.964        2.3826        0.0003      104.1913      104.1916     101.809014       0.05506
  35     3.853        2.3825        0.0004      104.1854      104.1859     101.803366       0.05360
  34     5.035        2.3824        0.0005      104.1778      104.1784     101.795995       0.05266
  33     6.613        2.3822        0.0007      104.1678      104.1685     101.786282       0.05193
  32     8.786        2.3820        0.0009      104.1545      104.1554     101.773425       0.04993
  31     11.80        2.3817        0.0013      104.1359      104.1372     101.755510       0.05016
  30     15.07        2.3814        0.0016      104.1166      104.1183     101.736889       0.04808
  29     18.79        2.3810        0.0020      104.0956      104.0976     101.716646       0.04590
  28     23.16        2.3806        0.0025      104.0720      104.0745     101.693901       0.04398
  27     28.12        2.3801        0.0030      104.0459      104.0489     101.668881       0.04253
  26     33.73        2.3795        0.0036      104.0181      104.0218     101.642269       0.04001
  25     40.54        2.3788        0.0044      103.9863      103.9907     101.611860       0.03773
  24     48.69        2.3780        0.0053      103.9504      103.9557     101.577643       0.03541
  23     57.69        2.3771        0.0062      103.9130      103.9192     101.542110       0.03331
  22     68.43        2.3760        0.0074      103.8705      103.8779     101.501878       0.03163
  21     81.20        2.3748        0.0088      103.8219      103.8306     101.455848       0.03042
  20     96.49        2.3732        0.0104      103.7651      103.7755     101.402269       0.02957
  19     114.6        2.3714        0.0123      103.6981      103.7105     101.339045       0.02952
  18     136.5        2.3693        0.0147      103.6182      103.6328     101.263549       0.02903
  17     162.9        2.3667        0.0174      103.5018      103.5192     101.152473       0.03550
  16     196.4        2.3634        0.0210      103.2601      103.2810     100.917632       0.05911
  15     218.7        2.3612        0.0232      102.9097      102.9329     100.571694       0.13134
  14     243.0        2.3590        0.0256      102.2732      102.2988      99.939855       0.21914
  13     269.0        2.3566        0.0279      101.2641      101.2921      98.935456       0.32582
  12     297.5        2.3543        0.0302       99.6695       99.6997      97.345475       0.47157
  11     328.5        2.3519        0.0325       97.6082       97.6407      95.288785       0.55921
  10     361.9        2.3497        0.0348       95.2483       95.2830      92.933320       0.59596
   9     398.1        2.3477        0.0370       92.6564       92.6933      90.345646       0.60287
   8     437.6        2.3461        0.0390       89.7047       89.7436      87.397531       0.63033
   7     480.5        2.3452        0.0408       86.3265       86.3673      84.022093       0.66292
   6     533.0        2.3455        0.0426       81.9787       82.0214      79.675872       0.69917
   5     589.8        2.3484        0.0442       77.1953       77.2394      74.890991       0.71023
   4     651.6        2.3571        0.0452       71.7796       71.8248      69.467722       0.74165
   3     718.7        2.3756        0.0458       66.2294       66.2752      63.899617       0.69976
   2     792.3        2.4138        0.0462       60.7106       60.7568      58.343021       0.63728
   1     891.5        2.5209        0.0464       54.2338       54.2802      51.759292       0.56024
   0    1013.0        2.8731        0.0467       47.9982       48.0449      45.171829       0.45740



 Wavenumbers:  7700. -  8050. cm-1, ATM      1
 LEVEL PRESSURE   UPWARD FLUX   DIFDOWN FLUX  DIRDOWN FLUX  DOWNWARD FLUX   NET FLUX    HEATING RATE
          mb          W/m2          W/m2          W/m2        W/m2          W/m2       degree/day
  51    .06700        1.2735        0.0000       24.6282       24.6282      23.354691       0.00000
  50    .07753        1.2735        0.0000       24.6282       24.6282      23.354672       0.01494
  49    .09103        1.2735        0.0000       24.6281       24.6281      23.354649       0.01465
  48    0.1069        1.2735        0.0000       24.6281       24.6281      23.354622       0.01434
  47    0.1255        1.2735        0.0000       24.6281       24.6281      23.354591       0.01403
  46    0.1487        1.2735        0.0000       24.6280       24.6281      23.354552       0.01424
  45    0.1794        1.2735        0.0000       24.6280       24.6280      23.354498       0.01465
  44    0.2165        1.2735        0.0000       24.6279       24.6279      23.354435       0.01437
  43    0.2613        1.2735        0.0000       24.6279       24.6279      23.354360       0.01410
  42    0.3336        1.2735        0.0000       24.6277       24.6277      23.354237       0.01443
  41    0.4307        1.2735        0.0000       24.6276       24.6276      23.354073       0.01427
  40    0.5894        1.2735        0.0000       24.6273       24.6273      23.353804       0.01426
  39     1.339        1.2736        0.0001       24.6260       24.6261      23.352536       0.01428
  38     1.782        1.2736        0.0001       24.6253       24.6254      23.351791       0.01419
  37     2.292        1.2736        0.0001       24.6244       24.6245      23.350928       0.01429
  36     2.964        1.2736        0.0001       24.6233       24.6234      23.349795       0.01422
  35     3.853        1.2737        0.0002       24.6218       24.6220      23.348298       0.01421
  34     5.035        1.2737        0.0002       24.6198       24.6200      23.346309       0.01421
  33     6.613        1.2738        0.0003       24.6172       24.6174      23.343651       0.01421
  32     8.786        1.2739        0.0004       24.6136       24.6140      23.340068       0.01391
  31     11.80        1.2740        0.0005       24.6085       24.6090      23.334943       0.01435
  30     15.07        1.2742        0.0007       24.6030       24.6036      23.329440       0.01421
  29     18.79        1.2744        0.0008       24.5968       24.5976      23.323223       0.01409
  28     23.16        1.2746        0.0010       24.5895       24.5905      23.315964       0.01404
  27     28.12        1.2748        0.0012       24.5812       24.5825      23.307664       0.01411
  26     33.73        1.2751        0.0015       24.5720       24.5734      23.298382       0.01396
  25     40.54        1.2754        0.0018       24.5608       24.5626      23.287174       0.01390
  24     48.69        1.2758        0.0021       24.5473       24.5494      23.273676       0.01397
  23     57.69        1.2762        0.0025       24.5326       24.5351      23.258868       0.01388
  22     68.43        1.2767        0.0030       24.5150       24.5180      23.241259       0.01384
  21     81.20        1.2773        0.0035       24.4941       24.4977      23.220323       0.01383
  20     96.49        1.2781        0.0042       24.4694       24.4735      23.195439       0.01373
  19     114.6        1.2790        0.0050       24.4400       24.4450      23.165985       0.01375
  18     136.5        1.2801        0.0059       24.4054       24.4113      23.131206       0.01337
  17     162.9        1.2814        0.0070       24.3644       24.3714      23.089973       0.01318
  16     196.4        1.2832        0.0084       24.3116       24.3200      23.036788       0.01339
  15     218.7        1.2844        0.0093       24.2771       24.2864      23.002010       0.01320
  14     243.0        1.2857        0.0103       24.2397       24.2500      22.964303       0.01308
  13     269.0        1.2872        0.0114       24.1993       24.2107      22.923493       0.01324
  12     297.5        1.2889        0.0126       24.1556       24.1682      22.879362       0.01309
  11     328.5        1.2907        0.0139       24.1084       24.1223      22.831606       0.01298
  10     361.9        1.2928        0.0153       24.0575       24.0728      22.780017       0.01305
   9     398.1        1.2952        0.0168       24.0026       24.0193      22.724147       0.01302
   8     437.6        1.2979        0.0183       23.9430       23.9613      22.663471       0.01297
   7     480.5        1.3009        0.0200       23.8783       23.8984      22.597448       0.01297
   6     533.0        1.3050        0.0221       23.7972       23.8193      22.514319       0.01337
   5     589.8        1.3099        0.0244       23.7068       23.7312      22.421258       0.01381
   4     651.6        1.3160        0.0268       23.6034       23.6302      22.314164       0.01465
   3     718.7        1.3238        0.0293       23.4831       23.5124      22.188609       0.01578
   2     792.3        1.3341        0.0320       23.3388       23.3709      22.036726       0.01742
   1     891.5        1.3525        0.0356       23.1128       23.1483      21.795836       0.02050
   0    1013.0        1.3835        0.0396       22.7908       22.8304      21.446869       0.02423



 Wavenumbers:  8050. - 12850. cm-1, ATM      1
 LEVEL PRESSURE   UPWARD FLUX   DIFDOWN FLUX  DIRDOWN FLUX  DOWNWARD FLUX   NET FLUX    HEATING RATE
          mb          W/m2          W/m2          W/m2        W/m2          W/m2       degree/day
  51    .06700       19.7492        0.0000      344.8128      344.8128     325.063680       0.00000
  50    .07753       19.7491        0.0000      344.8128      344.8128     325.063680       0.00000
  49    .09103       19.7491        0.0001      344.8127      344.8128     325.063680      -0.00000
  48    0.1069       19.7491        0.0001      344.8127      344.8128     325.063680       0.00000
  47    0.1255       19.7490        0.0001      344.8126      344.8127     325.063680       0.00000
  46    0.1487       19.7490        0.0002      344.8125      344.8127     325.063680      -0.00000
  45    0.1794       19.7489        0.0002      344.8124      344.8126     325.063680       0.00000
  44    0.2165       19.7489        0.0003      344.8122      344.8126     325.063680       0.00000
  43    0.2613       19.7488        0.0004      344.8121      344.8125     325.063680       0.00000
  42    0.3336       19.7487        0.0006      344.8118      344.8124     325.063680       0.00000
  41    0.4307       19.7485        0.0008      344.8114      344.8122     325.063680      -0.00000
  40    0.5894       19.7482        0.0011      344.8108      344.8119     325.063680       0.00000
  39     1.339       19.7469        0.0027      344.8078      344.8106     325.063680      -0.00000
  38     1.782       19.7461        0.0037      344.8061      344.8098     325.063680       0.00000
  37     2.292       19.7452        0.0048      344.8041      344.8089     325.063680       0.00000
  36     2.964       19.7440        0.0062      344.8014      344.8077     325.063680       0.00000
  35     3.853       19.7424        0.0081      344.7979      344.8061     325.063680      -0.00000
  34     5.035       19.7403        0.0107      344.7933      344.8040     325.063680      -0.00000
  33     6.613       19.7375        0.0141      344.7871      344.8011     325.063680       0.00000
  32     8.786       19.7337        0.0186      344.7787      344.7973     325.063680      -0.00000
  31     11.80       19.7282        0.0252      344.7667      344.7919     325.063680       0.00000
  30     15.07       19.7224        0.0322      344.7539      344.7861     325.063680       0.00000
  29     18.79       19.7158        0.0401      344.7393      344.7794     325.063680       0.00000
  28     23.16       19.7080        0.0494      344.7223      344.7717     325.063680      -0.00000
  27     28.12       19.6992        0.0601      344.7028      344.7628     325.063680       0.00000
  26     33.73       19.6892        0.0720      344.6809      344.7529     325.063680      -0.00000
  25     40.54       19.6772        0.0864      344.6545      344.7409     325.063680       0.00000
  24     48.69       19.6627        0.1038      344.6225      344.7264     325.063680       0.00000
  23     57.69       19.6467        0.1230      344.5874      344.7104     325.063680      -0.00000
  22     68.43       19.6277        0.1459      344.5455      344.6914     325.063680       0.00000
  21     81.20       19.6050        0.1731      344.4955      344.6686     325.063680      -0.00000
  20     96.49       19.5778        0.2057      344.4358      344.6415     325.063680       0.00000
  19     114.6       19.5455        0.2444      344.3587      344.6031     325.057594       0.00284
  18     136.5       19.5071        0.2904      344.2667      344.5571     325.050010       0.00292
  17     162.9       19.4613        0.3454      344.1533      344.4986     325.037327       0.00405
  16     196.4       19.4017        0.4168      343.9892      344.4060     325.004358       0.00830
  15     218.7       19.3624        0.4637      343.8402      344.3040     324.941511       0.02386
  14     243.0       19.3199        0.5147      343.5933      344.1080     324.788168       0.05318
  13     269.0       19.2740        0.5698      343.1662      343.7360     324.461965       0.10582
  12     297.5       19.2251        0.6291      342.4819      343.1110     323.885865       0.17086
  11     328.5       19.1730        0.6929      341.5922      342.2851     323.112089       0.21039
  10     361.9       19.1179        0.7613      340.5080      341.2692     322.151302       0.24309
   9     398.1       19.0604        0.8343      339.1885      340.0228     320.962399       0.27699
   8     437.6       19.0014        0.9117      337.5272      338.4389     319.437530       0.32603
   7     480.5       18.9420        0.9933      335.4327      336.4260     317.483990       0.38367
   6     533.0       18.8763        1.0914      332.3652      333.4566     314.580346       0.46710
   5     589.8       18.8188        1.1935      328.3420      329.5355     310.716720       0.57349
   4     651.6       18.7855        1.2966      322.7671      324.0637     305.278251       0.74373
   3     718.7       18.7967        1.3995      315.5619      316.9614     298.164689       0.89398
   2     792.3       18.8996        1.4995      306.5104      308.0098     289.110271       1.03844
   1     891.5       19.2957        1.6172      292.9732      294.5904     275.294691       1.17564
   0    1013.0       20.6033        1.7395      276.3074      278.0470     257.443687       1.23949



 Wavenumbers: 12850. - 16000. cm-1, ATM      1
 LEVEL PRESSURE   UPWARD FLUX   DIFDOWN FLUX  DIRDOWN FLUX  DOWNWARD FLUX   NET FLUX    HEATING RATE
          mb          W/m2          W/m2          W/m2        W/m2          W/m2       degree/day
  51    .06700       43.1624        0.0000      216.0557      216.0557     172.893290       0.00000
  50    .07753       43.1624        0.0001      216.0548      216.0549     172.892505       0.62987
  49    .09103       43.1624        0.0001      216.0538      216.0539     172.891514       0.61939
  48    0.1069       43.1623        0.0002      216.0525      216.0527     172.890370       0.60892
  47    0.1255       43.1623        0.0003      216.0510      216.0514     172.889049       0.59888
  46    0.1487       43.1623        0.0004      216.0492      216.0497     172.887372       0.61127
  45    0.1794       43.1623        0.0006      216.0467      216.0473     172.885072       0.63137
  44    0.2165       43.1622        0.0008      216.0438      216.0446     172.882340       0.62152
  43    0.2613       43.1622        0.0011      216.0403      216.0413     172.879091       0.61227
  42    0.3336       43.1622        0.0014      216.0345      216.0359     172.873710       0.62744
  41    0.4307       43.1622        0.0020      216.0269      216.0289     172.866608       0.61750
  40    0.5894       43.1624        0.0028      216.0146      216.0175     172.855076       0.61327
  39     1.339       43.1647        0.0069      215.9584      215.9652     172.800493       0.61450
  38     1.782       43.1673        0.0093      215.9258      215.9351     172.767773       0.62294
  37     2.292       43.1714        0.0120      215.8879      215.8999     172.728503       0.65041
  36     2.964       43.1786        0.0156      215.8370      215.8527     172.674095       0.68299
  35     3.853       43.1904        0.0204      215.7678      215.7883     172.597853       0.72355
  34     5.035       43.2085        0.0267      215.6752      215.7020     172.493462       0.74572
  33     6.613       43.2339        0.0352      215.5548      215.5900     172.356060       0.73455
  32     8.786       43.2669        0.0466      215.4027      215.4493     172.182382       0.67450
  31     11.80       43.3093        0.0629      215.2043      215.2672     171.957908       0.62846
  30     15.07       43.3493        0.0804      215.0098      215.0902     171.740972       0.56009
  29     18.79       43.3894        0.1002      214.8056      214.9058     171.516313       0.50937
  28     23.16       43.4306        0.1232      214.5841      214.7073     171.276708       0.46332
  27     28.12       43.4710        0.1496      214.3504      214.5000     171.028949       0.42117
  26     33.73       43.5066        0.1791      214.1164      214.2955     170.788888       0.36094
  25     40.54       43.5386        0.2148      213.8655      214.0803     170.541753       0.30660
  24     48.69       43.5662        0.2578      213.5943      213.8521     170.285877       0.26479
  23     57.69       43.5862        0.3052      213.3269      213.6321     170.045836       0.22500
  22     68.43       43.5987        0.3616      213.0419      213.4035     169.804789       0.18950
  21     81.20       43.5980        0.4289      212.7488      213.1777     169.579634       0.14878
  20     96.49       43.5829        0.5092      212.4447      212.9539     169.370946       0.11518
  19     114.6       43.5642        0.6052      212.1101      212.7153     169.151169       0.10262
  18     136.5       43.5356        0.7191      211.7382      212.4574     168.921772       0.08821
  17     162.9       43.4957        0.8548      211.3198      212.1746     168.678910       0.07763
  16     196.4       43.4316        1.0309      210.8156      211.8465     168.414855       0.06647
  15     218.7       43.3851        1.1467      210.4965      211.6431     168.258007       0.05955
  14     243.0       43.3326        1.2725      210.1519      211.4244     168.091848       0.05763
  13     269.0       43.2738        1.4089      209.7781      211.1869     167.913144       0.05797
  12     297.5       43.2089        1.5563      209.3683      210.9246     167.715722       0.05855
  11     328.5       43.1386        1.7156      208.9170      210.6326     167.494004       0.06028
  10     361.9       43.0633        1.8871      208.4189      210.3061     167.242809       0.06355
   9     398.1       42.9833        2.0717      207.8679      209.9397     166.956364       0.06674
   8     437.6       42.9001        2.2699      207.2544      209.5243     166.624197       0.07102
   7     480.5       42.8149        2.4821      206.5713      209.0534     166.238492       0.07575
   6     533.0       42.7182        2.7429      205.6883      208.4313     165.713035       0.08453
   5     589.8       42.6297        3.0231      204.6670      207.6901     165.060394       0.09687
   4     651.6       42.5676        3.3220      203.4324      206.7545     164.186868       0.11946
   3     718.7       42.5448        3.6386      201.9561      205.5947     163.049839       0.14289
   2     792.3       42.6029        3.9694      200.1346      204.1041     161.501188       0.17761
   1     891.5       42.8846        4.3994      197.2502      201.6497     158.765067       0.23283
   0    1013.0       43.6772        4.8916      193.2807      198.1723     154.495091       0.29649



 Wavenumbers: 16000. - 22650. cm-1, ATM      1
 LEVEL PRESSURE   UPWARD FLUX   DIFDOWN FLUX  DIRDOWN FLUX  DOWNWARD FLUX   NET FLUX    HEATING RATE
          mb          W/m2          W/m2          W/m2        W/m2          W/m2       degree/day
  51    .06700      168.6135        0.0000      344.4769      344.4769     175.863407       0.00000
  50    .07753      168.6135        0.0004      344.4763      344.4768     175.863246       0.12904
  49    .09103      168.6136        0.0010      344.4756      344.4766     175.863011       0.14635
  48    0.1069      168.6136        0.0016      344.4748      344.4763     175.862698       0.16689
  47    0.1255      168.6137        0.0023      344.4737      344.4760     175.862278       0.19024
  46    0.1487      168.6139        0.0032      344.4724      344.4756     175.861660       0.22543
  45    0.1794      168.6142        0.0044      344.4705      344.4749     175.860693       0.26542
  44    0.2165      168.6146        0.0058      344.4682      344.4740     175.859382       0.29831
  43    0.2613      168.6152        0.0075      344.4653      344.4728     175.857603       0.33537
  42    0.3336      168.6165        0.0104      344.4603      344.4707     175.854220       0.39440
  41    0.4307      168.6184        0.0141      344.4534      344.4675     175.849121       0.44335
  40    0.5894      168.6222        0.0202      344.4414      344.4616     175.839396       0.51716
  39     1.339      168.6528        0.0492      344.3711      344.4203     175.767539       0.80898
  38     1.782      168.6799        0.0663      344.3200      344.3862     175.706315       1.16561
  37     2.292      168.7200        0.0860      344.2517      344.3376     175.617677       1.46808
  36     2.964      168.7857        0.1118      344.1480      344.2598     175.474044       1.80302
  35     3.853      168.8912        0.1460      343.9913      344.1373     175.246042       2.16378
  34     5.035      169.0497        0.1913      343.7640      343.9553     174.905675       2.43144
  33     6.613      169.2707        0.2519      343.4511      343.7030     174.432257       2.53089
  32     8.786      169.5589        0.3334      343.0410      343.3744     173.815528       2.39516
  31     11.80      169.9351        0.4500      342.4947      342.9447     173.009646       2.25621
  30     15.07      170.2968        0.5752      341.9547      342.5299     172.233111       2.00486
  29     18.79      170.6675        0.7165      341.3868      342.1034     171.435890       1.80754
  28     23.16      171.0566        0.8816      340.7717      341.6533     170.596730       1.62266
  27     28.12      171.4503        1.0703      340.1241      341.1944     169.744100       1.44941
  26     33.73      171.8174        1.2816      339.4775      340.7592     168.941736       1.20638
  25     40.54      172.1758        1.5371      338.7859      340.3230     168.147235       0.98567
  24     48.69      172.5250        1.8452      338.0389      339.8841     167.359148       0.81555
  23     57.69      172.8283        2.1839      337.3015      339.4855     166.657113       0.65805
  22     68.43      173.1031        2.5876      336.5123      339.0999     165.996841       0.51906
  21     81.20      173.3117        3.0692      335.6921      338.7613     165.449612       0.36160
  20     96.49      173.4499        3.6436      334.8256      338.4692     165.019382       0.23746
  19     114.6      173.5559        4.3253      333.8560      338.1814     164.625525       0.18390
  18     136.5      173.6418        5.1325      332.7466      337.8791     164.237280       0.14929
  17     162.9      173.7072        6.0922      331.4625      337.5547     163.847475       0.12460
  16     196.4      173.7135        7.3352      329.8743      337.2095     163.495942       0.08849
  15     218.7      173.6880        8.1503      328.8601      337.0104     163.322345       0.06591
  14     243.0      173.6457        9.0350      327.7715      336.8065     163.160798       0.05603
  13     269.0      173.5844        9.9924      326.6061      336.5985     163.014060       0.04760
  12     297.5      173.5030       11.0253      325.3603      336.3856     162.882590       0.03899
  11     328.5      173.4062       12.1394      324.0212      336.1605     162.754312       0.03488
  10     361.9      173.2931       13.3366      322.5859      335.9225     162.629363       0.03161
   9     398.1      173.1627       14.6224      321.0470      335.6694     162.506689       0.02858
   8     437.6      173.0155       16.0003      319.3978      335.3981     162.382620       0.02653
   7     480.5      172.8501       17.4738      317.6330      335.1069     162.256729       0.02472
   6     533.0      172.6387       19.2832      315.4613      334.7445     162.105818       0.02428
   5     589.8      172.4059       21.2283      313.1151      334.3434     161.937513       0.02498
   4     651.6      172.1577       23.3135      310.5763      333.8898     161.732081       0.02809
   3     718.7      171.8998       25.5438      307.8270      333.3708     161.471060       0.03280
   2     792.3      171.6507       27.9201      304.8404      332.7605     161.109758       0.04144
   1     891.5      171.3918       31.1046      300.7148      331.8194     160.427577       0.05805
   0    1013.0      171.2111       34.8923      295.6311      330.5234     159.312271       0.07744



 Wavenumbers: 22650. - 29000. cm-1, ATM      1
 LEVEL PRESSURE   UPWARD FLUX   DIFDOWN FLUX  DIRDOWN FLUX  DOWNWARD FLUX   NET FLUX    HEATING RATE
          mb          W/m2          W/m2          W/m2        W/m2          W/m2       degree/day
  51    .06700       79.4794        0.0000      129.9930      129.9930      50.513605       0.00000
  50    .07753       79.4794        0.0005      129.9925      129.9930      50.513605       0.00000
  49    .09103       79.4794        0.0012      129.9918      129.9930      50.513605       0.00000
  48    0.1069       79.4794        0.0020      129.9910      129.9930      50.513605      -0.00000
  47    0.1255       79.4793        0.0028      129.9901      129.9929      50.513605       0.00000
  46    0.1487       79.4793        0.0039      129.9889      129.9929      50.513605       0.00000
  45    0.1794       79.4792        0.0055      129.9874      129.9928      50.513605       0.00000
  44    0.2165       79.4791        0.0073      129.9855      129.9927      50.513605      -0.00000
  43    0.2613       79.4790        0.0094      129.9833      129.9927      50.513605       0.00000
  42    0.3336       79.4789        0.0129      129.9796      129.9925      50.513605       0.00000
  41    0.4307       79.4787        0.0176      129.9747      129.9923      50.513605       0.00000
  40    0.5894       79.4784        0.0252      129.9668      129.9920      50.513605      -0.00000
  39     1.339       79.4769        0.0613      129.9292      129.9905      50.513605      -0.00000
  38     1.782       79.4760        0.0825      129.9071      129.9896      50.513605       0.00000
  37     2.292       79.4749        0.1070      129.8815      129.9885      50.513605       0.00000
  36     2.964       79.4736        0.1392      129.8480      129.9872      50.513605       0.00000
  35     3.853       79.4718        0.1817      129.8036      129.9854      50.513605      -0.00000
  34     5.035       79.4694        0.2383      129.7447      129.9830      50.513605       0.00000
  33     6.613       79.4661        0.3137      129.6660      129.9797      50.513605      -0.00000
  32     8.786       79.4618        0.4155      129.5599      129.9754      50.513605       0.00000
  31     11.80       79.4555        0.5609      129.4082      129.9691      50.513605       0.00000
  30     15.07       79.4486        0.7170      129.2453      129.9622      50.513605       0.00000
  29     18.79       79.4408        0.8931      129.0613      129.9544      50.513605      -0.00000
  28     23.16       79.4316        1.0987      128.8465      129.9452      50.513605       0.00000
  27     28.12       79.4210        1.3335      128.6010      129.9346      50.513605       0.00000
  26     33.73       79.4089        1.5959      128.3266      129.9225      50.513605       0.00000
  25     40.54       79.3940        1.9123      127.9953      129.9076      50.513605      -0.00000
  24     48.69       79.3758        2.2929      127.5965      129.8894      50.513605       0.00000
  23     57.69       79.3553        2.7097      127.1593      129.8689      50.513605       0.00000
  22     68.43       79.3304        3.2043      126.6397      129.8440      50.513605       0.00000
  21     81.20       79.2999        3.7911      126.0224      129.8135      50.513605      -0.00000
  20     96.49       79.2623        4.4864      125.2896      129.7759      50.513605      -0.00000
  19     114.6       79.2161        5.3064      124.4234      129.7298      50.513605       0.00000
  18     136.5       79.1591        6.2703      123.4024      129.6727      50.513605       0.00000
  17     162.9       79.0881        7.4070      122.1947      129.6017      50.513605      -0.00000
  16     196.4       78.9907        8.8625      120.6419      129.5043      50.513605      -0.00000
  15     218.7       78.9237        9.8070      119.6303      129.4373      50.513605       0.00000
  14     243.0       78.8479       10.8237      118.5379      129.3615      50.513605       0.00000
  13     269.0       78.7625       11.9137      117.3624      129.2761      50.513605       0.00000
  12     297.5       78.6662       13.0781      116.1018      129.1798      50.513605       0.00000
  11     328.5       78.5576       14.3207      114.7505      129.0712      50.513605      -0.00000
  10     361.9       78.4354       15.6407      113.3083      128.9490      50.513605       0.00000
   9     398.1       78.2976       17.0407      111.7705      128.8112      50.513605      -0.00000
   8     437.6       78.1425       18.5207      110.1353      128.6561      50.513605       0.00000
   7     480.5       77.9679       20.0804      108.4010      128.4815      50.513605       0.00000
   6     533.0       77.7411       21.9630      106.2917      128.2547      50.513605       0.00000
   5     589.8       77.4818       23.9472      104.0483      127.9954      50.513605      -0.00000
   4     651.6       77.1857       26.0293      101.6700      127.6993      50.513605       0.00000
   3     718.7       76.8477       28.2055       99.1558      127.3613      50.513605      -0.00000
   2     792.3       76.4625       30.4678       96.5083      126.9761      50.513605       0.00000
   1     891.5       75.9038       33.4110       93.0064      126.4174      50.513605       0.00000
   0    1013.0       75.1734       36.7788       88.9082      125.6870      50.513605      -0.00000



 Wavenumbers: 29000. - 38000. cm-1, ATM      1
 LEVEL PRESSURE   UPWARD FLUX   DIFDOWN FLUX  DIRDOWN FLUX  DOWNWARD FLUX   NET FLUX    HEATING RATE
          mb          W/m2          W/m2          W/m2        W/m2          W/m2       degree/day
  51    .06700       12.7699        0.0000       45.8410       45.8410      33.071082       0.00000
  50    .07753       12.7697        0.0003       45.8366       45.8370      33.067261       3.06276
  49    .09103       12.7696        0.0008       45.8305       45.8313      33.061698       3.47661
  48    0.1069       12.7694        0.0013       45.8223       45.8236      33.054246       3.96704
  47    0.1255       12.7692        0.0019       45.8116       45.8134      33.044268       4.52348
  46    0.1487       12.7689        0.0026       45.7959       45.7985      33.029564       5.35965
  45    0.1794       12.7686        0.0036       45.7716       45.7752      33.006603       6.30345
  44    0.2165       12.7683        0.0047       45.7391       45.7438      32.975530       7.06844
  43    0.2613       12.7680        0.0061       45.6954       45.7015      32.933524       7.91796
  42    0.3336       12.7675        0.0084       45.6134       45.6218      32.854221       9.24599
  41    0.4307       12.7671        0.0113       45.4920       45.5033      32.736202      10.26152
  40    0.5894       12.7667        0.0161       45.2670       45.2831      32.516345      11.69169
  39     1.339       12.7710        0.0370       43.8242       43.8612      31.090219      16.05559
  38     1.782       12.7773        0.0480       42.8351       42.8831      30.105771      18.74230
  37     2.292       12.7881        0.0600       41.6852       41.7452      28.957129      19.02451
  36     2.964       12.8072        0.0748       40.2943       40.3691      27.561810      17.51548
  35     3.853       12.8397        0.0934       38.7687       38.8621      26.022416      14.60913
  34     5.035       12.8898        0.1173       37.2304       37.3477      24.457876      11.17642
  33     6.613       12.9612        0.1484       35.7405       35.8889      22.927645       8.18061
  32     8.786       13.0558        0.1893       34.3295       34.5188      21.462920       5.68846
  31     11.80       13.1820        0.2467       32.9481       33.1948      20.012795       4.05989
  30     15.07       13.3071        0.3074       31.8942       32.2017      18.894557       2.88707
  29     18.79       13.4398        0.3748       30.9854       31.3603      17.920417       2.20868
  28     23.16       13.5853        0.4525       30.1559       30.6084      17.023113       1.73510
  27     28.12       13.7397        0.5403       29.4043       29.9446      16.204931       1.39085
  26     33.73       13.8907        0.6386       28.7514       29.3900      15.499263       1.06099
  25     40.54       14.0452        0.7572       28.1328       28.8900      14.844728       0.81202
  24     48.69       14.2041        0.8998       27.5340       28.4338      14.229746       0.63641
  23     57.69       14.3498        1.0562       26.9971       28.0532      13.703384       0.49339
  22     68.43       14.4892        1.2422       26.4694       27.7116      13.222364       0.37815
  21     81.20       14.6007        1.4655       25.9669       27.4323      12.831582       0.25822
  20     96.49       14.6790        1.7325       25.4748       27.2072      12.528271       0.16741
  19     114.6       14.7434        2.0458       24.9506       26.9964      12.253002       0.12853
  18     136.5       14.8013        2.4096       24.3745       26.7841      11.982809       0.10390
  17     162.9       14.8534        2.8332       23.7328       26.5660      11.712682       0.08634
  16     196.4       14.8783        3.3726       22.9761       26.3486      11.470302       0.06101
  15     218.7       14.8777        3.7176       22.5089       26.2265      11.348790       0.04613
  14     243.0       14.8687        4.0846       22.0192       26.1037      11.235002       0.03947
  13     269.0       14.8494        4.4730       21.5077       25.9808      11.131395       0.03361
  12     297.5       14.8184        4.8823       20.9749       25.8573      11.038837       0.02745
  11     328.5       14.7786        5.3112       20.4165       25.7276      10.949052       0.02441
  10     361.9       14.7289        5.7576       19.8338       25.5914      10.862578       0.02188
   9     398.1       14.6680        6.2209       19.2267       25.4476      10.779616       0.01933
   8     437.6       14.5955        6.6986       18.5955       25.2942      10.698711       0.01730
   7     480.5       14.5096        7.1888       17.9419       25.1307      10.621100       0.01524
   6     533.0       14.3936        7.7623       17.1671       24.9293      10.535725       0.01373
   5     589.8       14.2571        8.3429       16.3664       24.7093      10.452139       0.01241
   4     651.6       14.0984        8.9262       15.5420       24.4682      10.369789       0.01126
   3     718.7       13.9147        9.5061       14.6973       24.2033      10.288667       0.01019
   2     792.3       13.7030       10.0743       13.8375       23.9118      10.208828       0.00916
   1     891.5       13.3946       10.7611       12.7437       23.5049      10.110270       0.00839
   0    1013.0       12.9910       11.4644       11.5285       22.9928      10.001885       0.00753



 Wavenumbers: 38000. - 50000. cm-1, ATM      1
 LEVEL PRESSURE   UPWARD FLUX   DIFDOWN FLUX  DIRDOWN FLUX  DOWNWARD FLUX   NET FLUX    HEATING RATE
          mb          W/m2          W/m2          W/m2        W/m2          W/m2       degree/day
  51    .06700        0.0077        0.0000        2.8274        2.8274       2.819732       0.00000
  50    .07753        0.0076        0.0001        2.8250        2.8250       2.817394       1.87426
  49    .09103        0.0076        0.0002        2.8215        2.8216       2.814052       2.08853
  48    0.1069        0.0075        0.0003        2.8169        2.8172       2.809652       2.34203
  47    0.1255        0.0074        0.0004        2.8109        2.8113       2.803854       2.62885
  46    0.1487        0.0073        0.0005        2.8022        2.8027       2.795433       3.06948
  45    0.1794        0.0072        0.0007        2.7889        2.7896       2.782446       3.56531
  44    0.2165        0.0070        0.0009        2.7712        2.7721       2.765088       3.94851
  43    0.2613        0.0068        0.0012        2.7476        2.7487       2.741916       4.36792
  42    0.3336        0.0065        0.0015        2.7038        2.7053       2.698800       5.02689
  41    0.4307        0.0062        0.0020        2.6399        2.6419       2.635738       5.48307
  40    0.5894        0.0056        0.0027        2.5241        2.5268       2.521231       6.08937
  39     1.339        0.0038        0.0042        1.8543        1.8585       1.854685       7.50409
  38     1.782        0.0031        0.0041        1.4655        1.4696       1.466513       7.39018
  37     2.292        0.0024        0.0036        1.0872        1.0908       1.088339       6.26353
  36     2.964        0.0019        0.0030        0.7358        0.7388       0.736859       4.41214
  35     3.853        0.0015        0.0024        0.4711        0.4735       0.472010       2.51347
  34     5.035        0.0012        0.0019        0.2988        0.3008       0.299620       1.23148
  33     6.613        0.0009        0.0016        0.1889        0.1905       0.189608       0.58813
  32     8.786        0.0007        0.0013        0.1196        0.1208       0.120133       0.26981
  31     11.80        0.0005        0.0010        0.0741        0.0751       0.074563       0.12758
  30     15.07        0.0004        0.0008        0.0493        0.0501       0.049700       0.06419
  29     18.79        0.0003        0.0006        0.0330        0.0336       0.033348       0.03707
  28     23.16        0.0002        0.0004        0.0217        0.0221       0.021940       0.02206
  27     28.12        0.0001        0.0003        0.0140        0.0144       0.014212       0.01314
  26     33.73        0.0001        0.0002        0.0091        0.0093       0.009223       0.00750
  25     40.54        0.0001        0.0002        0.0057        0.0059       0.005793       0.00426
  24     48.69        0.0000        0.0001        0.0034        0.0035       0.003483       0.00239
  23     57.69        0.0000        0.0001        0.0020        0.0021       0.002088       0.00131
  22     68.43        0.0000        0.0000        0.0012        0.0012       0.001190       0.00071
  21     81.20        0.0000        0.0000        0.0006        0.0007       0.000647       0.00036
  20     96.49        0.0000        0.0000        0.0003        0.0003       0.000330       0.00018
  19     114.6        0.0000        0.0000        0.0001        0.0002       0.000151       0.00008
  18     136.5        0.0000        0.0000        0.0001        0.0001       0.000060       0.00003
  17     162.9        0.0000        0.0000        0.0000        0.0000       0.000020       0.00001
  16     196.4        0.0000        0.0000        0.0000        0.0000       0.000005       0.00000
  15     218.7        0.0000        0.0000        0.0000        0.0000       0.000002       0.00000
  14     243.0        0.0000        0.0000        0.0000        0.0000       0.000001       0.00000
  13     269.0        0.0000        0.0000        0.0000        0.0000       0.000000       0.00000
  12     297.5        0.0000        0.0000        0.0000        0.0000       0.000000       0.00000
  11     328.5        0.0000        0.0000        0.0000        0.0000       0.000000       0.00000
  10     361.9        0.0000        0.0000        0.0000        0.0000       0.000000       0.00000
   9     398.1        0.0000        0.0000        0.0000        0.0000       0.000000       0.00000
   8     437.6        0.0000        0.0000        0.0000        0.0000       0.000000       0.00000
   7     480.5        0.0000        0.0000        0.0000        0.0000       0.000000       0.00000
   6     533.0        0.0000        0.0000        0.0000        0.0000       0.000000       0.00000
   5     589.8        0.0000        0.0000        0.0000        0.0000       0.000000       0.00000
   4     651.6        0.0000        0.0000        0.0000        0.0000       0.000000       0.00000
   3     718.7        0.0000        0.0000        0.0000        0.0000       0.000000       0.00000
   2     792.3        0.0000        0.0000        0.0000        0.0000       0.000000       0.00000
   1     891.5        0.0000        0.0000        0.0000        0.0000       0.000000       0.00000
   0    1013.0        0.0000        0.0000        0.0000        0.0000       0.000000       0.00000



 Wavenumbers:   820. -  2600. cm-1, ATM      1
 LEVEL PRESSURE   UPWARD FLUX   DIFDOWN FLUX  DIRDOWN FLUX  DOWNWARD FLUX   NET FLUX    HEATING RATE
          mb          W/m2          W/m2          W/m2        W/m2          W/m2       degree/day
  51    .06700        0.2043        0.0000       13.2264       13.2264      13.022051       0.00000
  50    .07753        0.2043        0.0000       13.2194       13.2194      13.015029       5.62795
  49    .09103        0.2043        0.0000       13.2178       13.2178      13.013454       0.98410
  48    0.1069        0.2043        0.0000       13.2167       13.2167      13.012328       0.59956
  47    0.1255        0.2043        0.0000       13.2154       13.2154      13.011037       0.58515
  46    0.1487        0.2043        0.0000       13.2137       13.2137      13.009380       0.60401
  45    0.1794        0.2043        0.0000       13.2114       13.2114      13.007121       0.62011
  44    0.2165        0.2043        0.0000       13.2088       13.2088      13.004503       0.59556
  43    0.2613        0.2043        0.0000       13.2059       13.2059      13.001523       0.56188
  42    0.3336        0.2043        0.0000       13.2013       13.2013      12.996959       0.53209
  41    0.4307        0.2043        0.0000       13.1959       13.1959      12.991588       0.46695
  40    0.5894        0.2043        0.0000       13.1882       13.1882      12.983897       0.40902
  39     1.339        0.2043        0.0000       13.1557       13.1557      12.951361       0.36629
  38     1.782        0.2043        0.0000       13.1371       13.1371      12.932774       0.35387
  37     2.292        0.2043        0.0000       13.1162       13.1162      12.911828       0.34693
  36     2.964        0.2043        0.0000       13.0894       13.0894      12.885073       0.33585
  35     3.853        0.2043        0.0000       13.0549       13.0549      12.850572       0.32742
  34     5.035        0.2043        0.0000       13.0106       13.0106      12.806267       0.31650
  33     6.613        0.2043        0.0000       12.9545       12.9545      12.750150       0.30000
  32     8.786        0.2043        0.0000       12.8834       12.8834      12.679022       0.27624
  31     11.80        0.2043        0.0000       12.7885       12.7885      12.584119       0.26570
  30     15.07        0.2043        0.0000       12.6943       12.6944      12.490012       0.24297
  29     18.79        0.2043        0.0000       12.5999       12.5999      12.395553       0.21417
  28     23.16        0.2043        0.0000       12.5086       12.5086      12.304282       0.17649
  27     28.12        0.2043        0.0000       12.4288       12.4289      12.224503       0.13562
  26     33.73        0.2044        0.0000       12.3650       12.3650      12.160660       0.09599
  25     40.54        0.2044        0.0000       12.3120       12.3120      12.107638       0.06578
  24     48.69        0.2044        0.0000       12.2668       12.2668      12.062484       0.04673
  23     57.69        0.2044        0.0000       12.2260       12.2260      12.021632       0.03829
  22     68.43        0.2044        0.0000       12.1803       12.1803      11.975887       0.03596
  21     81.20        0.2044        0.0000       12.1270       12.1270      11.922636       0.03519
  20     96.49        0.2044        0.0000       12.0640       12.0640      11.859572       0.03481
  19     114.6        0.2044        0.0000       11.9885       11.9885      11.784134       0.03522
  18     136.5        0.2044        0.0000       11.8987       11.8988      11.694326       0.03453
  17     162.9        0.2045        0.0000       11.7817       11.7818      11.577289       0.03741
  16     196.4        0.2045        0.0000       11.5930       11.5930      11.388490       0.04752
  15     218.7        0.2046        0.0000       11.4055       11.4056      11.201002       0.07118
  14     243.0        0.2046        0.0000       11.1045       11.1045      10.899878       0.10444
  13     269.0        0.2048        0.0000       10.6901       10.6901      10.485354       0.13447
  12     297.5        0.2049        0.0000       10.2200       10.2201      10.015108       0.13947
  11     328.5        0.2052        0.0000        9.8187        9.8187       9.613519       0.10919
  10     361.9        0.2056        0.0000        9.4313        9.4313       9.225777       0.09810
   9     398.1        0.2060        0.0000        8.9858        8.9858       8.779767       0.10391
   8     437.6        0.2066        0.0000        8.4654        8.4654       8.258825       0.11138
   7     480.5        0.2074        0.0000        7.9394        7.9395       7.732127       0.10344
   6     533.0        0.2085        0.0000        7.4262        7.4262       7.217702       0.08275
   5     589.8        0.2102        0.0000        7.0503        7.0503       6.840166       0.05604
   4     651.6        0.2131        0.0000        6.7312        6.7313       6.518119       0.04404
   3     718.7        0.2182        0.0000        6.3693        6.3693       6.151082       0.04613
   2     792.3        0.2275        0.0000        5.9171        5.9172       5.689675       0.05292
   1     891.5        0.2513        0.0000        5.2716        5.2716       5.020310       0.05696
   0    1013.0        0.3164        0.0000        4.5136        4.5136       4.197221       0.05715

  Modules and versions used in this calculation:

       rrtmg_sw.1col.f90:  $Revision$                    rrtmg_sw_init.f90:  $Revision$        
     rrtmgsw_cldprop.f90:  $Revision$                  rrtmgsw_cldprmc.f90:  NOT USED          
     rrtmg_sw_reftra.f90:  $Revision$                  rrtmg_sw_spcvrt.f90:  NOT USED          
     rrtmg_sw_spcvmc.f90:  NOT USED                    rrtmgsw_setcoef.f90:  NOT USED          
     rrtmg_sw_taumol.f90:  $Revision$                  rrtmg_sw_vrtqdr.f90:  NOT USED          
                rrtatm.f:  NOT USED                             util_xxx.f:  NOT USED          
                 extra.f:  NOT USED                       rrtmg_sw_k_g.f90:  $Revision$        

