

 Wavenumbers:   820. - 50000. cm-1, ATM      1
 LEVEL PRESSURE   UPWARD FLUX   DIFDOWN FLUX  DIRDOWN FLUX  DOWNWARD FLUX   NET FLUX    HEATING RATE
          mb          W/m2          W/m2          W/m2        W/m2          W/m2       degree/day
  51    .06700      362.4558        0.0000      617.8126      617.8126     255.356754       0.00000
  50    .07753      362.4554        0.0013      617.7947      617.7960     255.340630      12.92335
  49    .09103      362.4548        0.0029      617.7778      617.7807     255.325844       9.24150
  48    0.1069      362.4542        0.0047      617.7581      617.7628     255.308615       9.17122
  47    0.1255      362.4535        0.0068      617.7340      617.7408     255.287314       9.65707
  46    0.1487      362.4527        0.0095      617.7009      617.7104     255.257692      10.79746
  45    0.1794      362.4517        0.0132      617.6521      617.6653     255.213561      12.11496
  44    0.2165      362.4506        0.0175      617.5895      617.6070     255.156376      13.00863
  43    0.2613      362.4494        0.0226      617.5089      617.5314     255.082048      14.01044
  42    0.3336      362.4477        0.0309      617.3641      617.3950     254.947316      15.70843
  41    0.4307      362.4458        0.0419      617.1591      617.2011     254.755226      16.70177
  40    0.5894      362.4436        0.0597      616.8005      616.8602     254.416556      18.01005
  39     1.339      362.4485        0.1397      614.9443      615.0840     252.635525      20.05118
  38     1.782      362.4620        0.1847      613.9670      614.1517     251.689727      18.00647
  37     2.292      362.4872        0.2357      613.0059      613.2416     250.754455      15.49054
  36     2.964      362.5346        0.3021      611.9577      612.2597     249.725094      12.92159
  35     3.853      362.6173        0.3890      610.8024      611.1914     248.574056      10.92356
  34     5.035      362.7469        0.5037      609.5327      610.0364     247.289455       9.17666
  33     6.613      362.9306        0.6558      608.1464      608.8023     245.871638       7.57965
  32     8.786      363.1693        0.8599      606.6250      607.4849     244.315611       6.04305
  31     11.80      363.4754        1.1502      604.8486      605.9989     242.523535       5.01725
  30     15.07      363.7628        1.4599      603.2440      604.7039     240.941125       4.08548
  29     18.79      364.0506        1.8083      601.6511      603.4594     239.408755       3.47435
  28     23.16      364.3445        2.2128      599.9927      602.2055     237.861016       2.99283
  27     28.12      364.6308        2.6730      598.2881      600.9610     236.330255       2.60219
  26     33.73      364.8784        3.1858      596.5951      599.7809     234.902476       2.14670
  25     40.54      365.0927        3.8029      594.7727      598.5756     233.482881       1.76117
  24     48.69      365.2689        4.5430      592.7865      597.3295     232.060539       1.47190
  23     57.69      365.3827        5.3514      590.7959      596.1473     230.764605       1.21474
  22     68.43      365.4318        6.3086      588.6191      594.9277     229.495927       0.99735
  21     81.20      365.3699        7.4427      586.2690      593.7116     228.341683       0.76271
  20     96.49      365.1848        8.7843      583.6961      592.4804     227.295539       0.57740
  19     114.6      364.9223       10.3610      580.7708      591.1319     226.209526       0.50709
  18     136.5      364.5746       12.2051      577.4359      589.6410     225.066405       0.43956
  17     162.9      364.1296       14.3662      573.5624      587.9286     223.799035       0.40510
  16     196.4      363.4808       17.1173      568.5907      585.7080     222.227247       0.39564
  15     218.7      363.0312       18.8931      565.0572      583.9503     220.919143       0.49664
  14     243.0      362.5354       20.7952      560.7495      581.5448     219.009399       0.66236
  13     269.0      361.9923       22.8242      555.3947      578.2189     216.226681       0.90270
  12     297.5      361.4035       24.9801      548.9964      573.9764     212.572968       1.08365
  11     328.5      360.7743       27.2679      542.0895      569.3575     208.583178       1.08481
  10     361.9      360.1078       29.6834      534.6242      564.3076     204.199802       1.10904
   9     398.1      359.4068       32.2296      526.4204      558.6500     199.243248       1.15477
   8     437.6      358.6803       34.9043      517.3907      552.2949     193.614660       1.20343
   7     480.5      357.9366       37.7043      507.7216      545.4258     187.489249       1.20301
   6     533.0      357.0852       41.0603      495.9006      536.9609     179.875683       1.22478
   5     589.8      356.2802       44.5690      483.0788      527.6479     171.367648       1.26287
   4     651.6      355.6359       48.2161      468.6907      516.9068     161.270857       1.38076
   3     718.7      355.2819       51.9912      453.2257      505.2169     149.934991       1.42460
   2     792.3      355.5236       55.8710      436.4928      492.3638     136.840213       1.50182
   1     891.5      357.4532       60.8494      413.9344      474.7838     117.330555       1.66018
   0    1013.0      363.8979       66.4598      388.4125      454.8723      90.974465       1.83004



 Wavenumbers:  2600. -  3250. cm-1, ATM      1
 LEVEL PRESSURE   UPWARD FLUX   DIFDOWN FLUX  DIRDOWN FLUX  DOWNWARD FLUX   NET FLUX    HEATING RATE
          mb          W/m2          W/m2          W/m2        W/m2          W/m2       degree/day
  51    .06700        1.2298        0.0000        5.4450        5.4450       4.215224       0.00000
  50    .07753        1.2298        0.0000        5.4450        5.4450       4.215216       0.00640
  49    .09103        1.2298        0.0000        5.4450        5.4450       4.215206       0.00627
  48    0.1069        1.2298        0.0000        5.4450        5.4450       4.215195       0.00613
  47    0.1255        1.2298        0.0000        5.4450        5.4450       4.215182       0.00599
  46    0.1487        1.2298        0.0000        5.4450        5.4450       4.215165       0.00608
  45    0.1794        1.2298        0.0000        5.4450        5.4450       4.215142       0.00625
  44    0.2165        1.2298        0.0000        5.4449        5.4449       4.215115       0.00612
  43    0.2613        1.2298        0.0000        5.4449        5.4449       4.215084       0.00600
  42    0.3336        1.2298        0.0000        5.4448        5.4448       4.215031       0.00617
  41    0.4307        1.2298        0.0000        5.4448        5.4448       4.214959       0.00620
  40    0.5894        1.2298        0.0000        5.4446        5.4446       4.214840       0.00637
  39     1.339        1.2298        0.0000        5.4439        5.4439       4.214132       0.00797
  38     1.782        1.2298        0.0000        5.4434        5.4434       4.213589       0.01034
  37     2.292        1.2298        0.0000        5.4427        5.4427       4.212873       0.01186
  36     2.964        1.2298        0.0000        5.4416        5.4416       4.211835       0.01304
  35     3.853        1.2298        0.0000        5.4402        5.4402       4.210357       0.01402
  34     5.035        1.2298        0.0000        5.4381        5.4381       4.208302       0.01468
  33     6.613        1.2298        0.0000        5.4353        5.4353       4.205520       0.01487
  32     8.786        1.2298        0.0000        5.4317        5.4317       4.201888       0.01411
  31     11.80        1.2298        0.0000        5.4269        5.4269       4.197107       0.01338
  30     15.07        1.2298        0.0000        5.4224        5.4224       4.192580       0.01169
  29     18.79        1.2298        0.0000        5.4180        5.4180       4.188167       0.01001
  28     23.16        1.2298        0.0000        5.4135        5.4135       4.183680       0.00868
  27     28.12        1.2298        0.0000        5.4088        5.4088       4.179030       0.00790
  26     33.73        1.2298        0.0000        5.4036        5.4036       4.173786       0.00788
  25     40.54        1.2298        0.0000        5.3966        5.3967       4.166840       0.00862
  24     48.69        1.2298        0.0000        5.3872        5.3872       4.157355       0.00981
  23     57.69        1.2298        0.0000        5.3754        5.3754       4.145560       0.01106
  22     68.43        1.2299        0.0000        5.3599        5.3599       4.130056       0.01219
  21     81.20        1.2299        0.0000        5.3401        5.3401       4.110200       0.01312
  20     96.49        1.2299        0.0000        5.3155        5.3155       4.085600       0.01358
  19     114.6        1.2300        0.0000        5.2853        5.2854       4.055357       0.01412
  18     136.5        1.2301        0.0001        5.2504        5.2505       4.020383       0.01345
  17     162.9        1.2302        0.0001        5.2111        5.2112       3.980941       0.01261
  16     196.4        1.2304        0.0001        5.1640        5.1641       3.933677       0.01190
  15     218.7        1.2307        0.0001        5.1331        5.1332       3.902520       0.01183
  14     243.0        1.2311        0.0001        5.0962        5.0963       3.865223       0.01294
  13     269.0        1.2317        0.0001        5.0511        5.0512       3.819471       0.01484
  12     297.5        1.2327        0.0001        4.9956        4.9957       3.763033       0.01674
  11     328.5        1.2340        0.0001        4.9304        4.9305       3.696481       0.01810
  10     361.9        1.2358        0.0001        4.8511        4.8512       3.615415       0.02051
   9     398.1        1.2383        0.0002        4.7507        4.7508       3.512563       0.02396
   8     437.6        1.2416        0.0002        4.6220        4.6222       3.380605       0.02821
   7     480.5        1.2461        0.0002        4.4625        4.4627       3.216574       0.03222
   6     533.0        1.2532        0.0002        4.2460        4.2462       2.993030       0.03596
   5     589.8        1.2637        0.0002        3.9954        3.9956       2.731869       0.03876
   4     651.6        1.2804        0.0002        3.7089        3.7091       2.428691       0.04146
   3     718.7        1.3061        0.0002        3.4018        3.4020       2.095894       0.04182
   2     792.3        1.3483        0.0002        3.0564        3.0566       1.708359       0.04445
   1     891.5        1.4437        0.0002        2.5828        2.5830       1.139364       0.04842
   0    1013.0        1.6678        0.0002        2.0845        2.0847       0.416942       0.05016



 Wavenumbers:  3250. -  4000. cm-1, ATM      1
 LEVEL PRESSURE   UPWARD FLUX   DIFDOWN FLUX  DIRDOWN FLUX  DOWNWARD FLUX   NET FLUX    HEATING RATE
          mb          W/m2          W/m2          W/m2        W/m2          W/m2       degree/day
  51    .06700        0.0005        0.0000        9.1795        9.1795       9.178984       0.00000
  50    .07753        0.0005        0.0000        9.1747        9.1747       9.174141       3.88148
  49    .09103        0.0005        0.0000        9.1713        9.1713       9.170754       2.11747
  48    0.1069        0.0005        0.0000        9.1688        9.1688       9.168229       1.34402
  47    0.1255        0.0005        0.0000        9.1665        9.1665       9.165969       1.02422
  46    0.1487        0.0005        0.0000        9.1641        9.1641       9.163528       0.88991
  45    0.1794        0.0005        0.0000        9.1612        9.1612       9.160650       0.79008
  44    0.2165        0.0005        0.0000        9.1583        9.1583       9.157730       0.66430
  43    0.2613        0.0005        0.0000        9.1553        9.1553       9.154757       0.56041
  42    0.3336        0.0005        0.0000        9.1511        9.1511       9.150578       0.48723
  41    0.4307        0.0005        0.0000        9.1464        9.1464       9.145810       0.41459
  40    0.5894        0.0005        0.0000        9.1393        9.1394       9.138804       0.37255
  39     1.339        0.0005        0.0000        9.1127        9.1127       9.112190       0.29962
  38     1.782        0.0005        0.0000        9.1011        9.1011       9.100602       0.22062
  37     2.292        0.0005        0.0000        9.0901        9.0901       9.089535       0.18329
  36     2.964        0.0005        0.0000        9.0776        9.0776       9.077106       0.15603
  35     3.853        0.0005        0.0000        9.0629        9.0629       9.062315       0.14036
  34     5.035        0.0005        0.0000        9.0441        9.0441       9.043577       0.13386
  33     6.613        0.0005        0.0000        9.0191        9.0191       9.018575       0.13366
  32     8.786        0.0005        0.0000        8.9843        8.9843       8.983791       0.13509
  31     11.80        0.0005        0.0000        8.9327        8.9327       8.932175       0.14451
  30     15.07        0.0005        0.0000        8.8758        8.8759       8.875330       0.14676
  29     18.79        0.0005        0.0000        8.8110        8.8110       8.810503       0.14698
  28     23.16        0.0005        0.0000        8.7365        8.7366       8.736058       0.14395
  27     28.12        0.0005        0.0000        8.6554        8.6555       8.654945       0.13789
  26     33.73        0.0005        0.0000        8.5719        8.5719       8.571445       0.12554
  25     40.54        0.0005        0.0001        8.4812        8.4812       8.480722       0.11255
  24     48.69        0.0005        0.0001        8.3838        8.3839       8.383420       0.10069
  23     57.69        0.0005        0.0001        8.2861        8.2862       8.285685       0.09161
  22     68.43        0.0005        0.0001        8.1751        8.1751       8.174689       0.08726
  21     81.20        0.0004        0.0001        8.0457        8.0458       8.045331       0.08548
  20     96.49        0.0004        0.0001        7.8949        7.8950       7.894627       0.08318
  19     114.6        0.0004        0.0001        7.7162        7.7163       7.715918       0.08344
  18     136.5        0.0004        0.0002        7.5193        7.5194       7.519074       0.07569
  17     162.9        0.0003        0.0002        7.2913        7.2915       7.291183       0.07284
  16     196.4        0.0003        0.0002        6.9660        6.9662       6.965910       0.08187
  15     218.7        0.0003        0.0002        6.6648        6.6650       6.664721       0.11435
  14     243.0        0.0003        0.0002        6.2619        6.2622       6.261927       0.13970
  13     269.0        0.0002        0.0003        5.7576        5.7579       5.757628       0.16359
  12     297.5        0.0002        0.0003        5.1719        5.1722       5.171937       0.17371
  11     328.5        0.0002        0.0002        4.5757        4.5760       4.575778       0.16209
  10     361.9        0.0002        0.0002        3.9995        3.9998       3.999602       0.14578
   9     398.1        0.0002        0.0002        3.4655        3.4657       3.465546       0.12442
   8     437.6        0.0002        0.0002        2.9740        2.9742       2.974098       0.10507
   7     480.5        0.0001        0.0002        2.5307        2.5309       2.530725       0.08708
   6     533.0        0.0001        0.0002        2.0614        2.0616       2.061429       0.07549
   5     589.8        0.0001        0.0002        1.6150        1.6151       1.614998       0.06626
   4     651.6        0.0001        0.0001        1.1565        1.1566       1.156449       0.06271
   3     718.7        0.0002        0.0001        0.7390        0.7391       0.738939       0.05247
   2     792.3        0.0003        0.0001        0.3985        0.3985       0.398262       0.03907
   1     891.5        0.0008        0.0000        0.1139        0.1139       0.113170       0.02426
   0    1013.0        0.0075        0.0000        0.0094        0.0094       0.001877       0.00773



 Wavenumbers:  4000. -  4650. cm-1, ATM      1
 LEVEL PRESSURE   UPWARD FLUX   DIFDOWN FLUX  DIRDOWN FLUX  DOWNWARD FLUX   NET FLUX    HEATING RATE
          mb          W/m2          W/m2          W/m2        W/m2          W/m2       degree/day
  51    .06700        4.9664        0.0000       10.7795       10.7795       5.813094       0.00000
  50    .07753        4.9664        0.0000       10.7795       10.7795       5.813093       0.00080
  49    .09103        4.9664        0.0000       10.7795       10.7795       5.813092       0.00078
  48    0.1069        4.9664        0.0000       10.7795       10.7795       5.813090       0.00076
  47    0.1255        4.9664        0.0000       10.7795       10.7795       5.813089       0.00075
  46    0.1487        4.9664        0.0000       10.7795       10.7795       5.813087       0.00076
  45    0.1794        4.9664        0.0000       10.7795       10.7795       5.813084       0.00078
  44    0.2165        4.9664        0.0000       10.7795       10.7795       5.813080       0.00076
  43    0.2613        4.9664        0.0000       10.7795       10.7795       5.813076       0.00075
  42    0.3336        4.9664        0.0000       10.7795       10.7795       5.813070       0.00077
  41    0.4307        4.9664        0.0000       10.7795       10.7795       5.813061       0.00077
  40    0.5894        4.9664        0.0000       10.7795       10.7795       5.813046       0.00080
  39     1.339        4.9664        0.0000       10.7794       10.7794       5.812957       0.00101
  38     1.782        4.9664        0.0000       10.7793       10.7793       5.812887       0.00133
  37     2.292        4.9664        0.0000       10.7792       10.7792       5.812793       0.00156
  36     2.964        4.9664        0.0000       10.7791       10.7791       5.812653       0.00176
  35     3.853        4.9664        0.0000       10.7789       10.7789       5.812445       0.00197
  34     5.035        4.9664        0.0000       10.7786       10.7786       5.812138       0.00219
  33     6.613        4.9664        0.0000       10.7781       10.7781       5.811686       0.00241
  32     8.786        4.9664        0.0000       10.7774       10.7774       5.811019       0.00259
  31     11.80        4.9664        0.0001       10.7763       10.7764       5.809972       0.00293
  30     15.07        4.9664        0.0001       10.7751       10.7752       5.808743       0.00317
  29     18.79        4.9664        0.0001       10.7736       10.7737       5.807257       0.00337
  28     23.16        4.9664        0.0001       10.7717       10.7718       5.805413       0.00357
  27     28.12        4.9664        0.0001       10.7695       10.7696       5.803180       0.00380
  26     33.73        4.9664        0.0002       10.7667       10.7668       5.800426       0.00414
  25     40.54        4.9664        0.0002       10.7629       10.7631       5.796692       0.00463
  24     48.69        4.9664        0.0002       10.7579       10.7581       5.791717       0.00515
  23     57.69        4.9664        0.0003       10.7520       10.7523       5.785819       0.00553
  22     68.43        4.9665        0.0003       10.7446       10.7449       5.778429       0.00581
  21     81.20        4.9666        0.0004       10.7355       10.7359       5.769330       0.00601
  20     96.49        4.9667        0.0004       10.7245       10.7249       5.758259       0.00611
  19     114.6        4.9668        0.0005       10.7107       10.7112       5.744416       0.00646
  18     136.5        4.9671        0.0006       10.6942       10.6948       5.727741       0.00641
  17     162.9        4.9675        0.0007       10.6740       10.6748       5.707296       0.00653
  16     196.4        4.9682        0.0009       10.6464       10.6473       5.679086       0.00710
  15     218.7        4.9688        0.0010       10.6255       10.6265       5.657611       0.00815
  14     243.0        4.9699        0.0011       10.5980       10.5992       5.629284       0.00982
  13     269.0        4.9714        0.0012       10.5611       10.5623       5.590861       0.01246
  12     297.5        4.9738        0.0014       10.5119       10.5133       5.539477       0.01524
  11     328.5        4.9771        0.0015       10.4499       10.4514       5.474268       0.01773
  10     361.9        4.9814        0.0016       10.3702       10.3718       5.390415       0.02122
   9     398.1        4.9867        0.0018       10.2678       10.2696       5.282826       0.02507
   8     437.6        4.9934        0.0019       10.1390       10.1409       5.147523       0.02893
   7     480.5        5.0017        0.0021        9.9877        9.9898       4.988120       0.03131
   6     533.0        5.0140        0.0023        9.7937        9.7960       4.781998       0.03316
   5     589.8        5.0310        0.0025        9.5752        9.5777       4.546632       0.03494
   4     651.6        5.0569        0.0027        9.2958        9.2985       4.241640       0.04171
   3     718.7        5.0969        0.0029        8.9267        8.9296       3.832754       0.05139
   2     792.3        5.1627        0.0031        8.4542        8.4573       3.294591       0.06172
   1     891.5        5.3136        0.0032        7.7948        7.7981       2.484421       0.06894
   0    1013.0        5.6641        0.0034        7.0767        7.0801       1.416018       0.07418



 Wavenumbers:  4650. -  5150. cm-1, ATM      1
 LEVEL PRESSURE   UPWARD FLUX   DIFDOWN FLUX  DIRDOWN FLUX  DOWNWARD FLUX   NET FLUX    HEATING RATE
          mb          W/m2          W/m2          W/m2        W/m2          W/m2       degree/day
  51    .06700        3.4970        0.0000       10.2033       10.2033       6.706368       0.00000
  50    .07753        3.4970        0.0000       10.2031       10.2031       6.706132       0.18901
  49    .09103        3.4970        0.0000       10.2028       10.2028       6.705837       0.18428
  48    0.1069        3.4970        0.0000       10.2025       10.2025       6.705500       0.17931
  47    0.1255        3.4970        0.0000       10.2021       10.2021       6.705116       0.17426
  46    0.1487        3.4970        0.0000       10.2016       10.2016       6.704635       0.17536
  45    0.1794        3.4970        0.0000       10.2010       10.2010       6.703985       0.17850
  44    0.2165        3.4970        0.0000       10.2002       10.2002       6.703225       0.17277
  43    0.2613        3.4970        0.0000       10.1993       10.1993       6.702340       0.16690
  42    0.3336        3.4970        0.0000       10.1979       10.1979       6.700907       0.16702
  41    0.4307        3.4970        0.0000       10.1960       10.1960       6.699067       0.16002
  40    0.5894        3.4970        0.0000       10.1932       10.1932       6.696193       0.15283
  39     1.339        3.4970        0.0000       10.1816       10.1816       6.684601       0.13050
  38     1.782        3.4970        0.0000       10.1760       10.1760       6.679073       0.10526
  37     2.292        3.4970        0.0000       10.1706       10.1706       6.673616       0.09037
  36     2.964        3.4970        0.0000       10.1646       10.1647       6.667693       0.07435
  35     3.853        3.4970        0.0000       10.1584       10.1584       6.661479       0.05898
  34     5.035        3.4970        0.0000       10.1521       10.1521       6.655143       0.04526
  33     6.613        3.4970        0.0000       10.1456       10.1456       6.648686       0.03452
  32     8.786        3.4970        0.0001       10.1386       10.1386       6.641674       0.02723
  31     11.80        3.4970        0.0001       10.1295       10.1296       6.632633       0.02531
  30     15.07        3.4970        0.0001       10.1196       10.1197       6.622752       0.02551
  29     18.79        3.4970        0.0001       10.1076       10.1077       6.610741       0.02723
  28     23.16        3.4970        0.0002       10.0923       10.0924       6.595431       0.02960
  27     28.12        3.4970        0.0002       10.0731       10.0733       6.576328       0.03247
  26     33.73        3.4970        0.0002       10.0500       10.0503       6.553223       0.03474
  25     40.54        3.4971        0.0003       10.0201       10.0204       6.523302       0.03712
  24     48.69        3.4972        0.0003        9.9820        9.9823       6.485103       0.03953
  23     57.69        3.4973        0.0004        9.9384        9.9388       6.441528       0.04085
  22     68.43        3.4975        0.0005        9.8858        9.8862       6.388743       0.04150
  21     81.20        3.4977        0.0005        9.8234        9.8240       6.326276       0.04128
  20     96.49        3.4980        0.0006        9.7518        9.7524       6.254349       0.03970
  19     114.6        3.4985        0.0007        9.6719        9.6727       6.174143       0.03745
  18     136.5        3.4992        0.0009        9.5858        9.5867       6.087484       0.03332
  17     162.9        3.5001        0.0010        9.4940        9.4951       5.994940       0.02958
  16     196.4        3.5016        0.0012        9.3883        9.3895       5.887900       0.02694
  15     218.7        3.5028        0.0014        9.3229        9.3243       5.821483       0.02522
  14     243.0        3.5044        0.0015        9.2520        9.2535       5.749107       0.02510
  13     269.0        3.5066        0.0017        9.1717        9.1733       5.666769       0.02671
  12     297.5        3.5097        0.0018        9.0763        9.0781       5.568431       0.02917
  11     328.5        3.5138        0.0020        8.9650        8.9670       5.453191       0.03133
  10     361.9        3.5191        0.0022        8.8349        8.8371       5.318011       0.03420
   9     398.1        3.5260        0.0024        8.6820        8.6844       5.158399       0.03719
   8     437.6        3.5349        0.0026        8.5028        8.5054       4.970426       0.04019
   7     480.5        3.5465        0.0028        8.2948        8.2976       4.751058       0.04308
   6     533.0        3.5641        0.0030        8.0209        8.0239       4.459829       0.04685
   5     589.8        3.5882        0.0032        7.7063        7.7095       4.121370       0.05024
   4     651.6        3.6233        0.0034        7.3412        7.3447       3.721353       0.05470
   3     718.7        3.6749        0.0036        6.9387        6.9423       3.267353       0.05706
   2     792.3        3.7532        0.0038        6.5066        6.5104       2.757227       0.05851
   1     891.5        3.9160        0.0040        5.9361        5.9401       2.024045       0.06239
   0    1013.0        4.2453        0.0042        5.3025        5.3066       1.061329       0.06685



 Wavenumbers:  5150. -  6150. cm-1, ATM      1
 LEVEL PRESSURE   UPWARD FLUX   DIFDOWN FLUX  DIRDOWN FLUX  DOWNWARD FLUX   NET FLUX    HEATING RATE
          mb          W/m2          W/m2          W/m2        W/m2          W/m2       degree/day
  51    .06700        8.9313        0.0000       25.5798       25.5798      16.648514       0.00000
  50    .07753        8.9313        0.0000       25.5798       25.5798      16.648474       0.03159
  49    .09103        8.9313        0.0000       25.5797       25.5797      16.648423       0.03208
  48    0.1069        8.9313        0.0000       25.5797       25.5797      16.648362       0.03259
  47    0.1255        8.9313        0.0000       25.5796       25.5796      16.648289       0.03309
  46    0.1487        8.9313        0.0000       25.5795       25.5795      16.648193       0.03486
  45    0.1794        8.9313        0.0000       25.5794       25.5794      16.648058       0.03710
  44    0.2165        8.9313        0.0000       25.5792       25.5792      16.647892       0.03767
  43    0.2613        8.9313        0.0000       25.5790       25.5790      16.647690       0.03824
  42    0.3336        8.9313        0.0000       25.5786       25.5786      16.647343       0.04041
  41    0.4307        8.9313        0.0000       25.5782       25.5782      16.646872       0.04095
  40    0.5894        8.9313        0.0000       25.5774       25.5774      16.646083       0.04196
  39     1.339        8.9313        0.0000       25.5735       25.5736      16.642282       0.04279
  38     1.782        8.9313        0.0001       25.5713       25.5714      16.640069       0.04213
  37     2.292        8.9313        0.0001       25.5688       25.5688      16.637564       0.04148
  36     2.964        8.9313        0.0001       25.5656       25.5657      16.634382       0.03994
  35     3.853        8.9313        0.0001       25.5615       25.5616      16.630338       0.03838
  34     5.035        8.9313        0.0002       25.5562       25.5564      16.625130       0.03720
  33     6.613        8.9313        0.0002       25.5494       25.5496      16.618374       0.03612
  32     8.786        8.9313        0.0003       25.5406       25.5409      16.609618       0.03400
  31     11.80        8.9312        0.0004       25.5287       25.5290      16.597776       0.03315
  30     15.07        8.9313        0.0005       25.5167       25.5172      16.585900       0.03066
  29     18.79        8.9313        0.0006       25.5042       25.5047      16.573484       0.02815
  28     23.16        8.9313        0.0007       25.4907       25.4914      16.560108       0.02586
  27     28.12        8.9313        0.0009       25.4764       25.4773      16.546003       0.02398
  26     33.73        8.9313        0.0010       25.4620       25.4631      16.531706       0.02150
  25     40.54        8.9314        0.0012       25.4463       25.4475      16.516068       0.01940
  24     48.69        8.9315        0.0015       25.4294       25.4309      16.499315       0.01734
  23     57.69        8.9317        0.0018       25.4126       25.4144      16.482677       0.01560
  22     68.43        8.9319        0.0021       25.3944       25.3965      16.464603       0.01421
  21     81.20        8.9322        0.0025       25.3744       25.3769      16.444707       0.01315
  20     96.49        8.9325        0.0029       25.3519       25.3549      16.422340       0.01235
  19     114.6        8.9330        0.0035       25.3262       25.3297      16.396682       0.01198
  18     136.5        8.9335        0.0041       25.2962       25.3003      16.366810       0.01149
  17     162.9        8.9342        0.0049       25.2521       25.2570      16.322801       0.01407
  16     196.4        8.9352        0.0059       25.1593       25.1652      16.230039       0.02335
  15     218.7        8.9359        0.0066       25.0159       25.0225      16.086623       0.05445
  14     243.0        8.9367        0.0072       24.7089       24.7161      15.779423       0.10655
  13     269.0        8.9378        0.0079       24.1619       24.1697      15.231942       0.17760
  12     297.5        8.9392        0.0085       23.4544       23.4629      14.523704       0.21006
  11     328.5        8.9410        0.0092       22.7355       22.7447      13.803662       0.19578
  10     361.9        8.9433        0.0099       21.9224       21.9323      12.989027       0.20611
   9     398.1        8.9461        0.0105       20.9939       21.0044      12.058278       0.21684
   8     437.6        8.9499        0.0111       19.9833       19.9944      11.044548       0.21674
   7     480.5        8.9548        0.0117       18.9483       18.9600      10.005227       0.20412
   6     533.0        8.9625        0.0124       17.7796       17.7920       8.829481       0.18914
   5     589.8        8.9741        0.0130       16.6726       16.6856       7.711558       0.16594
   4     651.6        8.9936        0.0137       15.6343       15.6480       6.654466       0.14456
   3     718.7        9.0265        0.0145       14.7738       14.7883       5.761774       0.11219
   2     792.3        9.0855        0.0154       14.0291       14.0445       4.959008       0.09207
   1     891.5        9.2337        0.0165       13.0822       13.0987       3.865020       0.09309
   0    1013.0        9.6449        0.0177       12.0384       12.0561       2.411213       0.10095



 Wavenumbers:  6150. -  7700. cm-1, ATM      1
 LEVEL PRESSURE   UPWARD FLUX   DIFDOWN FLUX  DIRDOWN FLUX  DOWNWARD FLUX   NET FLUX    HEATING RATE
          mb          W/m2          W/m2          W/m2        W/m2          W/m2       degree/day
  51    .06700       13.1494        0.0000       47.3109       47.3109      34.161449       0.00000
  50    .07753       13.1494        0.0000       47.3108       47.3108      34.161392       0.04553
  49    .09103       13.1494        0.0000       47.3107       47.3107      34.161319       0.04583
  48    0.1069       13.1494        0.0000       47.3106       47.3106      34.161232       0.04614
  47    0.1255       13.1494        0.0000       47.3105       47.3105      34.161130       0.04645
  46    0.1487       13.1494        0.0000       47.3104       47.3104      34.160996       0.04852
  45    0.1794       13.1494        0.0000       47.3102       47.3102      34.160810       0.05127
  44    0.2165       13.1494        0.0000       47.3100       47.3100      34.160583       0.05167
  43    0.2613       13.1494        0.0000       47.3097       47.3097      34.160306       0.05210
  42    0.3336       13.1494        0.0000       47.3092       47.3092      34.159837       0.05471
  41    0.4307       13.1494        0.0000       47.3085       47.3086      34.159202       0.05521
  40    0.5894       13.1494        0.0001       47.3074       47.3075      34.158143       0.05633
  39     1.339       13.1493        0.0002       47.3022       47.3024      34.153050       0.05733
  38     1.782       13.1493        0.0002       47.2991       47.2993      34.150080       0.05655
  37     2.292       13.1492        0.0003       47.2956       47.2959      34.146705       0.05591
  36     2.964       13.1492        0.0004       47.2912       47.2916      34.142386       0.05421
  35     3.853       13.1491        0.0005       47.2855       47.2859      34.136852       0.05252
  34     5.035       13.1490        0.0006       47.2780       47.2787      34.129671       0.05129
  33     6.613       13.1489        0.0008       47.2683       47.2691      34.120284       0.05019
  32     8.786       13.1487        0.0011       47.2556       47.2567      34.107984       0.04777
  31     11.80       13.1484        0.0015       47.2380       47.2395      34.091081       0.04732
  30     15.07       13.1481        0.0019       47.2201       47.2219      34.073794       0.04463
  29     18.79       13.1478        0.0023       47.2008       47.2031      34.055315       0.04190
  28     23.16       13.1475        0.0029       47.1795       47.1824      34.034925       0.03943
  27     28.12       13.1471        0.0035       47.1565       47.1600      34.012933       0.03739
  26     33.73       13.1466        0.0042       47.1324       47.1366      33.990012       0.03446
  25     40.54       13.1460        0.0050       47.1054       47.1104      33.964378       0.03180
  24     48.69       13.1453        0.0060       47.0754       47.0815      33.936127       0.02924
  23     57.69       13.1446        0.0072       47.0449       47.0521      33.907508       0.02683
  22     68.43       13.1437        0.0085       47.0110       47.0195      33.875775       0.02495
  21     81.20       13.1426        0.0101       46.9729       46.9829      33.840286       0.02345
  20     96.49       13.1414        0.0119       46.9294       46.9413      33.799954       0.02226
  19     114.6       13.1399        0.0142       46.8790       46.8932      33.753332       0.02177
  18     136.5       13.1381        0.0168       46.8200       46.8368      33.698727       0.02100
  17     162.9       13.1360        0.0200       46.7361       46.7561      33.620138       0.02512
  16     196.4       13.1333        0.0241       46.5703       46.5943      33.461023       0.04005
  15     218.7       13.1316        0.0267       46.3473       46.3740      33.242372       0.08301
  14     243.0       13.1300        0.0295       45.9299       45.9593      32.829369       0.14324
  13     269.0       13.1284        0.0322       45.1708       45.2030      32.074568       0.24485
  12     297.5       13.1273        0.0349       44.0115       44.0464      30.919068       0.34271
  11     328.5       13.1267        0.0376       42.7242       42.7619      29.635137       0.34910
  10     361.9       13.1270        0.0404       41.3539       41.3944      28.267373       0.34606
   9     398.1       13.1285        0.0431       39.7953       39.8384      26.709859       0.36287
   8     437.6       13.1322        0.0457       37.9948       38.0404      24.908255       0.38519
   7     480.5       13.1388        0.0481       36.0647       36.1128      22.973980       0.37988
   6     533.0       13.1522        0.0506       33.7773       33.8279      20.675690       0.36972
   5     589.8       13.1766        0.0530       31.4082       31.4612      18.284530       0.35493
   4     651.6       13.2237        0.0548       28.8834       28.9382      15.714479       0.35146
   3     718.7       13.3095        0.0565       26.4104       26.4669      13.157336       0.32136
   2     792.3       13.4690        0.0579       24.0056       24.0635      10.594504       0.29393
   1     891.5       13.8723        0.0595       21.2348       21.2943       7.422027       0.26996
   0    1013.0       14.9411        0.0613       18.6150       18.6763       3.735265       0.25599



 Wavenumbers:  7700. -  8050. cm-1, ATM      1
 LEVEL PRESSURE   UPWARD FLUX   DIFDOWN FLUX  DIRDOWN FLUX  DOWNWARD FLUX   NET FLUX    HEATING RATE
          mb          W/m2          W/m2          W/m2        W/m2          W/m2       degree/day
  51    .06700        7.0323        0.0000       11.1810       11.1810       4.148695       0.00000
  50    .07753        7.0323        0.0000       11.1809       11.1809       4.148673       0.01792
  49    .09103        7.0323        0.0000       11.1809       11.1809       4.148645       0.01757
  48    0.1069        7.0323        0.0000       11.1809       11.1809       4.148613       0.01720
  47    0.1255        7.0323        0.0000       11.1809       11.1809       4.148576       0.01683
  46    0.1487        7.0323        0.0000       11.1808       11.1808       4.148529       0.01708
  45    0.1794        7.0323        0.0000       11.1808       11.1808       4.148465       0.01757
  44    0.2165        7.0323        0.0000       11.1807       11.1807       4.148389       0.01724
  43    0.2613        7.0323        0.0000       11.1806       11.1806       4.148299       0.01691
  42    0.3336        7.0324        0.0000       11.1805       11.1805       4.148151       0.01731
  41    0.4307        7.0324        0.0000       11.1803       11.1804       4.147954       0.01712
  40    0.5894        7.0325        0.0000       11.1801       11.1801       4.147632       0.01710
  39     1.339        7.0328        0.0001       11.1788       11.1789       4.146111       0.01713
  38     1.782        7.0330        0.0001       11.1781       11.1782       4.145217       0.01701
  37     2.292        7.0332        0.0001       11.1772       11.1773       4.144183       0.01713
  36     2.964        7.0334        0.0002       11.1761       11.1762       4.142825       0.01705
  35     3.853        7.0338        0.0002       11.1746       11.1748       4.141031       0.01703
  34     5.035        7.0342        0.0003       11.1726       11.1729       4.138648       0.01702
  33     6.613        7.0349        0.0004       11.1700       11.1703       4.135464       0.01702
  32     8.786        7.0357        0.0005       11.1664       11.1669       4.131176       0.01665
  31     11.80        7.0369        0.0007       11.1613       11.1620       4.125045       0.01717
  30     15.07        7.0382        0.0009       11.1558       11.1567       4.118467       0.01698
  29     18.79        7.0397        0.0011       11.1497       11.1508       4.111043       0.01683
  28     23.16        7.0415        0.0013       11.1425       11.1438       4.102382       0.01675
  27     28.12        7.0435        0.0016       11.1343       11.1359       4.092492       0.01681
  26     33.73        7.0457        0.0019       11.1252       11.1271       4.081445       0.01661
  25     40.54        7.0484        0.0023       11.1142       11.1165       4.068126       0.01652
  24     48.69        7.0517        0.0028       11.1010       11.1038       4.052113       0.01657
  23     57.69        7.0553        0.0033       11.0866       11.0899       4.034580       0.01643
  22     68.43        7.0597        0.0039       11.0695       11.0735       4.013777       0.01635
  21     81.20        7.0649        0.0047       11.0494       11.0540       3.989105       0.01630
  20     96.49        7.0712        0.0055       11.0255       11.0311       3.959865       0.01614
  19     114.6        7.0787        0.0066       10.9975       11.0041       3.925369       0.01611
  18     136.5        7.0878        0.0078       10.9648       10.9726       3.884785       0.01561
  17     162.9        7.0987        0.0092       10.9263       10.9355       3.836862       0.01532
  16     196.4        7.1131        0.0111       10.8773       10.8884       3.775330       0.01549
  15     218.7        7.1227        0.0124       10.8455       10.8579       3.735243       0.01522
  14     243.0        7.1333        0.0137       10.8114       10.8251       3.691894       0.01503
  13     269.0        7.1449        0.0152       10.7749       10.7900       3.645094       0.01518
  12     297.5        7.1578        0.0167       10.7357       10.7524       3.594587       0.01498
  11     328.5        7.1721        0.0184       10.6937       10.7122       3.540026       0.01483
  10     361.9        7.1880        0.0202       10.6489       10.6691       3.481144       0.01490
   9     398.1        7.2056        0.0222       10.6008       10.6230       3.417388       0.01485
   8     437.6        7.2253        0.0243       10.5491       10.5734       3.348063       0.01482
   7     480.5        7.2475        0.0266       10.4934       10.5200       3.272530       0.01483
   6     533.0        7.2763        0.0293       10.4243       10.4536       3.177293       0.01532
   5     589.8        7.3099        0.0323       10.3479       10.3802       3.070267       0.01589
   4     651.6        7.3502        0.0355       10.2613       10.2968       2.946639       0.01691
   3     718.7        7.3994        0.0389       10.1618       10.2006       2.801224       0.01827
   2     792.3        7.4616        0.0425       10.0439       10.0864       2.624718       0.02024
   1     891.5        7.5660        0.0472        9.8626        9.9098       2.343828       0.02390
   0    1013.0        7.7304        0.0527        9.6103        9.6630       1.932595       0.02855



 Wavenumbers:  8050. - 12850. cm-1, ATM      1
 LEVEL PRESSURE   UPWARD FLUX   DIFDOWN FLUX  DIRDOWN FLUX  DOWNWARD FLUX   NET FLUX    HEATING RATE
          mb          W/m2          W/m2          W/m2        W/m2          W/m2       degree/day
  51    .06700       85.4830        0.0000      156.5418      156.5418      71.058767       0.00000
  50    .07753       85.4830        0.0000      156.5417      156.5417      71.058767       0.00000
  49    .09103       85.4830        0.0001      156.5417      156.5417      71.058767      -0.00000
  48    0.1069       85.4829        0.0001      156.5416      156.5417      71.058767       0.00000
  47    0.1255       85.4829        0.0002      156.5415      156.5417      71.058767      -0.00000
  46    0.1487       85.4829        0.0002      156.5414      156.5417      71.058767      -0.00000
  45    0.1794       85.4828        0.0003      156.5413      156.5416      71.058767       0.00000
  44    0.2165       85.4828        0.0004      156.5412      156.5416      71.058767      -0.00000
  43    0.2613       85.4828        0.0005      156.5410      156.5415      71.058767       0.00000
  42    0.3336       85.4827        0.0007      156.5407      156.5414      71.058767       0.00000
  41    0.4307       85.4826        0.0010      156.5403      156.5413      71.058767      -0.00000
  40    0.5894       85.4824        0.0014      156.5397      156.5411      71.058767       0.00000
  39     1.339       85.4815        0.0035      156.5367      156.5402      71.058767      -0.00000
  38     1.782       85.4810        0.0047      156.5350      156.5397      71.058767      -0.00000
  37     2.292       85.4804        0.0061      156.5330      156.5391      71.058767       0.00000
  36     2.964       85.4796        0.0080      156.5303      156.5383      71.058767       0.00000
  35     3.853       85.4785        0.0104      156.5268      156.5373      71.058767      -0.00000
  34     5.035       85.4771        0.0137      156.5222      156.5359      71.058767       0.00000
  33     6.613       85.4753        0.0180      156.5160      156.5340      71.058767      -0.00000
  32     8.786       85.4728        0.0239      156.5076      156.5315      71.058767       0.00000
  31     11.80       85.4692        0.0323      156.4957      156.5279      71.058767       0.00000
  30     15.07       85.4653        0.0413      156.4828      156.5241      71.058767       0.00000
  29     18.79       85.4610        0.0515      156.4682      156.5197      71.058767      -0.00000
  28     23.16       85.4559        0.0634      156.4512      156.5146      71.058767      -0.00000
  27     28.12       85.4500        0.0771      156.4317      156.5088      71.058767      -0.00000
  26     33.73       85.4435        0.0924      156.4099      156.5022      71.058767      -0.00000
  25     40.54       85.4356        0.1109      156.3834      156.4943      71.058767       0.00000
  24     48.69       85.4260        0.1332      156.3515      156.4848      71.058767       0.00000
  23     57.69       85.4155        0.1578      156.3164      156.4742      71.058767      -0.00000
  22     68.43       85.4029        0.1871      156.2746      156.4617      71.058767      -0.00000
  21     81.20       85.3880        0.2221      156.2246      156.4467      71.058767       0.00000
  20     96.49       85.3701        0.2639      156.1649      156.4288      71.058767       0.00000
  19     114.6       85.3490        0.3136      156.0879      156.4015      71.052572       0.00289
  18     136.5       85.3239        0.3726      155.9962      156.3688      71.044885       0.00296
  17     162.9       85.2940        0.4430      155.8831      156.3261      71.032122       0.00408
  16     196.4       85.2551        0.5346      155.7199      156.2545      70.999386       0.00824
  15     218.7       85.2298        0.5948      155.5733      156.1681      70.938347       0.02317
  14     243.0       85.2026        0.6602      155.3367      155.9969      70.794351       0.04994
  13     269.0       85.1741        0.7310      154.9514      155.6824      70.508312       0.09279
  12     297.5       85.1454        0.8072      154.3896      155.1968      70.051389       0.13552
  11     328.5       85.1170        0.8893      153.7151      154.6044      69.487395       0.15335
  10     361.9       85.0903        0.9774      152.9087      153.8862      68.795897       0.17496
   9     398.1       85.0674        1.0717      151.8986      152.9703      67.902851       0.20806
   8     437.6       85.0523        1.1719      150.6031      151.7750      66.722670       0.25233
   7     480.5       85.0497        1.2778      149.0014      150.2792      65.229489       0.29326
   6     533.0       85.0718        1.4058      146.7375      148.1433      63.071567       0.34714
   5     589.8       85.1421        1.5399      143.8730      145.4128      60.270791       0.41573
   4     651.6       85.3145        1.6773      140.0955      141.7728      56.458309       0.52137
   3     718.7       85.6590        1.8168      135.5278      137.3446      51.685671       0.59979
   2     792.3       86.3287        1.9551      130.0690      132.0241      45.695404       0.68702
   1     891.5       88.0334        2.1225      122.1273      124.2498      36.216388       0.80662
   0    1013.0       92.2028        2.3023      112.9512      115.2535      23.050697       0.91416



 Wavenumbers: 12850. - 16000. cm-1, ATM      1
 LEVEL PRESSURE   UPWARD FLUX   DIFDOWN FLUX  DIRDOWN FLUX  DOWNWARD FLUX   NET FLUX    HEATING RATE
          mb          W/m2          W/m2          W/m2        W/m2          W/m2       degree/day
  51    .06700       65.8317        0.0000       98.0872       98.0872      32.255519       0.00000
  50    .07753       65.8317        0.0001       98.0864       98.0864      32.254730       0.63205
  49    .09103       65.8317        0.0001       98.0853       98.0854      32.253741       0.61865
  48    0.1069       65.8317        0.0002       98.0841       98.0843      32.252604       0.60494
  47    0.1255       65.8317        0.0004       98.0826       98.0830      32.251299       0.59146
  46    0.1487       65.8317        0.0005       98.0809       98.0813      32.249654       0.59959
  45    0.1794       65.8317        0.0007       98.0784       98.0791      32.247419       0.61367
  44    0.2165       65.8317        0.0009       98.0756       98.0765      32.244793       0.59745
  43    0.2613       65.8318        0.0012       98.0723       98.0735      32.241708       0.58138
  42    0.3336       65.8320        0.0016       98.0670       98.0686      32.236683       0.58590
  41    0.4307       65.8322        0.0022       98.0602       98.0624      32.230198       0.56388
  40    0.5894       65.8327        0.0032       98.0496       98.0527      32.220010       0.54180
  39     1.339       65.8377        0.0077       98.0043       98.0120      32.174358       0.51395
  38     1.782       65.8423        0.0103       97.9793       97.9896      32.147287       0.51540
  37     2.292       65.8494        0.0134       97.9498       97.9632      32.113799       0.55464
  36     2.964       65.8612        0.0174       97.9088       97.9263      32.065078       0.61160
  35     3.853       65.8803        0.0228       97.8503       97.8731      31.992786       0.68607
  34     5.035       65.9092        0.0298       97.7680       97.7978      31.888576       0.74443
  33     6.613       65.9497        0.0393       97.6562       97.6955      31.745779       0.76339
  32     8.786       66.0023        0.0520       97.5107       97.5626      31.560371       0.72006
  31     11.80       66.0706        0.0701       97.3179       97.3880      31.317410       0.68021
  30     15.07       66.1358        0.0896       97.1283       97.2179      31.082111       0.60750
  29     18.79       66.2022        0.1116       96.9300       97.0416      30.839361       0.55039
  28     23.16       66.2714        0.1372       96.7166       96.8538      30.582371       0.49694
  27     28.12       66.3407        0.1665       96.4935       96.6600      30.319286       0.44723
  26     33.73       66.4042        0.1993       96.2731       96.4724      30.068143       0.37760
  25     40.54       66.4647        0.2389       96.0408       96.2797      29.814920       0.31415
  24     48.69       66.5219        0.2866       95.7946       96.0812      29.559293       0.26453
  23     57.69       66.5694        0.3391       95.5573       95.8963      29.326953       0.21778
  22     68.43       66.6093        0.4015       95.3106       95.7121      29.102804       0.17621
  21     81.20       66.6342        0.4760       95.0643       95.5404      28.906176       0.12993
  20     96.49       66.6428        0.5649       94.8153       95.3802      28.737379       0.09316
  19     114.6       66.6542        0.6715       94.5411       95.2125      28.558366       0.08359
  18     136.5       66.6580        0.7978       94.2320       95.0298      28.371824       0.07173
  17     162.9       66.6536        0.9481       93.8753       94.8234      28.169805       0.06457
  16     196.4       66.6292        1.1430       93.4347       94.5777      27.948531       0.05570
  15     218.7       66.6063        1.2710       93.1513       94.4223      27.815984       0.05032
  14     243.0       66.5785        1.4100       92.8439       94.2540      27.675527       0.04872
  13     269.0       66.5455        1.5607       92.5111       94.0718      27.526312       0.04840
  12     297.5       66.5077        1.7235       92.1495       93.8730      27.365215       0.04778
  11     328.5       66.4666        1.8993       91.7554       93.6547      27.188082       0.04816
  10     361.9       66.4227        2.0885       91.3262       93.4147      26.992056       0.04960
   9     398.1       66.3769        2.2921       90.8575       93.1496      26.772773       0.05109
   8     437.6       66.3312        2.5105       90.3418       92.8523      26.521156       0.05380
   7     480.5       66.2875        2.7444       89.7728       92.5172      26.229674       0.05725
   6     533.0       66.2445        3.0318       89.0428       92.0746      25.830115       0.06428
   5     589.8       66.2187        3.3405       88.2038       91.5444      25.325655       0.07488
   4     651.6       66.2336        3.6702       87.1979       90.8682      24.634551       0.09451
   3     718.7       66.3046        4.0193       86.0161       90.0354      23.730789       0.11358
   2     792.3       66.4817        4.3839       84.5970       88.9810      22.499253       0.14124
   1     891.5       66.9604        4.8577       82.4374       87.2952      20.334747       0.18419
   0    1013.0       68.0149        5.4005       79.6182       85.0187      17.003734       0.23129



 Wavenumbers: 16000. - 22650. cm-1, ATM      1
 LEVEL PRESSURE   UPWARD FLUX   DIFDOWN FLUX  DIRDOWN FLUX  DOWNWARD FLUX   NET FLUX    HEATING RATE
          mb          W/m2          W/m2          W/m2        W/m2          W/m2       degree/day
  51    .06700      115.1064        0.0000      156.3892      156.3892      41.282874       0.00000
  50    .07753      115.1063        0.0004      156.3887      156.3890      41.282738       0.10861
  49    .09103      115.1062        0.0008      156.3879      156.3888      41.282541       0.12319
  48    0.1069      115.1062        0.0014      156.3871      156.3884      41.282277       0.14048
  47    0.1255      115.1061        0.0020      156.3861      156.3880      41.281924       0.16013
  46    0.1487      115.1061        0.0027      156.3847      156.3875      41.281403       0.18975
  45    0.1794      115.1060        0.0038      156.3828      156.3866      41.280590       0.22341
  44    0.2165      115.1061        0.0051      156.3805      156.3855      41.279486       0.25109
  43    0.2613      115.1062        0.0065      156.3776      156.3842      41.277988       0.28228
  42    0.3336      115.1065        0.0090      156.3726      156.3816      41.275141       0.33196
  41    0.4307      115.1071        0.0122      156.3657      156.3779      41.270849       0.37316
  40    0.5894      115.1085        0.0175      156.3537      156.3712      41.262664       0.43527
  39     1.339      115.1239        0.0426      156.2834      156.3260      41.202194       0.68079
  38     1.782      115.1390        0.0574      156.2324      156.2897      41.150682       0.98069
  37     2.292      115.1624        0.0744      156.1641      156.2385      41.076122       1.23491
  36     2.964      115.2019        0.0968      156.0605      156.1573      40.955342       1.51615
  35     3.853      115.2667        0.1263      155.9041      156.0304      40.763714       1.81859
  34     5.035      115.3650        0.1655      155.6774      155.8429      40.477864       2.04199
  33     6.613      115.5027        0.2178      155.3656      155.5835      40.080703       2.12322
  32     8.786      115.6818        0.2882      154.9577      155.2459      39.564060       2.00645
  31     11.80      115.9138        0.3887      154.4153      154.8040      38.890238       1.88649
  30     15.07      116.1345        0.4965      153.8804      154.3769      38.242328       1.67278
  29     18.79      116.3585        0.6180      153.3191      153.9371      37.578575       1.50493
  28     23.16      116.5907        0.7596      152.7126      153.4722      36.881469       1.34798
  27     28.12      116.8219        0.9213      152.0755      152.9968      36.174838       1.20123
  26     33.73      117.0315        1.1020      151.4409      152.5429      35.511430       0.99745
  25     40.54      117.2277        1.3201      150.7637      152.0837      34.856073       0.81304
  24     48.69      117.4088        1.5826      150.0338      151.6164      34.207599       0.67107
  23     57.69      117.5543        1.8705      149.3151      151.1856      33.631341       0.54015
  22     68.43      117.6698        2.2129      148.5476      150.7605      33.090666       0.42504
  21     81.20      117.7284        2.6203      147.7517      150.3720      32.643632       0.29539
  20     96.49      117.7248        3.1052      146.9127      150.0178      32.292999       0.19352
  19     114.6      117.6830        3.6788      145.9763      149.6551      31.972141       0.14982
  18     136.5      117.6079        4.3558      144.9088      149.2646      31.656675       0.12130
  17     162.9      117.4954        5.1577      143.6785      148.8362      31.340868       0.10094
  16     196.4      117.2994        6.1914      142.1651      148.3564      31.057041       0.07144
  15     218.7      117.1524        6.8663      141.2033      148.0697      30.917305       0.05305
  14     243.0      116.9841        7.5964      140.1753      147.7717      30.787586       0.04499
  13     269.0      116.7930        8.3834      139.0797      147.4631      30.670072       0.03812
  12     297.5      116.5781        9.2291      137.9141      147.1432      30.565093       0.03114
  11     328.5      116.3420       10.1374      136.6676      146.8050      30.462986       0.02776
  10     361.9      116.0842       11.1089      135.3392      146.4481      30.363874       0.02508
   9     398.1      115.8035       12.1470      133.9235      146.0705      30.266947       0.02258
   8     437.6      115.5004       13.2535      132.4163      145.6697      30.169353       0.02087
   7     480.5      115.1738       14.4299      130.8147      145.2446      30.070829       0.01935
   6     533.0      114.7712       15.8648      128.8599      144.7247      29.953477       0.01888
   5     589.8      114.3396       17.3953      126.7679      144.1633      29.823670       0.01927
   4     651.6      113.8829       19.0224      124.5274      143.5499      29.666923       0.02144
   3     718.7      113.4050       20.7469      122.1285      142.8754      29.470384       0.02470
   2     792.3      112.9180       22.5659      119.5548      142.1208      29.202732       0.03070
   1     891.5      112.3216       24.9733      116.0566      141.0299      28.708304       0.04207
   0    1013.0      111.7049       27.7907      111.8404      139.6311      27.926218       0.05430



 Wavenumbers: 22650. - 29000. cm-1, ATM      1
 LEVEL PRESSURE   UPWARD FLUX   DIFDOWN FLUX  DIRDOWN FLUX  DOWNWARD FLUX   NET FLUX    HEATING RATE
          mb          W/m2          W/m2          W/m2        W/m2          W/m2       degree/day
  51    .06700       48.8500        0.0000       59.0156       59.0156      10.165619       0.00000
  50    .07753       48.8499        0.0004       59.0151       59.0155      10.165619      -0.00000
  49    .09103       48.8497        0.0010       59.0144       59.0153      10.165619       0.00000
  48    0.1069       48.8495        0.0016       59.0136       59.0152      10.165619       0.00000
  47    0.1255       48.8493        0.0023       59.0127       59.0150      10.165619       0.00000
  46    0.1487       48.8491        0.0032       59.0115       59.0147      10.165619      -0.00000
  45    0.1794       48.8488        0.0045       59.0099       59.0144      10.165619      -0.00000
  44    0.2165       48.8483        0.0059       59.0080       59.0140      10.165619       0.00000
  43    0.2613       48.8479        0.0077       59.0058       59.0135      10.165619      -0.00000
  42    0.3336       48.8471        0.0105       59.0022       59.0127      10.165619      -0.00000
  41    0.4307       48.8460        0.0143       58.9973       59.0116      10.165619       0.00000
  40    0.5894       48.8443        0.0205       58.9894       59.0099      10.165619       0.00000
  39     1.339       48.8361        0.0499       58.9518       59.0017      10.165619       0.00000
  38     1.782       48.8313        0.0672       58.9297       58.9969      10.165619      -0.00000
  37     2.292       48.8257        0.0872       58.9042       58.9914      10.165619       0.00000
  36     2.964       48.8184        0.1134       58.8706       58.9841      10.165619      -0.00000
  35     3.853       48.8088        0.1480       58.8264       58.9744      10.165619       0.00000
  34     5.035       48.7960        0.1940       58.7676       58.9616      10.165619       0.00000
  33     6.613       48.7789        0.2554       58.6891       58.9445      10.165619      -0.00000
  32     8.786       48.7559        0.3381       58.5834       58.9215      10.165619       0.00000
  31     11.80       48.7229        0.4561       58.4324       58.8885      10.165619       0.00000
  30     15.07       48.6876        0.5826       58.2706       58.8532      10.165619       0.00000
  29     18.79       48.6477        0.7251       58.0882       58.8134      10.165619       0.00000
  28     23.16       48.6013        0.8912       57.8757       58.7669      10.165619       0.00000
  27     28.12       48.5482        1.0805       57.6333       58.7138      10.165619       0.00000
  26     33.73       48.4889        1.2915       57.3631       58.6546      10.165619       0.00000
  25     40.54       48.4175        1.5453       57.0379       58.5832      10.165619      -0.00000
  24     48.69       48.3317        1.8495       56.6479       58.4974      10.165619       0.00000
  23     57.69       48.2379        2.1814       56.2221       58.4035      10.165619      -0.00000
  22     68.43       48.1266        2.5736       55.7186       58.2922      10.165619       0.00000
  21     81.20       47.9947        3.0365       55.1239       58.1604      10.165619       0.00000
  20     96.49       47.8388        3.5816       54.4228       58.0044      10.165619      -0.00000
  19     114.6       47.6551        4.2198       53.6010       57.8207      10.165619       0.00000
  18     136.5       47.4397        4.9635       52.6418       57.6053      10.165619       0.00000
  17     162.9       47.1862        5.8314       51.5203       57.3518      10.165619      -0.00000
  16     196.4       46.8624        6.9286       50.0994       57.0280      10.165619       0.00000
  15     218.7       46.6527        7.6321       49.1863       56.8184      10.165619       0.00000
  14     243.0       46.4274        8.3818       48.2113       56.5931      10.165619      -0.00000
  13     269.0       46.1863        9.1769       47.1749       56.3519      10.165619      -0.00000
  12     297.5       45.9290       10.0164       46.0783       56.0947      10.165619      -0.00000
  11     328.5       45.6549       10.9010       44.9195       55.8205      10.165619       0.00000
  10     361.9       45.3641       11.8279       43.7018       55.5297      10.165619       0.00000
   9     398.1       45.0560       12.7966       42.4250       55.2216      10.165619      -0.00000
   8     437.6       44.7305       13.8045       41.0916       54.8961      10.165619      -0.00000
   7     480.5       44.3876       14.8487       39.7045       54.5532      10.165619      -0.00000
   6     533.0       43.9735       16.0849       38.0543       54.1391      10.165619       0.00000
   5     589.8       43.5365       17.3591       36.3431       53.7021      10.165619       0.00000
   4     651.6       43.0770       18.6631       34.5795       53.2427      10.165619      -0.00000
   3     718.7       42.5951       19.9905       32.7702       52.7607      10.165619       0.00000
   2     792.3       42.0914       21.3315       30.9256       52.2570      10.165619       0.00000
   1     891.5       41.4301       23.0179       28.5778       51.5957      10.165619       0.00000
   0    1013.0       40.6625       24.8616       25.9665       50.8281      10.165619      -0.00000



 Wavenumbers: 29000. - 38000. cm-1, ATM      1
 LEVEL PRESSURE   UPWARD FLUX   DIFDOWN FLUX  DIRDOWN FLUX  DOWNWARD FLUX   NET FLUX    HEATING RATE
          mb          W/m2          W/m2          W/m2        W/m2          W/m2       degree/day
  51    .06700        7.5168        0.0000       20.8114       20.8114      13.294573       0.00000
  50    .07753        7.5166        0.0003       20.8070       20.8074      13.290768       3.05024
  49    .09103        7.5164        0.0007       20.8009       20.8016      13.285233       3.45935
  48    0.1069        7.5161        0.0012       20.7928       20.7939      13.277827       3.94255
  47    0.1255        7.5158        0.0017       20.7820       20.7837      13.267926       4.48833
  46    0.1487        7.5154        0.0023       20.7665       20.7688      13.253370       5.30602
  45    0.1794        7.5149        0.0032       20.7424       20.7456      13.230715       6.21914
  44    0.2165        7.5144        0.0042       20.7103       20.7146      13.200207       6.94009
  43    0.2613        7.5137        0.0055       20.6675       20.6730      13.159233       7.72353
  42    0.3336        7.5127        0.0075       20.5880       20.5955      13.082711       8.92170
  41    0.4307        7.5115        0.0101       20.4722       20.4823      12.970818       9.72880
  40    0.5894        7.5097        0.0143       20.2637       20.2780      12.768252      10.77223
  39     1.339        7.5049        0.0322       19.0984       19.1306      11.625665      12.86345
  38     1.782        7.5043        0.0415       18.4394       18.4808      10.976493      12.35919
  37     2.292        7.5056        0.0514       17.7714       17.8228      10.317216      10.91935
  36     2.964        7.5099        0.0636       17.0421       17.1057       9.595791       9.05606
  35     3.853        7.5194        0.0789       16.2678       16.3467       8.827272       7.29339
  34     5.035        7.5358        0.0982       15.4803       15.5785       8.042707       5.60461
  33     6.613        7.5599        0.1228       14.7157       14.8385       7.278557       4.08515
  32     8.786        7.5919        0.1550       13.9936       14.1486       6.556688       2.80348
  31     11.80        7.6334        0.1999       13.2835       13.4834       5.850040       1.97839
  30     15.07        7.6730        0.2463       12.7394       12.9856       5.312674       1.38737
  29     18.79        7.7135        0.2977       12.2666       12.5643       4.850746       1.04733
  28     23.16        7.7562        0.3560       11.8300       12.1860       4.429858       0.81386
  27     28.12        7.7992        0.4212       11.4279       11.8491       4.049872       0.64595
  26     33.73        7.8377        0.4930       11.0695       11.5624       3.724747       0.48883
  25     40.54        7.8723        0.5786       10.7209       11.2995       3.427184       0.36916
  24     48.69        7.9027        0.6801       10.3742       11.0543       3.151509       0.28528
  23     57.69        7.9248        0.7897       10.0549       10.8446       2.919782       0.21721
  22     68.43        7.9383        0.9181        9.7327       10.6508       2.712513       0.16294
  21     81.20        7.9350        1.0694        9.4134       10.4829       2.547829       0.10882
  20     96.49        7.9128        1.2470        9.0887       10.3357       2.422901       0.06895
  19     114.6        7.8784        1.4517        8.7388       10.1904       2.312092       0.05174
  18     136.5        7.8336        1.6849        8.3549       10.0398       2.206186       0.04072
  17     162.9        7.7779        1.9497        7.9311        9.8808       2.102952       0.03300
  16     196.4        7.6969        2.2762        7.4333        9.7095       2.012563       0.02275
  15     218.7        7.6414        2.4806        7.1295        9.6101       1.968684       0.01666
  14     243.0        7.5811        2.6934        6.8161        9.5094       1.928320       0.01400
  13     269.0        7.5157        2.9136        6.4943        9.4080       1.892223       0.01171
  12     297.5        7.4453        3.1401        6.1657        9.3058       1.860539       0.00940
  11     328.5        7.3708        3.3717        5.8295        9.2012       1.830345       0.00821
  10     361.9        7.2928        3.6059        5.4886        9.0945       1.801774       0.00723
   9     398.1        7.2110        3.8418        5.1440        8.9858       1.774846       0.00627
   8     437.6        7.1258        4.0779        4.7969        8.8749       1.749040       0.00552
   7     480.5        7.0376        4.3119        4.4504        8.7623       1.724701       0.00478
   6     533.0        6.9329        4.5750        4.0563        8.6312       1.698366       0.00424
   5     589.8        6.8249        4.8298        3.6682        8.4980       1.673090       0.00375
   4     651.6        6.7144        5.0725        3.2905        8.3630       1.648595       0.00335
   3     718.7        6.6013        5.3009        2.9252        8.2261       1.624853       0.00298
   2     792.3        6.4861        5.5116        2.5764        8.0880       1.601876       0.00264
   1     891.5        6.3393        5.7472        2.1659        7.9132       1.573906       0.00238
   0    1013.0        6.1743        5.9653        1.7526        7.7179       1.543581       0.00211



 Wavenumbers: 38000. - 50000. cm-1, ATM      1
 LEVEL PRESSURE   UPWARD FLUX   DIFDOWN FLUX  DIRDOWN FLUX  DOWNWARD FLUX   NET FLUX    HEATING RATE
          mb          W/m2          W/m2          W/m2        W/m2          W/m2       degree/day
  51    .06700        0.0061        0.0000        1.2836        1.2836       1.277518       0.00000
  50    .07753        0.0061        0.0001        1.2812        1.2812       1.275183       1.87150
  49    .09103        0.0060        0.0002        1.2777        1.2778       1.271851       2.08247
  48    0.1069        0.0059        0.0002        1.2731        1.2734       1.267473       2.33059
  47    0.1255        0.0058        0.0004        1.2672        1.2675       1.261717       2.60908
  46    0.1487        0.0057        0.0005        1.2586        1.2591       1.253391       3.03499
  45    0.1794        0.0055        0.0007        1.2455        1.2462       1.240623       3.50520
  44    0.2165        0.0054        0.0009        1.2282        1.2291       1.223697       3.85037
  43    0.2613        0.0052        0.0011        1.2054        1.2065       1.201348       4.21261
  42    0.3336        0.0049        0.0015        1.1639        1.1654       1.160524       4.75970
  41    0.4307        0.0045        0.0020        1.1051        1.1070       1.102565       5.03943
  40    0.5894        0.0039        0.0026        1.0039        1.0064       1.002524       5.32007
  39     1.339        0.0022        0.0035        0.5438        0.5473       0.545104       5.14971
  38     1.782        0.0016        0.0032        0.3635        0.3666       0.365006       3.42879
  37     2.292        0.0012        0.0027        0.2356        0.2383       0.237058       2.11916
  36     2.964        0.0009        0.0022        0.1455        0.1477       0.146786       1.13318
  35     3.853        0.0006        0.0017        0.0858        0.0875       0.086906       0.56828
  34     5.035        0.0004        0.0013        0.0488        0.0501       0.049701       0.26578
  33     6.613        0.0003        0.0010        0.0273        0.0282       0.027974       0.11615
  32     8.786        0.0002        0.0007        0.0144        0.0151       0.014928       0.05067
  31     11.80        0.0001        0.0004        0.0065        0.0070       0.006903       0.02247
  30     15.07        0.0000        0.0003        0.0031        0.0034       0.003329       0.00923
  29     18.79        0.0000        0.0002        0.0014        0.0016       0.001583       0.00396
  28     23.16        0.0000        0.0001        0.0006        0.0007       0.000720       0.00167
  27     28.12        0.0000        0.0001        0.0003        0.0003       0.000317       0.00069
  26     33.73        0.0000        0.0000        0.0001        0.0001       0.000140       0.00027
  25     40.54        0.0000        0.0000        0.0000        0.0001       0.000057       0.00010
  24     48.69        0.0000        0.0000        0.0000        0.0000       0.000021       0.00004
  23     57.69        0.0000        0.0000        0.0000        0.0000       0.000008       0.00001
  22     68.43        0.0000        0.0000        0.0000        0.0000       0.000003       0.00000
  21     81.20        0.0000        0.0000        0.0000        0.0000       0.000001       0.00000
  20     96.49        0.0000        0.0000        0.0000        0.0000       0.000000       0.00000
  19     114.6        0.0000        0.0000        0.0000        0.0000       0.000000       0.00000
  18     136.5        0.0000        0.0000        0.0000        0.0000       0.000000       0.00000
  17     162.9        0.0000        0.0000        0.0000        0.0000       0.000000       0.00000
  16     196.4        0.0000        0.0000        0.0000        0.0000       0.000000       0.00000
  15     218.7        0.0000        0.0000        0.0000        0.0000       0.000000       0.00000
  14     243.0        0.0000        0.0000        0.0000        0.0000       0.000000       0.00000
  13     269.0        0.0000        0.0000        0.0000        0.0000       0.000000       0.00000
  12     297.5        0.0000        0.0000        0.0000        0.0000       0.000000       0.00000
  11     328.5        0.0000        0.0000        0.0000        0.0000       0.000000       0.00000
  10     361.9        0.0000        0.0000        0.0000        0.0000       0.000000       0.00000
   9     398.1        0.0000        0.0000        0.0000        0.0000       0.000000       0.00000
   8     437.6        0.0000        0.0000        0.0000        0.0000       0.000000       0.00000
   7     480.5        0.0000        0.0000        0.0000        0.0000       0.000000       0.00000
   6     533.0        0.0000        0.0000        0.0000        0.0000       0.000000       0.00000
   5     589.8        0.0000        0.0000        0.0000        0.0000       0.000000       0.00000
   4     651.6        0.0000        0.0000        0.0000        0.0000       0.000000       0.00000
   3     718.7        0.0000        0.0000        0.0000        0.0000       0.000000       0.00000
   2     792.3        0.0000        0.0000        0.0000        0.0000       0.000000       0.00000
   1     891.5        0.0000        0.0000        0.0000        0.0000       0.000000       0.00000
   0    1013.0        0.0000        0.0000        0.0000        0.0000       0.000000       0.00000



 Wavenumbers:   820. -  2600. cm-1, ATM      1
 LEVEL PRESSURE   UPWARD FLUX   DIFDOWN FLUX  DIRDOWN FLUX  DOWNWARD FLUX   NET FLUX    HEATING RATE
          mb          W/m2          W/m2          W/m2        W/m2          W/m2       degree/day
  51    .06700        0.8551        0.0000        6.0047        6.0047       5.149556       0.00000
  50    .07753        0.8551        0.0000        6.0008        6.0008       5.145703       3.08821
  49    .09103        0.8551        0.0000        5.9999        5.9999       5.144818       0.55357
  48    0.1069        0.8551        0.0000        5.9989        5.9989       5.143829       0.52652
  47    0.1255        0.8551        0.0000        5.9978        5.9978       5.142711       0.50649
  46    0.1487        0.8551        0.0000        5.9964        5.9964       5.141355       0.49456
  45    0.1794        0.8551        0.0000        5.9947        5.9947       5.139635       0.47199
  44    0.2165        0.8551        0.0000        5.9929        5.9929       5.137793       0.41910
  43    0.2613        0.8551        0.0000        5.9909        5.9909       5.135834       0.36932
  42    0.3336        0.8551        0.0000        5.9880        5.9880       5.132956       0.33555
  41    0.4307        0.8551        0.0000        5.9846        5.9846       5.129486       0.30164
  40    0.5894        0.8551        0.0000        5.9791        5.9791       5.123981       0.29275
  39     1.339        0.8551        0.0000        5.9536        5.9536       5.098495       0.28693
  38     1.782        0.8551        0.0000        5.9395        5.9395       5.084356       0.26917
  37     2.292        0.8551        0.0000        5.9237        5.9237       5.068606       0.26088
  36     2.964        0.8551        0.0000        5.9039        5.9039       5.048832       0.24822
  35     3.853        0.8551        0.0000        5.8793        5.8793       5.024176       0.23399
  34     5.035        0.8551        0.0000        5.8487        5.8487       4.993614       0.21833
  33     6.613        0.8551        0.0000        5.8108        5.8108       4.955649       0.20296
  32     8.786        0.8551        0.0000        5.7631        5.7631       4.908026       0.18495
  31     11.80        0.8551        0.0000        5.7039        5.7039       4.848770       0.16590
  30     15.07        0.8551        0.0000        5.6539        5.6539       4.798731       0.12919
  29     18.79        0.8551        0.0000        5.6127        5.6127       4.757594       0.09327
  28     23.16        0.8552        0.0000        5.5794        5.5794       4.724215       0.06454
  27     28.12        0.8552        0.0000        5.5518        5.5518       4.696645       0.04687
  26     33.73        0.8552        0.0000        5.5268        5.5268       4.671587       0.03768
  25     40.54        0.8552        0.0000        5.4993        5.4993       4.644134       0.03406
  24     48.69        0.8552        0.0000        5.4678        5.4678       4.612581       0.03265
  23     57.69        0.8552        0.0000        5.4340        5.4340       4.578778       0.03169
  22     68.43        0.8553        0.0000        5.3947        5.3948       4.539485       0.03089
  21     81.20        0.8553        0.0000        5.3497        5.3497       4.494426       0.02977
  20     96.49        0.8553        0.0000        5.2982        5.2982       4.442881       0.02845
  19     114.6        0.8554        0.0000        5.2389        5.2389       4.383519       0.02772
  18     136.5        0.8555        0.0000        5.1716        5.1717       4.316212       0.02588
  17     162.9        0.8555        0.0000        5.0890        5.0890       4.233508       0.02644
  16     196.4        0.8557        0.0000        4.9668        4.9668       4.111142       0.03080
  15     218.7        0.8558        0.0000        4.8585        4.8585       4.002630       0.04120
  14     243.0        0.8561        0.0000        4.7078        4.7079       3.851768       0.05232
  13     269.0        0.8565        0.0000        4.5343        4.5343       3.677811       0.05643
  12     297.5        0.8571        0.0000        4.3419        4.3420       3.484875       0.05722
  11     328.5        0.8579        0.0000        4.1281        4.1281       3.270208       0.05837
  10     361.9        0.8591        0.0000        3.8786        3.8787       3.019595       0.06341
   9     398.1        0.8606        0.0000        3.6159        3.6159       2.755355       0.06156
   8     437.6        0.8626        0.0000        3.3759        3.3759       2.513304       0.05175
   7     480.5        0.8651        0.0000        3.1957        3.1958       2.330722       0.03586
   6     533.0        0.8689        0.0000        3.0467        3.0467       2.177789       0.02460
   5     589.8        0.8747        0.0000        2.9023        2.9023       2.027600       0.02229
   4     651.6        0.8852        0.0000        2.7183        2.7184       1.833144       0.02659
   3     718.7        0.9035        0.0000        2.5058        2.5059       1.602401       0.02900
   2     792.3        0.9370        0.0000        2.2756        2.2757       1.338661       0.03025
   1     891.5        1.0224        0.0000        1.9621        1.9622       0.939716       0.03395
   0    1013.0        1.2375        0.0000        1.5468        1.5469       0.309376       0.04377

  Modules and versions used in this calculation:

       rrtmg_sw.1col.f90:  $Revision$                    rrtmg_sw_init.f90:  $Revision$        
     rrtmgsw_cldprop.f90:  $Revision$                  rrtmgsw_cldprmc.f90:  NOT USED          
     rrtmg_sw_reftra.f90:  $Revision$                  rrtmg_sw_spcvrt.f90:  NOT USED          
     rrtmg_sw_spcvmc.f90:  NOT USED                    rrtmgsw_setcoef.f90:  NOT USED          
     rrtmg_sw_taumol.f90:  $Revision$                  rrtmg_sw_vrtqdr.f90:  NOT USED          
                rrtatm.f:  NOT USED                             util_xxx.f:  NOT USED          
                 extra.f:  NOT USED                       rrtmg_sw_k_g.f90:  $Revision$        

