

 Wavenumbers:   820. - 50000. cm-1, ATM      1
 LEVEL PRESSURE   UPWARD FLUX   DIFDOWN FLUX  DIRDOWN FLUX  DOWNWARD FLUX   NET FLUX    HEATING RATE
          mb          W/m2          W/m2          W/m2        W/m2          W/m2       degree/day
  51    .06700      391.5980        0.0000      617.8126      617.8126     226.214566       0.00000
  50    .07753      391.5976        0.0013      617.7947      617.7961     226.198429      12.93456
  49    .09103      391.5972        0.0030      617.7778      617.7808     226.183623       9.25429
  48    0.1069      391.5967        0.0050      617.7581      617.7630     226.166366       9.18589
  47    0.1255      391.5962        0.0072      617.7340      617.7412     226.145027       9.67388
  46    0.1487      391.5955        0.0100      617.7009      617.7109     226.115350      10.81748
  45    0.1794      391.5948        0.0138      617.6521      617.6659     226.071133      12.13863
  44    0.2165      391.5940        0.0184      617.5895      617.6079     226.013831      13.03534
  43    0.2613      391.5933        0.0237      617.5089      617.5326     225.939343      14.04059
  42    0.3336      391.5923        0.0325      617.3641      617.3966     225.804306      15.74403
  41    0.4307      391.5915        0.0441      617.1591      617.2032     225.611754      16.74195
  40    0.5894      391.5911        0.0628      616.8005      616.8633     225.272199      18.05712
  39     1.339      391.6070        0.1474      614.9443      615.0916     223.484584      20.12529
  38     1.782      391.6288        0.1949      613.9670      614.1619     222.533173      18.11333
  37     2.292      391.6651        0.2490      613.0059      613.2549     221.589788      15.62492
  36     2.964      391.7297        0.3194      611.9577      612.2770     220.547297      13.08640
  35     3.853      391.8386        0.4116      610.8024      611.2140     219.375434      11.12120
  34     5.035      392.0063        0.5333      609.5327      610.0660     218.059751       9.39869
  33     6.613      392.2426        0.6949      608.1464      608.8413     216.598674       7.81093
  32     8.786      392.5504        0.9116      606.6250      607.5366     214.986191       6.26230
  31     11.80      392.9487        1.2201      604.8486      606.0688     213.120120       5.22441
  30     15.07      393.3273        1.5494      603.2440      604.7934     211.466104       4.27035
  29     18.79      393.7111        1.9199      601.6511      603.5710     209.859876       3.64181
  28     23.16      394.1090        2.3503      599.9927      602.3430     208.233966       3.14399
  27     28.12      394.5050        2.8402      598.2881      601.1283     206.623283       2.73805
  26     33.73      394.8616        3.3864      596.5951      599.9815     205.119811       2.26051
  25     40.54      395.1918        4.0439      594.7727      598.8166     203.624782       1.85475
  24     48.69      395.4923        4.8329      592.7865      597.6194     202.127102       1.54986
  23     57.69      395.7276        5.6953      590.7959      596.4912     200.763605       1.27807
  22     68.43      395.9051        6.7170      588.6191      595.3361     199.430993       1.04761
  21     81.20      395.9737        7.9283      586.2690      594.1973     198.223534       0.79787
  20     96.49      395.9230        9.3624      583.6961      593.0585     197.135488       0.60052
  19     114.6      395.8105       11.0495      580.7708      591.8203     196.009839       0.52560
  18     136.5      395.6332       13.0248      577.4359      590.4607     194.827505       0.45464
  17     162.9      395.3847       15.3428      573.5624      588.9053     193.520615       0.41773
  16     196.4      394.9760       18.2987      568.5907      586.8894     191.913379       0.40456
  15     218.7      394.6789       20.2096      565.0572      585.2668     190.587944       0.50322
  14     243.0      394.3463       22.2591      560.7495      583.0086     188.662249       0.66789
  13     269.0      393.9777       24.4484      555.3947      579.8431     185.865410       0.90728
  12     297.5      393.5750       26.7783      548.9964      575.7747     182.199697       1.08721
  11     328.5      393.1459       29.2552      542.0895      571.3447     178.198813       1.08783
  10     361.9      392.6938       31.8751      534.6242      566.4993     173.805470       1.11156
   9     398.1      392.2227       34.6426      526.4204      561.0630     168.840300       1.15677
   8     437.6      391.7424       37.5564      517.3907      554.9470     163.204577       1.20495
   7     480.5      391.2618       40.6143      507.7216      548.3359     157.074082       1.20401
   6     533.0      390.7329       44.2904      495.9006      540.1910     149.458096       1.22517
   5     589.8      390.2731       48.1474      483.0788      531.2262     140.953075       1.26242
   4     651.6      389.9936       52.1728      468.6907      520.8634     130.869837       1.37891
   3     718.7      390.0179       56.3586      453.2257      509.5843     119.566446       1.42052
   2     792.3      390.6365       60.6832      436.4928      497.1760     106.539574       1.49404
   1     891.5      392.9910       66.2707      413.9344      480.2051      87.214037       1.64451
   0    1013.0      399.6717       72.6260      388.4125      461.0385      61.366762       1.79471



 Wavenumbers:  2600. -  3250. cm-1, ATM      1
 LEVEL PRESSURE   UPWARD FLUX   DIFDOWN FLUX  DIRDOWN FLUX  DOWNWARD FLUX   NET FLUX    HEATING RATE
          mb          W/m2          W/m2          W/m2        W/m2          W/m2       degree/day
  51    .06700        1.1039        0.0000        5.4450        5.4450       4.341092       0.00000
  50    .07753        1.1039        0.0000        5.4450        5.4450       4.341084       0.00640
  49    .09103        1.1039        0.0000        5.4450        5.4450       4.341074       0.00627
  48    0.1069        1.1039        0.0000        5.4450        5.4450       4.341062       0.00613
  47    0.1255        1.1039        0.0000        5.4450        5.4450       4.341049       0.00599
  46    0.1487        1.1039        0.0000        5.4450        5.4450       4.341032       0.00608
  45    0.1794        1.1039        0.0000        5.4450        5.4450       4.341009       0.00625
  44    0.2165        1.1039        0.0000        5.4449        5.4449       4.340982       0.00612
  43    0.2613        1.1039        0.0000        5.4449        5.4449       4.340951       0.00600
  42    0.3336        1.1039        0.0000        5.4448        5.4448       4.340898       0.00617
  41    0.4307        1.1039        0.0000        5.4448        5.4448       4.340826       0.00620
  40    0.5894        1.1039        0.0000        5.4446        5.4446       4.340707       0.00637
  39     1.339        1.1039        0.0000        5.4439        5.4439       4.339999       0.00797
  38     1.782        1.1039        0.0000        5.4434        5.4434       4.339456       0.01034
  37     2.292        1.1039        0.0000        5.4427        5.4427       4.338740       0.01186
  36     2.964        1.1039        0.0000        5.4416        5.4416       4.337702       0.01304
  35     3.853        1.1039        0.0000        5.4402        5.4402       4.336224       0.01402
  34     5.035        1.1039        0.0000        5.4381        5.4381       4.334169       0.01468
  33     6.613        1.1039        0.0000        5.4353        5.4353       4.331388       0.01487
  32     8.786        1.1039        0.0000        5.4317        5.4317       4.327755       0.01411
  31     11.80        1.1039        0.0000        5.4269        5.4269       4.322975       0.01338
  30     15.07        1.1039        0.0000        5.4224        5.4224       4.318448       0.01169
  29     18.79        1.1039        0.0000        5.4180        5.4180       4.314035       0.01001
  28     23.16        1.1039        0.0000        5.4135        5.4135       4.309548       0.00868
  27     28.12        1.1039        0.0000        5.4088        5.4088       4.304898       0.00790
  26     33.73        1.1039        0.0000        5.4036        5.4036       4.299655       0.00788
  25     40.54        1.1039        0.0000        5.3966        5.3967       4.292709       0.00862
  24     48.69        1.1040        0.0000        5.3872        5.3872       4.283226       0.00981
  23     57.69        1.1040        0.0000        5.3754        5.3754       4.271432       0.01105
  22     68.43        1.1040        0.0000        5.3599        5.3599       4.255931       0.01219
  21     81.20        1.1040        0.0000        5.3401        5.3401       4.236078       0.01312
  20     96.49        1.1041        0.0000        5.3155        5.3155       4.211483       0.01357
  19     114.6        1.1041        0.0000        5.2853        5.2854       4.181246       0.01412
  18     136.5        1.1042        0.0001        5.2504        5.2505       4.146282       0.01344
  17     162.9        1.1043        0.0001        5.2111        5.2112       4.106855       0.01260
  16     196.4        1.1045        0.0001        5.1640        5.1641       4.059615       0.01189
  15     218.7        1.1047        0.0001        5.1331        5.1332       4.028482       0.01182
  14     243.0        1.1051        0.0001        5.0962        5.0963       3.991229       0.01292
  13     269.0        1.1057        0.0001        5.0511        5.0512       3.945542       0.01482
  12     297.5        1.1065        0.0001        4.9956        4.9957       3.889204       0.01671
  11     328.5        1.1077        0.0001        4.9304        4.9305       3.822789       0.01806
  10     361.9        1.1093        0.0001        4.8511        4.8512       3.741908       0.02046
   9     398.1        1.1115        0.0002        4.7507        4.7508       3.639308       0.02390
   8     437.6        1.1145        0.0002        4.6220        4.6222       3.507691       0.02814
   7     480.5        1.1185        0.0002        4.4625        4.4627       3.344120       0.03212
   6     533.0        1.1249        0.0002        4.2460        4.2462       3.121306       0.03584
   5     589.8        1.1344        0.0002        3.9954        3.9956       2.861224       0.03860
   4     651.6        1.1493        0.0002        3.7089        3.7091       2.559750       0.04123
   3     718.7        1.1724        0.0002        3.4018        3.4020       2.229592       0.04149
   2     792.3        1.2103        0.0002        3.0564        3.0566       1.846372       0.04395
   1     891.5        1.2959        0.0002        2.5828        2.5830       1.287142       0.04759
   0    1013.0        1.4970        0.0002        2.0845        2.0847       0.587664       0.04857



 Wavenumbers:  3250. -  4000. cm-1, ATM      1
 LEVEL PRESSURE   UPWARD FLUX   DIFDOWN FLUX  DIRDOWN FLUX  DOWNWARD FLUX   NET FLUX    HEATING RATE
          mb          W/m2          W/m2          W/m2        W/m2          W/m2       degree/day
  51    .06700        0.0005        0.0000        9.1795        9.1795       9.178993       0.00000
  50    .07753        0.0005        0.0000        9.1747        9.1747       9.174150       3.88148
  49    .09103        0.0005        0.0000        9.1713        9.1713       9.170762       2.11747
  48    0.1069        0.0005        0.0000        9.1688        9.1688       9.168237       1.34402
  47    0.1255        0.0005        0.0000        9.1665        9.1665       9.165978       1.02422
  46    0.1487        0.0005        0.0000        9.1641        9.1641       9.163537       0.88991
  45    0.1794        0.0005        0.0000        9.1612        9.1612       9.160659       0.79008
  44    0.2165        0.0005        0.0000        9.1583        9.1583       9.157738       0.66430
  43    0.2613        0.0005        0.0000        9.1553        9.1553       9.154765       0.56041
  42    0.3336        0.0005        0.0000        9.1511        9.1511       9.150586       0.48723
  41    0.4307        0.0005        0.0000        9.1464        9.1464       9.145818       0.41459
  40    0.5894        0.0005        0.0000        9.1393        9.1394       9.138812       0.37255
  39     1.339        0.0005        0.0000        9.1127        9.1127       9.112199       0.29962
  38     1.782        0.0005        0.0000        9.1011        9.1011       9.100611       0.22062
  37     2.292        0.0005        0.0000        9.0901        9.0901       9.089544       0.18329
  36     2.964        0.0005        0.0000        9.0776        9.0776       9.077114       0.15603
  35     3.853        0.0005        0.0000        9.0629        9.0629       9.062324       0.14036
  34     5.035        0.0005        0.0000        9.0441        9.0441       9.043585       0.13386
  33     6.613        0.0005        0.0000        9.0191        9.0191       9.018583       0.13366
  32     8.786        0.0005        0.0000        8.9843        8.9843       8.983800       0.13509
  31     11.80        0.0005        0.0000        8.9327        8.9327       8.932183       0.14451
  30     15.07        0.0005        0.0000        8.8758        8.8759       8.875339       0.14676
  29     18.79        0.0005        0.0000        8.8110        8.8110       8.810511       0.14698
  28     23.16        0.0005        0.0000        8.7365        8.7366       8.736067       0.14395
  27     28.12        0.0005        0.0000        8.6554        8.6555       8.654954       0.13789
  26     33.73        0.0005        0.0000        8.5719        8.5719       8.571454       0.12554
  25     40.54        0.0005        0.0001        8.4812        8.4812       8.480730       0.11255
  24     48.69        0.0005        0.0001        8.3838        8.3839       8.383429       0.10069
  23     57.69        0.0005        0.0001        8.2861        8.2862       8.285694       0.09161
  22     68.43        0.0004        0.0001        8.1751        8.1751       8.174697       0.08726
  21     81.20        0.0004        0.0001        8.0457        8.0458       8.045339       0.08548
  20     96.49        0.0004        0.0001        7.8949        7.8950       7.894636       0.08318
  19     114.6        0.0004        0.0001        7.7162        7.7163       7.715926       0.08344
  18     136.5        0.0004        0.0002        7.5193        7.5194       7.519082       0.07569
  17     162.9        0.0003        0.0002        7.2913        7.2915       7.291191       0.07284
  16     196.4        0.0003        0.0002        6.9660        6.9662       6.965919       0.08187
  15     218.7        0.0003        0.0002        6.6648        6.6650       6.664730       0.11435
  14     243.0        0.0003        0.0002        6.2619        6.2622       6.261936       0.13970
  13     269.0        0.0002        0.0003        5.7576        5.7579       5.757636       0.16359
  12     297.5        0.0002        0.0003        5.1719        5.1722       5.171946       0.17371
  11     328.5        0.0002        0.0002        4.5757        4.5760       4.575786       0.16209
  10     361.9        0.0002        0.0002        3.9995        3.9998       3.999611       0.14578
   9     398.1        0.0002        0.0002        3.4655        3.4657       3.465555       0.12442
   8     437.6        0.0001        0.0002        2.9740        2.9742       2.974107       0.10507
   7     480.5        0.0001        0.0002        2.5307        2.5309       2.530734       0.08708
   6     533.0        0.0001        0.0002        2.0614        2.0616       2.061438       0.07549
   5     589.8        0.0001        0.0002        1.6150        1.6151       1.615008       0.06626
   4     651.6        0.0001        0.0001        1.1565        1.1566       1.156461       0.06271
   3     718.7        0.0001        0.0001        0.7390        0.7391       0.738955       0.05247
   2     792.3        0.0002        0.0001        0.3985        0.3985       0.398288       0.03907
   1     891.5        0.0007        0.0000        0.1139        0.1139       0.113250       0.02426
   0    1013.0        0.0067        0.0000        0.0094        0.0094       0.002645       0.00768



 Wavenumbers:  4000. -  4650. cm-1, ATM      1
 LEVEL PRESSURE   UPWARD FLUX   DIFDOWN FLUX  DIRDOWN FLUX  DOWNWARD FLUX   NET FLUX    HEATING RATE
          mb          W/m2          W/m2          W/m2        W/m2          W/m2       degree/day
  51    .06700        4.4585        0.0000       10.7795       10.7795       6.321075       0.00000
  50    .07753        4.4585        0.0000       10.7795       10.7795       6.321074       0.00080
  49    .09103        4.4585        0.0000       10.7795       10.7795       6.321072       0.00078
  48    0.1069        4.4585        0.0000       10.7795       10.7795       6.321071       0.00076
  47    0.1255        4.4585        0.0000       10.7795       10.7795       6.321069       0.00075
  46    0.1487        4.4585        0.0000       10.7795       10.7795       6.321067       0.00076
  45    0.1794        4.4585        0.0000       10.7795       10.7795       6.321064       0.00078
  44    0.2165        4.4585        0.0000       10.7795       10.7795       6.321061       0.00076
  43    0.2613        4.4585        0.0000       10.7795       10.7795       6.321057       0.00075
  42    0.3336        4.4585        0.0000       10.7795       10.7795       6.321050       0.00077
  41    0.4307        4.4585        0.0000       10.7795       10.7795       6.321042       0.00077
  40    0.5894        4.4585        0.0000       10.7795       10.7795       6.321027       0.00080
  39     1.339        4.4585        0.0000       10.7794       10.7794       6.320937       0.00101
  38     1.782        4.4585        0.0000       10.7793       10.7793       6.320867       0.00133
  37     2.292        4.4585        0.0000       10.7792       10.7792       6.320773       0.00156
  36     2.964        4.4585        0.0000       10.7791       10.7791       6.320633       0.00176
  35     3.853        4.4585        0.0000       10.7789       10.7789       6.320425       0.00197
  34     5.035        4.4585        0.0000       10.7786       10.7786       6.320118       0.00219
  33     6.613        4.4585        0.0000       10.7781       10.7781       6.319667       0.00241
  32     8.786        4.4584        0.0000       10.7774       10.7774       6.319000       0.00259
  31     11.80        4.4584        0.0001       10.7763       10.7764       6.317953       0.00293
  30     15.07        4.4584        0.0001       10.7751       10.7752       6.316724       0.00317
  29     18.79        4.4584        0.0001       10.7736       10.7737       6.315239       0.00337
  28     23.16        4.4584        0.0001       10.7717       10.7718       6.313395       0.00357
  27     28.12        4.4584        0.0001       10.7695       10.7696       6.311163       0.00379
  26     33.73        4.4584        0.0002       10.7667       10.7668       6.308411       0.00414
  25     40.54        4.4584        0.0002       10.7629       10.7631       6.304678       0.00463
  24     48.69        4.4584        0.0002       10.7579       10.7581       6.299707       0.00515
  23     57.69        4.4584        0.0003       10.7520       10.7523       6.293814       0.00552
  22     68.43        4.4585        0.0003       10.7446       10.7449       6.286430       0.00580
  21     81.20        4.4585        0.0004       10.7355       10.7359       6.277341       0.00601
  20     96.49        4.4586        0.0004       10.7245       10.7249       6.266285       0.00610
  19     114.6        4.4588        0.0005       10.7107       10.7112       6.252463       0.00645
  18     136.5        4.4590        0.0006       10.6942       10.6948       6.235819       0.00640
  17     162.9        4.4593        0.0007       10.6740       10.6747       6.215420       0.00652
  16     196.4        4.4599        0.0009       10.6464       10.6472       6.187290       0.00708
  15     218.7        4.4605        0.0010       10.6255       10.6264       6.165888       0.00813
  14     243.0        4.4615        0.0011       10.5980       10.5991       6.137672       0.00979
  13     269.0        4.4629        0.0012       10.5611       10.5623       6.099417       0.01241
  12     297.5        4.4650        0.0013       10.5119       10.5133       6.048281       0.01517
  11     328.5        4.4679        0.0014       10.4499       10.4513       5.983415       0.01764
  10     361.9        4.4718        0.0016       10.3702       10.3718       5.900009       0.02110
   9     398.1        4.4765        0.0017       10.2678       10.2695       5.792974       0.02494
   8     437.6        4.4825        0.0019       10.1390       10.1409       5.658363       0.02878
   7     480.5        4.4899        0.0020        9.9877        9.9897       5.499815       0.03114
   6     533.0        4.5009        0.0022        9.7937        9.7959       5.294962       0.03295
   5     589.8        4.5162        0.0024        9.5752        9.5776       5.061352       0.03468
   4     651.6        4.5394        0.0026        9.2958        9.2984       4.759015       0.04135
   3     718.7        4.5753        0.0028        8.9267        8.9295       4.354235       0.05087
   2     792.3        4.6344        0.0030        8.4542        8.4572       3.822822       0.06095
   1     891.5        4.7699        0.0031        7.7948        7.7980       3.028116       0.06763
   0    1013.0        5.0844        0.0033        7.0767        7.0800       1.995595       0.07169



 Wavenumbers:  4650. -  5150. cm-1, ATM      1
 LEVEL PRESSURE   UPWARD FLUX   DIFDOWN FLUX  DIRDOWN FLUX  DOWNWARD FLUX   NET FLUX    HEATING RATE
          mb          W/m2          W/m2          W/m2        W/m2          W/m2       degree/day
  51    .06700        3.1396        0.0000       10.2033       10.2033       7.063786       0.00000
  50    .07753        3.1396        0.0000       10.2031       10.2031       7.063551       0.18901
  49    .09103        3.1396        0.0000       10.2028       10.2028       7.063256       0.18428
  48    0.1069        3.1396        0.0000       10.2025       10.2025       7.062919       0.17931
  47    0.1255        3.1396        0.0000       10.2021       10.2021       7.062535       0.17426
  46    0.1487        3.1396        0.0000       10.2016       10.2016       7.062053       0.17536
  45    0.1794        3.1396        0.0000       10.2010       10.2010       7.061403       0.17850
  44    0.2165        3.1396        0.0000       10.2002       10.2002       7.060644       0.17277
  43    0.2613        3.1396        0.0000       10.1993       10.1993       7.059758       0.16690
  42    0.3336        3.1396        0.0000       10.1979       10.1979       7.058326       0.16702
  41    0.4307        3.1396        0.0000       10.1960       10.1960       7.056485       0.16002
  40    0.5894        3.1396        0.0000       10.1932       10.1932       7.053612       0.15283
  39     1.339        3.1396        0.0000       10.1816       10.1816       7.042020       0.13050
  38     1.782        3.1395        0.0000       10.1760       10.1760       7.036491       0.10526
  37     2.292        3.1395        0.0000       10.1706       10.1706       7.031035       0.09037
  36     2.964        3.1395        0.0000       10.1646       10.1647       7.025112       0.07435
  35     3.853        3.1395        0.0000       10.1584       10.1584       7.018898       0.05897
  34     5.035        3.1395        0.0000       10.1521       10.1521       7.012562       0.04526
  33     6.613        3.1395        0.0000       10.1456       10.1456       7.006105       0.03452
  32     8.786        3.1395        0.0001       10.1386       10.1386       6.999095       0.02723
  31     11.80        3.1395        0.0001       10.1295       10.1296       6.990054       0.02531
  30     15.07        3.1395        0.0001       10.1196       10.1197       6.980175       0.02551
  29     18.79        3.1395        0.0001       10.1076       10.1077       6.968166       0.02723
  28     23.16        3.1395        0.0002       10.0923       10.0924       6.952860       0.02960
  27     28.12        3.1396        0.0002       10.0731       10.0733       6.933762       0.03247
  26     33.73        3.1396        0.0002       10.0500       10.0503       6.910662       0.03473
  25     40.54        3.1396        0.0003       10.0201       10.0204       6.880749       0.03711
  24     48.69        3.1397        0.0003        9.9820        9.9823       6.842563       0.03952
  23     57.69        3.1398        0.0004        9.9384        9.9388       6.799003       0.04083
  22     68.43        3.1400        0.0004        9.8858        9.8862       6.746239       0.04148
  21     81.20        3.1402        0.0005        9.8234        9.8240       6.683801       0.04126
  20     96.49        3.1405        0.0006        9.7518        9.7524       6.611916       0.03968
  19     114.6        3.1409        0.0007        9.6719        9.6727       6.531766       0.03742
  18     136.5        3.1415        0.0009        9.5858        9.5867       6.445184       0.03329
  17     162.9        3.1423        0.0010        9.4940        9.4951       6.352746       0.02955
  16     196.4        3.1436        0.0012        9.3883        9.3895       6.245869       0.02690
  15     218.7        3.1447        0.0013        9.3229        9.3243       6.179582       0.02517
  14     243.0        3.1461        0.0015        9.2520        9.2535       6.107375       0.02504
  13     269.0        3.1480        0.0016        9.1717        9.1733       6.025268       0.02664
  12     297.5        3.1508        0.0018        9.0763        9.0781       5.927259       0.02907
  11     328.5        3.1545        0.0020        8.9650        8.9669       5.812450       0.03122
  10     361.9        3.1592        0.0021        8.8349        8.8371       5.677823       0.03406
   9     398.1        3.1654        0.0023        8.6820        8.6843       5.518928       0.03702
   8     437.6        3.1734        0.0025        8.5028        8.5053       5.331883       0.03999
   7     480.5        3.1838        0.0027        8.2948        8.2975       5.113712       0.04285
   6     533.0        3.1995        0.0029        8.0209        8.0238       4.824290       0.04656
   5     589.8        3.2212        0.0031        7.7063        7.7095       4.488315       0.04987
   4     651.6        3.2527        0.0033        7.3412        7.3446       4.091907       0.05421
   3     718.7        3.2990        0.0035        6.9387        6.9422       3.643205       0.05639
   2     792.3        3.3692        0.0037        6.5066        6.5103       3.141099       0.05759
   1     891.5        3.5153        0.0039        5.9361        5.9399       2.424600       0.06097
   0    1013.0        3.8109        0.0040        5.3025        5.3065       1.495602       0.06451



 Wavenumbers:  5150. -  6150. cm-1, ATM      1
 LEVEL PRESSURE   UPWARD FLUX   DIFDOWN FLUX  DIRDOWN FLUX  DOWNWARD FLUX   NET FLUX    HEATING RATE
          mb          W/m2          W/m2          W/m2        W/m2          W/m2       degree/day
  51    .06700        8.0196        0.0000       25.5798       25.5798      17.560242       0.00000
  50    .07753        8.0196        0.0000       25.5798       25.5798      17.560202       0.03159
  49    .09103        8.0196        0.0000       25.5797       25.5797      17.560151       0.03208
  48    0.1069        8.0196        0.0000       25.5797       25.5797      17.560090       0.03258
  47    0.1255        8.0196        0.0000       25.5796       25.5796      17.560017       0.03308
  46    0.1487        8.0196        0.0000       25.5795       25.5795      17.559921       0.03486
  45    0.1794        8.0196        0.0000       25.5794       25.5794      17.559786       0.03710
  44    0.2165        8.0196        0.0000       25.5792       25.5792      17.559620       0.03766
  43    0.2613        8.0196        0.0000       25.5790       25.5790      17.559417       0.03824
  42    0.3336        8.0196        0.0000       25.5786       25.5786      17.559071       0.04040
  41    0.4307        8.0196        0.0000       25.5782       25.5782      17.558600       0.04095
  40    0.5894        8.0196        0.0000       25.5774       25.5774      17.557811       0.04195
  39     1.339        8.0196        0.0000       25.5735       25.5736      17.554010       0.04279
  38     1.782        8.0196        0.0001       25.5713       25.5714      17.551798       0.04212
  37     2.292        8.0195        0.0001       25.5688       25.5688      17.549294       0.04147
  36     2.964        8.0195        0.0001       25.5656       25.5657      17.546113       0.03993
  35     3.853        8.0195        0.0001       25.5615       25.5616      17.542070       0.03837
  34     5.035        8.0195        0.0002       25.5562       25.5564      17.536863       0.03719
  33     6.613        8.0195        0.0002       25.5494       25.5496      17.530109       0.03611
  32     8.786        8.0195        0.0003       25.5406       25.5409      17.521357       0.03399
  31     11.80        8.0195        0.0004       25.5287       25.5290      17.509521       0.03314
  30     15.07        8.0195        0.0005       25.5167       25.5171      17.497651       0.03064
  29     18.79        8.0195        0.0006       25.5042       25.5047      17.485243       0.02813
  28     23.16        8.0195        0.0007       25.4907       25.4914      17.471877       0.02585
  27     28.12        8.0195        0.0008       25.4764       25.4773      17.457784       0.02396
  26     33.73        8.0195        0.0010       25.4620       25.4630      17.443502       0.02147
  25     40.54        8.0196        0.0012       25.4463       25.4475      17.427885       0.01938
  24     48.69        8.0197        0.0015       25.4294       25.4308      17.411160       0.01731
  23     57.69        8.0198        0.0017       25.4126       25.4143      17.394554       0.01557
  22     68.43        8.0200        0.0020       25.3944       25.3965      17.376523       0.01418
  21     81.20        8.0202        0.0024       25.3744       25.3768      17.356679       0.01311
  20     96.49        8.0204        0.0029       25.3519       25.3548      17.334377       0.01231
  19     114.6        8.0208        0.0034       25.3262       25.3296      17.308799       0.01194
  18     136.5        8.0212        0.0041       25.2962       25.3003      17.279024       0.01145
  17     162.9        8.0218        0.0048       25.2521       25.2569      17.235135       0.01403
  16     196.4        8.0226        0.0058       25.1593       25.1651      17.142533       0.02331
  15     218.7        8.0231        0.0064       25.0159       25.0224      16.999229       0.05441
  14     243.0        8.0238        0.0071       24.7089       24.7160      16.692159       0.10650
  13     269.0        8.0247        0.0077       24.1619       24.1696      16.144833       0.17755
  12     297.5        8.0259        0.0083       23.4544       23.4627      15.436785       0.21000
  11     328.5        8.0275        0.0090       22.7355       22.7445      14.716973       0.19571
  10     361.9        8.0294        0.0096       21.9224       21.9321      13.902618       0.20604
   9     398.1        8.0320        0.0103       20.9939       21.0042      12.972213       0.21676
   8     437.6        8.0353        0.0108       19.9833       19.9942      11.958916       0.21665
   7     480.5        8.0396        0.0114       18.9483       18.9597      10.920144       0.20401
   6     533.0        8.0464        0.0120       17.7796       17.7916       9.745244       0.18900
   5     589.8        8.0567        0.0127       16.6726       16.6853       8.628563       0.16575
   4     651.6        8.0741        0.0133       15.6343       15.6477       7.573522       0.14428
   3     718.7        8.1036        0.0141       14.7738       14.7879       6.684256       0.11176
   2     792.3        8.1565        0.0149       14.0291       14.0441       5.887577       0.09137
   1     891.5        8.2894        0.0160       13.0822       13.0982       4.808815       0.09180
   0    1013.0        8.6583        0.0171       12.0384       12.0555       3.397141       0.09802



 Wavenumbers:  6150. -  7700. cm-1, ATM      1
 LEVEL PRESSURE   UPWARD FLUX   DIFDOWN FLUX  DIRDOWN FLUX  DOWNWARD FLUX   NET FLUX    HEATING RATE
          mb          W/m2          W/m2          W/m2        W/m2          W/m2       degree/day
  51    .06700       11.8134        0.0000       47.3109       47.3109      35.497449       0.00000
  50    .07753       11.8134        0.0000       47.3108       47.3108      35.497392       0.04553
  49    .09103       11.8134        0.0000       47.3107       47.3107      35.497319       0.04583
  48    0.1069       11.8134        0.0000       47.3106       47.3106      35.497232       0.04614
  47    0.1255       11.8134        0.0000       47.3105       47.3105      35.497130       0.04645
  46    0.1487       11.8134        0.0000       47.3104       47.3104      35.496996       0.04852
  45    0.1794       11.8134        0.0000       47.3102       47.3102      35.496810       0.05127
  44    0.2165       11.8134        0.0000       47.3100       47.3100      35.496583       0.05167
  43    0.2613       11.8134        0.0000       47.3097       47.3097      35.496306       0.05210
  42    0.3336       11.8134        0.0000       47.3092       47.3092      35.495837       0.05471
  41    0.4307       11.8134        0.0000       47.3085       47.3086      35.495202       0.05521
  40    0.5894       11.8134        0.0001       47.3074       47.3075      35.494143       0.05633
  39     1.339       11.8133        0.0002       47.3022       47.3024      35.489050       0.05733
  38     1.782       11.8133        0.0002       47.2991       47.2993      35.486080       0.05655
  37     2.292       11.8132        0.0003       47.2956       47.2959      35.482704       0.05591
  36     2.964       11.8132        0.0004       47.2912       47.2915      35.478386       0.05421
  35     3.853       11.8131        0.0005       47.2855       47.2859      35.472852       0.05252
  34     5.035       11.8130        0.0006       47.2780       47.2787      35.465671       0.05129
  33     6.613       11.8128        0.0008       47.2683       47.2691      35.456284       0.05019
  32     8.786       11.8127        0.0011       47.2556       47.2566      35.443985       0.04777
  31     11.80       11.8124        0.0014       47.2380       47.2395      35.427081       0.04732
  30     15.07       11.8121        0.0018       47.2201       47.2219      35.409794       0.04463
  29     18.79       11.8118        0.0023       47.2008       47.2031      35.391315       0.04190
  28     23.16       11.8114        0.0028       47.1795       47.1823      35.370926       0.03943
  27     28.12       11.8110        0.0034       47.1565       47.1599      35.348933       0.03739
  26     33.73       11.8105        0.0041       47.1324       47.1365      35.326013       0.03446
  25     40.54       11.8099        0.0049       47.1054       47.1103      35.300379       0.03180
  24     48.69       11.8092        0.0059       47.0754       47.0814      35.272128       0.02923
  23     57.69       11.8085        0.0070       47.0449       47.0520      35.243510       0.02683
  22     68.43       11.8076        0.0083       47.0110       47.0193      35.211777       0.02495
  21     81.20       11.8065        0.0099       46.9729       46.9828      35.176290       0.02345
  20     96.49       11.8052        0.0117       46.9294       46.9411      35.135958       0.02226
  19     114.6       11.8036        0.0140       46.8790       46.8930      35.089338       0.02177
  18     136.5       11.8018        0.0166       46.8200       46.8365      35.034735       0.02100
  17     162.9       11.7996        0.0197       46.7361       46.7558      34.956151       0.02512
  16     196.4       11.7969        0.0237       46.5703       46.5939      34.797048       0.04005
  15     218.7       11.7952        0.0263       46.3473       46.3736      34.578411       0.08301
  14     243.0       11.7934        0.0290       45.9299       45.9588      34.165434       0.14323
  13     269.0       11.7918        0.0317       45.1708       45.2025      33.410684       0.24484
  12     297.5       11.7905        0.0343       44.0115       44.0458      32.255285       0.34268
  11     328.5       11.7897        0.0370       42.7242       42.7612      30.971517       0.34905
  10     361.9       11.7896        0.0397       41.3539       41.3936      29.604008       0.34599
   9     398.1       11.7907        0.0423       39.7953       39.8376      28.046885       0.36277
   8     437.6       11.7937        0.0448       37.9948       38.0396      26.245889       0.38506
   7     480.5       11.7993        0.0471       36.0647       36.1118      24.312528       0.37970
   6     533.0       11.8110        0.0496       33.7773       33.8269      22.015880       0.36946
   5     589.8       11.8325        0.0518       31.4082       31.4600      19.627477       0.35452
   4     651.6       11.8744        0.0535       28.8834       28.9369      17.062497       0.35077
   3     718.7       11.9511        0.0551       26.4104       26.4654      14.514365       0.32023
   2     792.3       12.0939        0.0563       24.0056       24.0619      11.968061       0.29203
   1     891.5       12.4555        0.0577       21.2348       21.2925       8.837066       0.26643
   0    1013.0       13.4146        0.0594       18.6150       18.6744       5.259808       0.24839



 Wavenumbers:  7700. -  8050. cm-1, ATM      1
 LEVEL PRESSURE   UPWARD FLUX   DIFDOWN FLUX  DIRDOWN FLUX  DOWNWARD FLUX   NET FLUX    HEATING RATE
          mb          W/m2          W/m2          W/m2        W/m2          W/m2       degree/day
  51    .06700        6.3184        0.0000       11.1810       11.1810       4.862529       0.00000
  50    .07753        6.3184        0.0000       11.1809       11.1809       4.862507       0.01755
  49    .09103        6.3184        0.0000       11.1809       11.1809       4.862479       0.01720
  48    0.1069        6.3184        0.0000       11.1809       11.1809       4.862448       0.01684
  47    0.1255        6.3185        0.0000       11.1809       11.1809       4.862411       0.01647
  46    0.1487        6.3185        0.0000       11.1808       11.1808       4.862365       0.01672
  45    0.1794        6.3185        0.0000       11.1808       11.1808       4.862303       0.01720
  44    0.2165        6.3185        0.0000       11.1807       11.1807       4.862229       0.01687
  43    0.2613        6.3185        0.0000       11.1806       11.1806       4.862141       0.01656
  42    0.3336        6.3185        0.0000       11.1805       11.1805       4.861995       0.01694
  41    0.4307        6.3186        0.0000       11.1803       11.1804       4.861803       0.01676
  40    0.5894        6.3186        0.0000       11.1801       11.1801       4.861488       0.01674
  39     1.339        6.3189        0.0001       11.1788       11.1789       4.859999       0.01677
  38     1.782        6.3190        0.0001       11.1781       11.1782       4.859124       0.01665
  37     2.292        6.3192        0.0001       11.1772       11.1773       4.858111       0.01677
  36     2.964        6.3195        0.0002       11.1761       11.1762       4.856782       0.01669
  35     3.853        6.3198        0.0002       11.1746       11.1748       4.855026       0.01667
  34     5.035        6.3202        0.0003       11.1726       11.1729       4.852693       0.01667
  33     6.613        6.3207        0.0004       11.1700       11.1703       4.849577       0.01666
  32     8.786        6.3215        0.0005       11.1664       11.1669       4.845379       0.01630
  31     11.80        6.3226        0.0007       11.1613       11.1620       4.839378       0.01680
  30     15.07        6.3237        0.0008       11.1558       11.1567       4.832941       0.01662
  29     18.79        6.3251        0.0011       11.1497       11.1507       4.825676       0.01647
  28     23.16        6.3266        0.0013       11.1425       11.1438       4.817201       0.01639
  27     28.12        6.3284        0.0016       11.1343       11.1359       4.807525       0.01645
  26     33.73        6.3304        0.0019       11.1252       11.1271       4.796717       0.01625
  25     40.54        6.3328        0.0023       11.1142       11.1165       4.783689       0.01616
  24     48.69        6.3357        0.0027       11.1010       11.1037       4.768029       0.01621
  23     57.69        6.3389        0.0032       11.0866       11.0898       4.750885       0.01607
  22     68.43        6.3428        0.0038       11.0695       11.0733       4.730548       0.01599
  21     81.20        6.3474        0.0045       11.0494       11.0539       4.706435       0.01593
  20     96.49        6.3530        0.0054       11.0255       11.0309       4.677868       0.01577
  19     114.6        6.3597        0.0064       10.9975       11.0039       4.644178       0.01573
  18     136.5        6.3678        0.0075       10.9648       10.9723       4.604559       0.01523
  17     162.9        6.3775        0.0090       10.9263       10.9353       4.557801       0.01495
  16     196.4        6.3902        0.0108       10.8773       10.8880       4.497804       0.01510
  15     218.7        6.3988        0.0120       10.8455       10.8575       4.458741       0.01483
  14     243.0        6.4082        0.0133       10.8114       10.8247       4.416521       0.01464
  13     269.0        6.4186        0.0147       10.7749       10.7896       4.370966       0.01478
  12     297.5        6.4301        0.0162       10.7357       10.7519       4.321832       0.01457
  11     328.5        6.4428        0.0178       10.6937       10.7116       4.268790       0.01442
  10     361.9        6.4569        0.0196       10.6489       10.6685       4.211589       0.01447
   9     398.1        6.4726        0.0215       10.6008       10.6223       4.149701       0.01442
   8     437.6        6.4901        0.0235       10.5491       10.5726       4.082468       0.01438
   7     480.5        6.5099        0.0257       10.4934       10.5191       4.009277       0.01437
   6     533.0        6.5356        0.0284       10.4243       10.4527       3.917085       0.01483
   5     589.8        6.5656        0.0313       10.3479       10.3792       3.813599       0.01536
   4     651.6        6.6015        0.0343       10.2613       10.2957       3.694198       0.01633
   3     718.7        6.6454        0.0376       10.1618       10.1994       3.553933       0.01763
   2     792.3        6.7011        0.0411       10.0439       10.0850       3.383915       0.01950
   1     891.5        6.7944        0.0457        9.8626        9.9083       3.113861       0.02298
   0    1013.0        6.9416        0.0509        9.6103        9.6612       2.719635       0.02737



 Wavenumbers:  8050. - 12850. cm-1, ATM      1
 LEVEL PRESSURE   UPWARD FLUX   DIFDOWN FLUX  DIRDOWN FLUX  DOWNWARD FLUX   NET FLUX    HEATING RATE
          mb          W/m2          W/m2          W/m2        W/m2          W/m2       degree/day
  51    .06700       77.0200        0.0000      156.5418      156.5418      79.521751       0.00000
  50    .07753       77.0200        0.0000      156.5417      156.5417      79.521751      -0.00000
  49    .09103       77.0200        0.0001      156.5417      156.5417      79.521751       0.00000
  48    0.1069       77.0199        0.0001      156.5416      156.5417      79.521751       0.00000
  47    0.1255       77.0199        0.0002      156.5415      156.5417      79.521751      -0.00000
  46    0.1487       77.0199        0.0002      156.5414      156.5416      79.521751       0.00000
  45    0.1794       77.0199        0.0003      156.5413      156.5416      79.521751       0.00000
  44    0.2165       77.0198        0.0004      156.5412      156.5416      79.521751      -0.00000
  43    0.2613       77.0198        0.0005      156.5410      156.5415      79.521751       0.00000
  42    0.3336       77.0197        0.0007      156.5407      156.5414      79.521751      -0.00000
  41    0.4307       77.0195        0.0010      156.5403      156.5413      79.521751       0.00000
  40    0.5894       77.0193        0.0014      156.5397      156.5411      79.521751       0.00000
  39     1.339       77.0184        0.0034      156.5367      156.5401      79.521751      -0.00000
  38     1.782       77.0178        0.0046      156.5350      156.5396      79.521751      -0.00000
  37     2.292       77.0172        0.0060      156.5330      156.5389      79.521751       0.00000
  36     2.964       77.0164        0.0078      156.5303      156.5381      79.521751      -0.00000
  35     3.853       77.0152        0.0101      156.5268      156.5370      79.521751      -0.00000
  34     5.035       77.0138        0.0133      156.5222      156.5355      79.521751       0.00000
  33     6.613       77.0118        0.0175      156.5160      156.5335      79.521751       0.00000
  32     8.786       77.0091        0.0232      156.5076      156.5309      79.521751       0.00000
  31     11.80       77.0053        0.0314      156.4957      156.5270      79.521751       0.00000
  30     15.07       77.0012        0.0401      156.4828      156.5229      79.521751       0.00000
  29     18.79       76.9965        0.0500      156.4682      156.5183      79.521751      -0.00000
  28     23.16       76.9911        0.0616      156.4512      156.5128      79.521751       0.00000
  27     28.12       76.9848        0.0749      156.4317      156.5066      79.521751      -0.00000
  26     33.73       76.9779        0.0898      156.4099      156.4996      79.521751      -0.00000
  25     40.54       76.9694        0.1077      156.3834      156.4912      79.521751       0.00000
  24     48.69       76.9592        0.1295      156.3515      156.4810      79.521751      -0.00000
  23     57.69       76.9480        0.1533      156.3164      156.4698      79.521751       0.00000
  22     68.43       76.9346        0.1818      156.2746      156.4564      79.521751      -0.00000
  21     81.20       76.9187        0.2158      156.2246      156.4404      79.521751      -0.00000
  20     96.49       76.8996        0.2564      156.1649      156.4213      79.521751       0.00000
  19     114.6       76.8771        0.3047      156.0879      156.3926      79.515572       0.00289
  18     136.5       76.8503        0.3620      155.9962      156.3582      79.507904       0.00295
  17     162.9       76.8183        0.4304      155.8831      156.3135      79.495167       0.00407
  16     196.4       76.7768        0.5194      155.7199      156.2393      79.462474       0.00823
  15     218.7       76.7497        0.5779      155.5733      156.1512      79.401477       0.02316
  14     243.0       76.7206        0.6414      155.3367      155.9781      79.257567       0.04991
  13     269.0       76.6899        0.7102      154.9514      155.6616      78.971715       0.09273
  12     297.5       76.6586        0.7841      154.3896      155.1738      78.515187       0.13540
  11     328.5       76.6271        0.8639      153.7151      154.5790      77.951867       0.15317
  10     361.9       76.5967        0.9494      152.9087      153.8581      77.261463       0.17468
   9     398.1       76.5693        1.0408      151.8986      152.9394      76.370165       0.20765
   8     437.6       76.5483        1.1380      150.6031      151.7411      75.192778       0.25173
   7     480.5       76.5381        1.2406      149.0014      150.2420      73.703909       0.29241
   6     533.0       76.5484        1.3646      146.7375      148.1022      71.553790       0.34589
   5     589.8       76.6013        1.4943      143.8730      145.3673      68.766020       0.41380
   4     651.6       76.7454        1.6271      140.0955      141.7226      64.977171       0.51814
   3     718.7       77.0435        1.7615      135.5278      137.2893      60.245849       0.59460
   2     792.3       77.6334        1.8945      130.0690      131.9635      54.330104       0.67847
   1     891.5       79.1496        2.0549      122.1273      124.1822      45.032527       0.79118
   0    1013.0       82.8781        2.2265      112.9512      115.1777      32.299602       0.88411



 Wavenumbers: 12850. - 16000. cm-1, ATM      1
 LEVEL PRESSURE   UPWARD FLUX   DIFDOWN FLUX  DIRDOWN FLUX  DOWNWARD FLUX   NET FLUX    HEATING RATE
          mb          W/m2          W/m2          W/m2        W/m2          W/m2       degree/day
  51    .06700       71.6273        0.0000       98.0872       98.0872      26.459968       0.00000
  50    .07753       71.6273        0.0001       98.0864       98.0864      26.459178       0.63310
  49    .09103       71.6273        0.0002       98.0853       98.0854      26.458187       0.61983
  48    0.1069       71.6273        0.0003       98.0841       98.0843      26.457048       0.60629
  47    0.1255       71.6273        0.0004       98.0826       98.0830      26.455740       0.59300
  46    0.1487       71.6273        0.0005       98.0809       98.0814      26.454090       0.60141
  45    0.1794       71.6273        0.0007       98.0784       98.0791      26.451847       0.61582
  44    0.2165       71.6274        0.0009       98.0756       98.0766      26.449210       0.59987
  43    0.2613       71.6274        0.0012       98.0723       98.0735      26.446111       0.58409
  42    0.3336       71.6276        0.0017       98.0670       98.0687      26.441058       0.58909
  41    0.4307       71.6279        0.0023       98.0602       98.0625      26.434532       0.56747
  40    0.5894       71.6286        0.0032       98.0496       98.0528      26.424265       0.54599
  39     1.339       71.6342        0.0079       98.0043       98.0122      26.378031       0.52050
  38     1.782       71.6394        0.0106       97.9793       97.9899      26.350464       0.52484
  37     2.292       71.6473        0.0138       97.9498       97.9635      26.316258       0.56654
  36     2.964       71.6604        0.0179       97.9088       97.9267      26.266372       0.62621
  35     3.853       71.6815        0.0234       97.8503       97.8737      26.192231       0.70361
  34     5.035       71.7134        0.0306       97.7680       97.7986      26.085260       0.76416
  33     6.613       71.7579        0.0403       97.6562       97.6965      25.938618       0.78395
  32     8.786       71.8159        0.0534       97.5107       97.5641      25.748193       0.73954
  31     11.80       71.8912        0.0720       97.3179       97.3899      25.498662       0.69861
  30     15.07       71.9633        0.0920       97.1283       97.2204      25.257014       0.62389
  29     18.79       72.0369        0.1146       96.9300       97.0446      25.007729       0.56521
  28     23.16       72.1137        0.1409       96.7166       96.8575      24.743838       0.51028
  27     28.12       72.1908        0.1710       96.4935       96.6645      24.473720       0.45918
  26     33.73       72.2619        0.2047       96.2731       96.4778      24.215933       0.38759
  25     40.54       72.3301        0.2454       96.0408       96.2862      23.956103       0.32235
  24     48.69       72.3952        0.2945       95.7946       96.0891      23.693895       0.27134
  23     57.69       72.4500        0.3484       95.5573       95.9057      23.455670       0.22330
  22     68.43       72.4972        0.4126       95.3106       95.7232      23.225968       0.18058
  21     81.20       72.5288        0.4892       95.0643       95.5535      23.024724       0.13298
  20     96.49       72.5436        0.5806       94.8153       95.3958      22.852278       0.09518
  19     114.6       72.5624        0.6902       94.5411       95.2312      22.668865       0.08564
  18     136.5       72.5742        0.8201       94.2320       95.0521      22.477966       0.07340
  17     162.9       72.5785        0.9748       93.8753       94.8501      22.271557       0.06598
  16     196.4       72.5637        1.1754       93.4347       94.6100      22.046275       0.05671
  15     218.7       72.5466        1.3071       93.1513       94.4583      21.911706       0.05109
  14     243.0       72.5248        1.4502       92.8439       94.2941      21.769319       0.04938
  13     269.0       72.4981        1.6053       92.5111       94.1164      21.618269       0.04900
  12     297.5       72.4670        1.7729       92.1495       93.9224      21.455388       0.04831
  11     328.5       72.4330        1.9539       91.7554       93.7093      21.276359       0.04868
  10     361.9       72.3968        2.1488       91.3262       93.4750      21.078262       0.05012
   9     398.1       72.3594        2.3585       90.8575       93.2161      20.856624       0.05164
   8     437.6       72.3232        2.5836       90.3418       92.9254      20.602165       0.05440
   7     480.5       72.2903        2.8246       89.7728       92.5974      20.307158       0.05794
   6     533.0       72.2615        3.1209       89.0428       92.1638      19.902286       0.06513
   5     589.8       72.2530        3.4394       88.2038       91.6432      19.390228       0.07601
   4     651.6       72.2906        3.7797       87.1979       90.9776      18.687052       0.09616
   3     718.7       72.3910        4.1401       86.0161       90.1563      17.765234       0.11585
   2     792.3       72.6091        4.5170       84.5970       89.1140      16.504963       0.14454
   1     891.5       73.1653        5.0072       82.4374       87.4446      14.279326       0.18939
   0    1013.0       74.3574        5.5694       79.6182       85.1876      10.830181       0.23949



 Wavenumbers: 16000. - 22650. cm-1, ATM      1
 LEVEL PRESSURE   UPWARD FLUX   DIFDOWN FLUX  DIRDOWN FLUX  DOWNWARD FLUX   NET FLUX    HEATING RATE
          mb          W/m2          W/m2          W/m2        W/m2          W/m2       degree/day
  51    .06700      140.2045        0.0000      156.3892      156.3892      16.184758       0.00000
  50    .07753      140.2045        0.0004      156.3887      156.3891      16.184611       0.11789
  49    .09103      140.2044        0.0009      156.3879      156.3888      16.184397       0.13371
  48    0.1069      140.2044        0.0015      156.3871      156.3885      16.184111       0.15247
  47    0.1255      140.2044        0.0021      156.3861      156.3882      16.183727       0.17380
  46    0.1487      140.2045        0.0029      156.3847      156.3877      16.183162       0.20595
  45    0.1794      140.2046        0.0041      156.3828      156.3869      16.182279       0.24249
  44    0.2165      140.2048        0.0054      156.3805      156.3859      16.181081       0.27253
  43    0.2613      140.2052        0.0070      156.3776      156.3846      16.179456       0.30639
  42    0.3336      140.2059        0.0096      156.3726      156.3823      16.176365       0.36031
  41    0.4307      140.2071        0.0131      156.3657      156.3788      16.171707       0.40503
  40    0.5894      140.2097        0.0188      156.3537      156.3725      16.162823       0.47244
  39     1.339      140.2320        0.0458      156.2834      156.3292      16.097186       0.73895
  38     1.782      140.2527        0.0616      156.2324      156.2939      16.041272       1.06452
  37     2.292      140.2836        0.0799      156.1641      156.2440      15.960335       1.34052
  36     2.964      140.3352        0.1039      156.0605      156.1644      15.829217       1.64592
  35     3.853      140.4185        0.1356      155.9041      156.0397      15.621167       1.97444
  34     5.035      140.5443        0.1777      155.6774      155.8551      15.310774       2.21732
  33     6.613      140.7201        0.2339      155.3656      155.5995      14.879422       2.30600
  32     8.786      140.9490        0.3095      154.9577      155.2671      14.318145       2.17980
  31     11.80      141.2469        0.4175      154.4153      154.8327      13.585837       2.05023
  30     15.07      141.5322        0.5332      153.8804      154.4136      12.881396       1.81873
  29     18.79      141.8235        0.6638      153.3191      153.9829      12.159426       1.63693
  28     23.16      142.1278        0.8161      152.7126      153.5287      11.400839       1.46686
  27     28.12      142.4340        0.9900      152.0755      153.0655      10.631524       1.30778
  26     33.73      142.7164        1.1844      151.4409      152.6253       9.908925       1.08645
  25     40.54      142.9880        1.4191      150.7637      152.1827       9.194755       0.88601
  24     48.69      143.2478        1.7017      150.0338      151.7355       8.487733       0.73166
  23     57.69      143.4677        2.0117      149.3151      151.3269       7.859136       0.58922
  22     68.43      143.6591        2.3806      148.5476      150.9282       7.269065       0.46388
  21     81.20      143.7905        2.8198      147.7517      150.5714       6.780950       0.32254
  20     96.49      143.8573        3.3426      146.9127      150.2552       6.397911       0.21141
  19     114.6      143.8907        3.9615      145.9763      149.9378       6.047127       0.16379
  18     136.5      143.8991        4.6923      144.9088      149.6011       5.702054       0.13269
  17     162.9      143.8807        5.5585      143.6785      149.2371       5.356399       0.11049
  16     196.4      143.7957        6.6761      142.1651      148.8412       5.045526       0.07825
  15     218.7      143.7174        7.4065      141.2033      148.6098       4.892382       0.05814
  14     243.0      143.6221        8.1969      140.1753      148.3723       4.750152       0.04933
  13     269.0      143.5081        9.0497      139.0797      148.1293       4.621255       0.04181
  12     297.5      143.3747        9.9667      137.9141      147.8808       4.506079       0.03416
  11     328.5      143.2260       10.9524      136.6676      147.6200       4.394027       0.03047
  10     361.9      143.0616       12.0076      135.3392      147.3468       4.285244       0.02752
   9     398.1      142.8810       13.1364      133.9235      147.0599       4.178861       0.02479
   8     437.6      142.6853       14.3408      132.4163      146.7570       4.071765       0.02290
   7     480.5      142.4738       15.6228      130.8147      146.4375       3.963691       0.02123
   6     533.0      142.2136       17.1887      128.8599      146.0486       3.835037       0.02070
   5     589.8      141.9368       18.8617      126.7679      145.6296       3.692836       0.02111
   4     651.6      141.6496       20.6434      124.5274      145.1709       3.521296       0.02346
   3     718.7      141.3579       22.5357      122.1285      144.6641       3.306250       0.02703
   2     792.3      141.0781       24.5363      119.5548      144.0911       3.013041       0.03363
   1     891.5      140.7790       27.1918      116.0566      143.2484       2.469446       0.04626
   0    1013.0      140.5486       30.3122      111.8404      142.1526       1.604025       0.06009



 Wavenumbers: 22650. - 29000. cm-1, ATM      1
 LEVEL PRESSURE   UPWARD FLUX   DIFDOWN FLUX  DIRDOWN FLUX  DOWNWARD FLUX   NET FLUX    HEATING RATE
          mb          W/m2          W/m2          W/m2        W/m2          W/m2       degree/day
  51    .06700       58.3821        0.0000       59.0156       59.0156       0.633481       0.00000
  50    .07753       58.3820        0.0005       59.0151       59.0155       0.633481       0.00000
  49    .09103       58.3819        0.0010       59.0144       59.0154       0.633481       0.00000
  48    0.1069       58.3818        0.0017       59.0136       59.0153       0.633481       0.00000
  47    0.1255       58.3816        0.0025       59.0127       59.0151       0.633481       0.00000
  46    0.1487       58.3815        0.0034       59.0115       59.0149       0.633481      -0.00000
  45    0.1794       58.3812        0.0048       59.0099       59.0147       0.633481       0.00000
  44    0.2165       58.3809        0.0063       59.0080       59.0144       0.633481      -0.00000
  43    0.2613       58.3805        0.0082       59.0058       59.0140       0.633481      -0.00000
  42    0.3336       58.3799        0.0113       59.0022       59.0134       0.633481       0.00000
  41    0.4307       58.3791        0.0153       58.9973       59.0126       0.633481      -0.00000
  40    0.5894       58.3778        0.0220       58.9894       59.0113       0.633481       0.00000
  39     1.339       58.3717        0.0534       58.9518       59.0052       0.633481      -0.00000
  38     1.782       58.3681        0.0719       58.9297       59.0016       0.633481       0.00000
  37     2.292       58.3639        0.0933       58.9042       58.9974       0.633481       0.00000
  36     2.964       58.3585        0.1213       58.8706       58.9920       0.633481      -0.00000
  35     3.853       58.3513        0.1584       58.8264       58.9847       0.633481       0.00000
  34     5.035       58.3417        0.2076       58.7676       58.9751       0.633481       0.00000
  33     6.613       58.3289        0.2732       58.6891       58.9623       0.633481       0.00000
  32     8.786       58.3116        0.3617       58.5834       58.9451       0.633481      -0.00000
  31     11.80       58.2870        0.4880       58.4324       58.9204       0.633481       0.00000
  30     15.07       58.2606        0.6234       58.2706       58.8940       0.633481      -0.00000
  29     18.79       58.2308        0.7760       58.0882       58.8643       0.633481       0.00000
  28     23.16       58.1961        0.9539       57.8757       58.8296       0.633481      -0.00000
  27     28.12       58.1565        1.1567       57.6333       58.7900       0.633481       0.00000
  26     33.73       58.1124        1.3828       57.3631       58.7459       0.633481      -0.00000
  25     40.54       58.0593        1.6549       57.0379       58.6928       0.633481       0.00000
  24     48.69       57.9956        1.9812       56.6479       58.6291       0.633481      -0.00000
  23     57.69       57.9261        2.3375       56.2221       58.5595       0.633481       0.00000
  22     68.43       57.8438        2.7587       55.7186       58.4773       0.633481      -0.00000
  21     81.20       57.7466        3.2562       55.1239       58.3801       0.633481       0.00000
  20     96.49       57.6320        3.8427       54.4228       58.2655       0.633481      -0.00000
  19     114.6       57.4976        4.5301       53.6010       58.1311       0.633481      -0.00000
  18     136.5       57.3407        5.3324       52.6418       57.9742       0.633481       0.00000
  17     162.9       57.1571        6.2703       51.5203       57.7906       0.633481       0.00000
  16     196.4       56.9244        7.4584       50.0994       57.5579       0.633481      -0.00000
  15     218.7       56.7747        8.2219       49.1863       57.4082       0.633481      -0.00000
  14     243.0       56.6148        9.0370       48.2113       57.2483       0.633481      -0.00000
  13     269.0       56.4447        9.9033       47.1749       57.0782       0.633481       0.00000
  12     297.5       56.2646       10.8198       46.0783       56.8981       0.633481       0.00000
  11     328.5       56.0742       11.7881       44.9195       56.7077       0.633481       0.00000
  10     361.9       55.8739       12.8055       43.7018       56.5074       0.633481      -0.00000
   9     398.1       55.6636       13.8721       42.4250       56.2971       0.633481       0.00000
   8     437.6       55.4439       14.9857       41.0916       56.0773       0.633481      -0.00000
   7     480.5       55.2150       16.1440       39.7045       55.8484       0.633481       0.00000
   6     533.0       54.9422       17.5215       38.0543       55.5757       0.633481       0.00000
   5     589.8       54.6590       18.9494       36.3431       55.2925       0.633481       0.00000
   4     651.6       54.3665       20.4204       34.5795       55.0000       0.633481      -0.00000
   3     718.7       54.0657       21.9290       32.7702       54.6992       0.633481      -0.00000
   2     792.3       53.7583       23.4662       30.9256       54.3918       0.633481       0.00000
   1     891.5       53.3658       25.4215       28.5778       53.9993       0.633481      -0.00000
   0    1013.0       52.9272       27.5942       25.9665       53.5607       0.633481       0.00000



 Wavenumbers: 29000. - 38000. cm-1, ATM      1
 LEVEL PRESSURE   UPWARD FLUX   DIFDOWN FLUX  DIRDOWN FLUX  DOWNWARD FLUX   NET FLUX    HEATING RATE
          mb          W/m2          W/m2          W/m2        W/m2          W/m2       degree/day
  51    .06700        8.7365        0.0000       20.8114       20.8114      12.074838       0.00000
  50    .07753        8.7363        0.0003       20.8070       20.8074      12.071031       3.05152
  49    .09103        8.7361        0.0007       20.8009       20.8016      12.065494       3.46081
  48    0.1069        8.7359        0.0012       20.7928       20.7939      12.058084       3.94425
  47    0.1255        8.7356        0.0017       20.7820       20.7837      12.048180       4.49029
  46    0.1487        8.7352        0.0024       20.7665       20.7688      12.033617       5.30838
  45    0.1794        8.7348        0.0033       20.7424       20.7457      12.010952       6.22197
  44    0.2165        8.7342        0.0044       20.7103       20.7147      11.980430       6.94332
  43    0.2613        8.7337        0.0056       20.6675       20.6731      11.939435       7.72723
  42    0.3336        8.7328        0.0077       20.5880       20.5956      11.862876       8.92614
  41    0.4307        8.7317        0.0104       20.4722       20.4826      11.750924       9.73389
  40    0.5894        8.7301        0.0147       20.2637       20.2784      11.548244      10.77831
  39     1.339        8.7267        0.0331       19.0984       19.1315      10.404789      12.87322
  38     1.782        8.7272        0.0427       18.4394       18.4820       9.754883      12.37315
  37     2.292        8.7298        0.0530       17.7714       17.8244       9.094565      10.93659
  36     2.964        8.7363        0.0656       17.0421       17.1078       8.371484       9.07686
  35     3.853        8.7490        0.0816       16.2678       16.3494       7.600372       7.31800
  34     5.035        8.7700        0.1017       15.4803       15.5820       6.811977       5.63197
  33     6.613        8.8006        0.1275       14.7157       14.8432       6.042531       4.11346
  32     8.786        8.8410        0.1612       13.9936       14.1548       5.313762       2.83028
  31     11.80        8.8937        0.2082       13.2835       13.4918       4.598036       2.00381
  30     15.07        8.9445        0.2570       12.7394       12.9963       4.051794       1.41029
  29     18.79        8.9970        0.3110       12.2666       12.5776       3.580589       1.06837
  28     23.16        9.0528        0.3725       11.8300       12.2025       3.149710       0.83318
  27     28.12        9.1099        0.4413       11.4279       11.8692       2.759287       0.66369
  26     33.73        9.1626        0.5172       11.0695       11.5866       2.424041       0.50405
  25     40.54        9.2125        0.6078       10.7209       11.3287       2.116139       0.38199
  24     48.69        9.2596        0.7153       10.3742       11.0895       1.829854       0.29626
  23     57.69        9.2982        0.8317       10.0549       10.8866       1.588342       0.22638
  22     68.43        9.3294        0.9682        9.7327       10.7009       1.371545       0.17043
  21     81.20        9.3441        1.1294        9.4134       10.5428       1.198685       0.11422
  20     96.49        9.3405        1.3189        9.0887       10.4076       1.067107       0.07262
  19     114.6        9.3266        1.5378        8.7388       10.2766       0.949995       0.05468
  18     136.5        9.3053        1.7881        8.3549       10.1430       0.837632       0.04321
  17     162.9        9.2769        2.0734        7.9311       10.0045       0.727626       0.03516
  16     196.4        9.2292        2.4267        7.4333        9.8600       0.630810       0.02437
  15     218.7        9.1949        2.6489        7.1295        9.7785       0.583594       0.01793
  14     243.0        9.1573        2.8812        6.8161        9.6973       0.539999       0.01512
  13     269.0        9.1162        3.1227        6.4943        9.6171       0.500857       0.01270
  12     297.5        9.0718        3.3724        6.1657        9.5381       0.466355       0.01023
  11     328.5        9.0253        3.6292        5.8295        9.4586       0.433326       0.00898
  10     361.9        8.9774        3.8906        5.4886        9.3793       0.401916       0.00795
   9     398.1        8.9280        4.1562        5.1440        9.3002       0.372153       0.00693
   8     437.6        8.8778        4.4243        4.7969        9.2213       0.343464       0.00613
   7     480.5        8.8271        4.6929        4.4504        9.1433       0.316236       0.00535
   6     533.0        8.7688        4.9991        4.0563        9.0554       0.286557       0.00477
   5     589.8        8.7113        5.3009        3.6682        8.9691       0.257826       0.00426
   4     651.6        8.6555        5.5947        3.2905        8.8852       0.229722       0.00384
   3     718.7        8.6018        5.8788        2.9252        8.8040       0.202201       0.00346
   2     792.3        8.5510        6.1499        2.5764        8.7263       0.175267       0.00309
   1     891.5        8.4925        6.4686        2.1659        8.6345       0.142021       0.00283
   0    1013.0        8.4360        6.7888        1.7526        8.5413       0.105320       0.00255



 Wavenumbers: 38000. - 50000. cm-1, ATM      1
 LEVEL PRESSURE   UPWARD FLUX   DIFDOWN FLUX  DIRDOWN FLUX  DOWNWARD FLUX   NET FLUX    HEATING RATE
          mb          W/m2          W/m2          W/m2        W/m2          W/m2       degree/day
  51    .06700        0.0061        0.0000        1.2836        1.2836       1.277518       0.00000
  50    .07753        0.0061        0.0001        1.2812        1.2812       1.275183       1.87150
  49    .09103        0.0060        0.0002        1.2777        1.2778       1.271851       2.08247
  48    0.1069        0.0059        0.0002        1.2731        1.2734       1.267473       2.33059
  47    0.1255        0.0058        0.0004        1.2672        1.2675       1.261717       2.60908
  46    0.1487        0.0057        0.0005        1.2586        1.2591       1.253391       3.03499
  45    0.1794        0.0055        0.0007        1.2455        1.2462       1.240623       3.50520
  44    0.2165        0.0054        0.0009        1.2282        1.2291       1.223697       3.85037
  43    0.2613        0.0052        0.0011        1.2054        1.2065       1.201348       4.21261
  42    0.3336        0.0049        0.0015        1.1639        1.1654       1.160524       4.75970
  41    0.4307        0.0045        0.0020        1.1051        1.1070       1.102565       5.03943
  40    0.5894        0.0039        0.0026        1.0039        1.0064       1.002524       5.32007
  39     1.339        0.0022        0.0035        0.5438        0.5473       0.545104       5.14971
  38     1.782        0.0016        0.0032        0.3635        0.3666       0.365006       3.42879
  37     2.292        0.0012        0.0027        0.2356        0.2383       0.237058       2.11916
  36     2.964        0.0009        0.0022        0.1455        0.1477       0.146786       1.13318
  35     3.853        0.0006        0.0017        0.0858        0.0875       0.086906       0.56828
  34     5.035        0.0004        0.0013        0.0488        0.0501       0.049701       0.26578
  33     6.613        0.0003        0.0010        0.0273        0.0282       0.027974       0.11615
  32     8.786        0.0002        0.0007        0.0144        0.0151       0.014928       0.05067
  31     11.80        0.0001        0.0004        0.0065        0.0070       0.006903       0.02247
  30     15.07        0.0000        0.0003        0.0031        0.0034       0.003329       0.00923
  29     18.79        0.0000        0.0002        0.0014        0.0016       0.001583       0.00396
  28     23.16        0.0000        0.0001        0.0006        0.0007       0.000720       0.00167
  27     28.12        0.0000        0.0001        0.0003        0.0003       0.000317       0.00069
  26     33.73        0.0000        0.0000        0.0001        0.0001       0.000140       0.00027
  25     40.54        0.0000        0.0000        0.0000        0.0001       0.000057       0.00010
  24     48.69        0.0000        0.0000        0.0000        0.0000       0.000021       0.00004
  23     57.69        0.0000        0.0000        0.0000        0.0000       0.000008       0.00001
  22     68.43        0.0000        0.0000        0.0000        0.0000       0.000003       0.00000
  21     81.20        0.0000        0.0000        0.0000        0.0000       0.000001       0.00000
  20     96.49        0.0000        0.0000        0.0000        0.0000       0.000000       0.00000
  19     114.6        0.0000        0.0000        0.0000        0.0000       0.000000       0.00000
  18     136.5        0.0000        0.0000        0.0000        0.0000       0.000000       0.00000
  17     162.9        0.0000        0.0000        0.0000        0.0000       0.000000       0.00000
  16     196.4        0.0000        0.0000        0.0000        0.0000       0.000000       0.00000
  15     218.7        0.0000        0.0000        0.0000        0.0000       0.000000       0.00000
  14     243.0        0.0000        0.0000        0.0000        0.0000       0.000000       0.00000
  13     269.0        0.0000        0.0000        0.0000        0.0000       0.000000       0.00000
  12     297.5        0.0000        0.0000        0.0000        0.0000       0.000000       0.00000
  11     328.5        0.0000        0.0000        0.0000        0.0000       0.000000       0.00000
  10     361.9        0.0000        0.0000        0.0000        0.0000       0.000000       0.00000
   9     398.1        0.0000        0.0000        0.0000        0.0000       0.000000       0.00000
   8     437.6        0.0000        0.0000        0.0000        0.0000       0.000000       0.00000
   7     480.5        0.0000        0.0000        0.0000        0.0000       0.000000       0.00000
   6     533.0        0.0000        0.0000        0.0000        0.0000       0.000000       0.00000
   5     589.8        0.0000        0.0000        0.0000        0.0000       0.000000       0.00000
   4     651.6        0.0000        0.0000        0.0000        0.0000       0.000000       0.00000
   3     718.7        0.0000        0.0000        0.0000        0.0000       0.000000       0.00000
   2     792.3        0.0000        0.0000        0.0000        0.0000       0.000000       0.00000
   1     891.5        0.0000        0.0000        0.0000        0.0000       0.000000       0.00000
   0    1013.0        0.0000        0.0000        0.0000        0.0000       0.000000       0.00000



 Wavenumbers:   820. -  2600. cm-1, ATM      1
 LEVEL PRESSURE   UPWARD FLUX   DIFDOWN FLUX  DIRDOWN FLUX  DOWNWARD FLUX   NET FLUX    HEATING RATE
          mb          W/m2          W/m2          W/m2        W/m2          W/m2       degree/day
  51    .06700        0.7676        0.0000        6.0047        6.0047       5.237088       0.00000
  50    .07753        0.7676        0.0000        6.0008        6.0008       5.233235       3.08820
  49    .09103        0.7676        0.0000        5.9999        5.9999       5.232349       0.55357
  48    0.1069        0.7676        0.0000        5.9989        5.9989       5.231360       0.52651
  47    0.1255        0.7676        0.0000        5.9978        5.9978       5.230243       0.50649
  46    0.1487        0.7676        0.0000        5.9964        5.9964       5.228886       0.49456
  45    0.1794        0.7676        0.0000        5.9947        5.9947       5.227167       0.47199
  44    0.2165        0.7676        0.0000        5.9929        5.9929       5.225324       0.41909
  43    0.2613        0.7676        0.0000        5.9909        5.9909       5.223365       0.36932
  42    0.3336        0.7676        0.0000        5.9880        5.9880       5.220487       0.33555
  41    0.4307        0.7676        0.0000        5.9846        5.9846       5.217018       0.30164
  40    0.5894        0.7676        0.0000        5.9791        5.9791       5.211513       0.29275
  39     1.339        0.7676        0.0000        5.9536        5.9536       5.186026       0.28693
  38     1.782        0.7676        0.0000        5.9395        5.9395       5.171888       0.26916
  37     2.292        0.7676        0.0000        5.9237        5.9237       5.156138       0.26087
  36     2.964        0.7676        0.0000        5.9039        5.9039       5.136364       0.24822
  35     3.853        0.7676        0.0000        5.8793        5.8793       5.111709       0.23398
  34     5.035        0.7676        0.0000        5.8487        5.8487       5.081146       0.21832
  33     6.613        0.7676        0.0000        5.8108        5.8108       5.043183       0.20295
  32     8.786        0.7676        0.0000        5.7631        5.7631       4.995560       0.18495
  31     11.80        0.7676        0.0000        5.7039        5.7039       4.936304       0.16590
  30     15.07        0.7676        0.0000        5.6539        5.6539       4.886266       0.12919
  29     18.79        0.7676        0.0000        5.6127        5.6127       4.845131       0.09327
  28     23.16        0.7676        0.0000        5.5794        5.5794       4.811753       0.06454
  27     28.12        0.7676        0.0000        5.5518        5.5518       4.784184       0.04687
  26     33.73        0.7676        0.0000        5.5268        5.5268       4.759127       0.03767
  25     40.54        0.7677        0.0000        5.4993        5.4993       4.731677       0.03406
  24     48.69        0.7677        0.0000        5.4678        5.4678       4.700126       0.03265
  23     57.69        0.7677        0.0000        5.4340        5.4340       4.666325       0.03168
  22     68.43        0.7677        0.0000        5.3947        5.3948       4.627035       0.03089
  21     81.20        0.7677        0.0000        5.3497        5.3497       4.581980       0.02977
  20     96.49        0.7678        0.0000        5.2982        5.2982       4.530439       0.02845
  19     114.6        0.7678        0.0000        5.2389        5.2389       4.471082       0.02772
  18     136.5        0.7679        0.0000        5.1716        5.1717       4.403782       0.02588
  17     162.9        0.7680        0.0000        5.0890        5.0890       4.321086       0.02643
  16     196.4        0.7681        0.0000        4.9668        4.9668       4.198737       0.03080
  15     218.7        0.7682        0.0000        4.8585        4.8585       4.090241       0.04119
  14     243.0        0.7685        0.0000        4.7078        4.7079       3.939404       0.05232
  13     269.0        0.7688        0.0000        4.5343        4.5343       3.765486       0.05642
  12     297.5        0.7694        0.0000        4.3419        4.3420       3.572614       0.05720
  11     328.5        0.7701        0.0000        4.1281        4.1281       3.358033       0.05834
  10     361.9        0.7711        0.0000        3.8786        3.8787       3.107538       0.06338
   9     398.1        0.7725        0.0000        3.6159        3.6159       2.843453       0.06153
   8     437.6        0.7743        0.0000        3.3759        3.3759       2.601606       0.05171
   7     480.5        0.7765        0.0000        3.1957        3.1958       2.419278       0.03581
   6     533.0        0.7800        0.0000        3.0467        3.0467       2.266740       0.02454
   5     589.8        0.7852        0.0000        2.9023        2.9023       2.117145       0.02220
   4     651.6        0.7946        0.0000        2.7183        2.7184       1.923764       0.02645
   3     718.7        0.8110        0.0000        2.5058        2.5059       1.694889       0.02876
   2     792.3        0.8411        0.0000        2.2756        2.2757       1.434584       0.02985
   1     891.5        0.9178        0.0000        1.9621        1.9622       1.044385       0.03320
   0    1013.0        1.1108        0.0000        1.5468        1.5469       0.436062       0.04224

  Modules and versions used in this calculation:

       rrtmg_sw.1col.f90:  $Revision$                    rrtmg_sw_init.f90:  $Revision$        
     rrtmgsw_cldprop.f90:  $Revision$                  rrtmgsw_cldprmc.f90:  NOT USED          
     rrtmg_sw_reftra.f90:  $Revision$                  rrtmg_sw_spcvrt.f90:  NOT USED          
     rrtmg_sw_spcvmc.f90:  NOT USED                    rrtmgsw_setcoef.f90:  NOT USED          
     rrtmg_sw_taumol.f90:  $Revision$                  rrtmg_sw_vrtqdr.f90:  NOT USED          
                rrtatm.f:  NOT USED                             util_xxx.f:  NOT USED          
                 extra.f:  NOT USED                       rrtmg_sw_k_g.f90:  $Revision$        

