

 Wavenumbers:   820. - 50000. cm-1, ATM      1
 LEVEL PRESSURE   UPWARD FLUX   DIFDOWN FLUX  DIRDOWN FLUX  DOWNWARD FLUX   NET FLUX    HEATING RATE
          mb          W/m2          W/m2          W/m2        W/m2          W/m2       degree/day
  51    .06700      598.7325        0.0000      978.9129      978.9129     380.180456       0.00000
  50    .07753      598.7324        0.0016      978.8929      978.8945     380.162038      14.76199
  49    .09103      598.7324        0.0036      978.8746      978.8782     380.145804      10.14666
  48    0.1069      598.7324        0.0059      978.8538      978.8597     380.127300       9.84999
  47    0.1255      598.7325        0.0086      978.8287      978.8373     380.104806      10.19755
  46    0.1487      598.7326        0.0119      978.7945      978.8065     380.073817      11.29596
  45    0.1794      598.7330        0.0165      978.7442      978.7607     380.027701      12.65989
  44    0.2165      598.7336        0.0219      978.6795      978.7014     379.967790      13.62870
  43    0.2613      598.7346        0.0283      978.5960      978.6243     379.889649      14.72928
  42    0.3336      598.7368        0.0388      978.4452      978.4840     379.747265      16.60056
  41    0.4307      598.7402        0.0527      978.2299      978.2826     379.542404      17.81217
  40    0.5894      598.7474        0.0752      977.8465      977.9217     379.174238      19.57860
  39     1.339      598.8096        0.1780      975.6649      975.8428     377.033232      24.10385
  38     1.782      598.8660        0.2361      974.3576      974.5937     375.727705      24.85512
  37     2.292      598.9495        0.3023      972.9788      973.2811     374.331654      23.12225
  36     2.964      599.0868        0.3886      971.4458      971.8344     372.747581      19.88490
  35     3.853      599.3070        0.5018      969.8133      970.3151     371.008129      16.50772
  34     5.035      599.6376        0.6514      968.0951      968.7465     369.108943      13.56700
  33     6.613      600.0994        0.8506      966.2838      967.1344     367.035062      11.08697
  32     8.786      600.7034        1.1182      964.3677      965.4859     364.782482       8.74821
  31     11.80      601.4967        1.4997      962.1995      963.6992     362.202455       7.22326
  30     15.07      602.2663        1.9082      960.2817      962.1899     359.923562       5.88366
  29     18.79      603.0623        2.3683      958.4070      960.7753     357.713040       5.01194
  28     23.16      603.9075        2.9043      956.4817      959.3860     355.478427       4.32102
  27     28.12      604.7751        3.5159      954.5298      958.0458     353.270718       3.75296
  26     33.73      605.5998        4.1998      952.6157      956.8156     351.215729       3.08973
  25     40.54      606.4251        5.0253      950.5746      955.5999     349.174808       2.53199
  24     48.69      607.2535        6.0191      948.3660      954.3850     347.131551       2.11445
  23     57.69      608.0006        7.1089      946.1647      953.2736     345.273057       1.74206
  22     68.43      608.7120        8.4045      943.7683      952.1728     343.460755       1.42471
  21     81.20      609.3094        9.9467      941.1917      951.1384     341.829028       1.07822
  20     96.49      609.7861       11.7811      938.3714      950.1524     340.366353       0.80729
  19     114.6      610.2520       13.9495      935.1517      949.1013     338.849282       0.70837
  18     136.5      610.7229       16.5334      931.4592      947.9926     337.269673       0.60740
  17     162.9      611.2012       19.5462      927.1381      946.6843     335.483133       0.57105
  16     196.4      611.6491       23.4184      921.5266      944.9450     333.295956       0.55054
  15     218.7      611.8800       25.9399      917.4507      943.3906     331.510586       0.67784
  14     243.0      612.1027       28.6599      912.4185      941.0783     328.975611       0.87921
  13     269.0      612.3156       31.5834      906.0822      937.6656     325.349956       1.17615
  12     297.5      612.5213       34.7149      898.2914      933.0063     320.485077       1.44287
  11     328.5      612.7361       38.0664      889.7597      927.8261     315.090003       1.46691
  10     361.9      612.9643       41.6381      880.5541      922.1922     309.227844       1.48318
   9     398.1      613.2139       45.4399      870.4166      915.8564     302.642513       1.53423
   8     437.6      613.5007       49.4747      859.0685      908.5433     295.042616       1.62491
   7     480.5      613.8385       53.7459      846.6624      900.4084     286.569880       1.66401
   6     533.0      614.3216       58.9301      831.2587      890.1888     275.867159       1.72173
   5     589.8      614.9795       64.4288      814.3290      878.7579     263.778352       1.79438
   4     651.6      615.9849       70.2377      794.9846      865.2223     249.237415       1.98851
   3     718.7      617.5285       76.3528      773.8805      850.2333     232.704829       2.07769
   2     792.3      620.0719       82.7599      750.8876      833.6475     213.575616       2.19391
   1     891.5      625.8882       91.1740      719.8687      811.0428     185.154530       2.41850
   0    1013.0      639.3940      100.9352      684.0363      784.9714     145.577414       2.74804



 Wavenumbers:  2600. -  3250. cm-1, ATM      1
 LEVEL PRESSURE   UPWARD FLUX   DIFDOWN FLUX  DIRDOWN FLUX  DOWNWARD FLUX   NET FLUX    HEATING RATE
          mb          W/m2          W/m2          W/m2        W/m2          W/m2       degree/day
  51    .06700        0.0207        0.0000        8.6276        8.6276       8.606887       0.00000
  50    .07753        0.0207        0.0000        8.6276        8.6276       8.606879       0.00640
  49    .09103        0.0207        0.0000        8.6275        8.6275       8.606869       0.00627
  48    0.1069        0.0207        0.0000        8.6275        8.6275       8.606857       0.00613
  47    0.1255        0.0207        0.0000        8.6275        8.6275       8.606844       0.00600
  46    0.1487        0.0207        0.0000        8.6275        8.6275       8.606827       0.00608
  45    0.1794        0.0207        0.0000        8.6275        8.6275       8.606804       0.00625
  44    0.2165        0.0207        0.0000        8.6274        8.6274       8.606777       0.00613
  43    0.2613        0.0207        0.0000        8.6274        8.6274       8.606746       0.00601
  42    0.3336        0.0207        0.0000        8.6274        8.6274       8.606693       0.00618
  41    0.4307        0.0207        0.0000        8.6273        8.6273       8.606621       0.00622
  40    0.5894        0.0207        0.0000        8.6272        8.6272       8.606501       0.00639
  39     1.339        0.0207        0.0000        8.6265        8.6265       8.605788       0.00803
  38     1.782        0.0207        0.0000        8.6259        8.6259       8.605236       0.01050
  37     2.292        0.0207        0.0000        8.6252        8.6252       8.604504       0.01213
  36     2.964        0.0207        0.0000        8.6241        8.6241       8.603431       0.01347
  35     3.853        0.0207        0.0000        8.6226        8.6226       8.601882       0.01470
  34     5.035        0.0207        0.0000        8.6204        8.6204       8.599683       0.01571
  33     6.613        0.0207        0.0000        8.6173        8.6173       8.596614       0.01641
  32     8.786        0.0207        0.0000        8.6131        8.6131       8.592428       0.01626
  31     11.80        0.0207        0.0000        8.6072        8.6072       8.586580       0.01637
  30     15.07        0.0207        0.0000        8.6013        8.6013       8.580665       0.01527
  29     18.79        0.0207        0.0000        8.5952        8.5952       8.574562       0.01384
  28     23.16        0.0207        0.0000        8.5888        8.5888       8.568154       0.01239
  27     28.12        0.0207        0.0000        8.5822        8.5822       8.561569       0.01119
  26     33.73        0.0207        0.0000        8.5752        8.5752       8.554517       0.01060
  25     40.54        0.0207        0.0000        8.5666        8.5666       8.545911       0.01068
  24     48.69        0.0207        0.0000        8.5557        8.5557       8.535078       0.01121
  23     57.69        0.0207        0.0000        8.5429        8.5429       8.522255       0.01202
  22     68.43        0.0206        0.0000        8.5263        8.5263       8.505648       0.01306
  21     81.20        0.0206        0.0000        8.5048        8.5049       8.484225       0.01416
  20     96.49        0.0206        0.0000        8.4776        8.4777       8.457033       0.01501
  19     114.6        0.0206        0.0000        8.4430        8.4431       8.422442       0.01615
  18     136.5        0.0206        0.0000        8.4012        8.4013       8.380627       0.01608
  17     162.9        0.0206        0.0001        8.3514        8.3515       8.330861       0.01591
  16     196.4        0.0206        0.0001        8.2879        8.2880       8.267376       0.01598
  15     218.7        0.0206        0.0001        8.2442        8.2443       8.223684       0.01659
  14     243.0        0.0206        0.0001        8.1912        8.1913       8.170659       0.01839
  13     269.0        0.0206        0.0001        8.1252        8.1253       8.104729       0.02139
  12     297.5        0.0206        0.0001        8.0450        8.0451       8.024433       0.02381
  11     328.5        0.0206        0.0001        7.9546        7.9547       7.934087       0.02456
  10     361.9        0.0207        0.0001        7.8524        7.8525       7.831889       0.02586
   9     398.1        0.0207        0.0001        7.7310        7.7311       7.710429       0.02830
   8     437.6        0.0207        0.0001        7.5800        7.5801       7.559375       0.03230
   7     480.5        0.0208        0.0001        7.3899        7.3901       7.369270       0.03734
   6     533.0        0.0209        0.0002        7.1185        7.1186       7.097686       0.04369
   5     589.8        0.0211        0.0002        6.7801        6.7803       6.759187       0.05024
   4     651.6        0.0214        0.0002        6.3658        6.3660       6.344543       0.05670
   3     718.7        0.0219        0.0002        5.9125        5.9127       5.890765       0.05703
   2     792.3        0.0227        0.0002        5.4174        5.4176       5.394879       0.05687
   1     891.5        0.0246        0.0002        4.7285        4.7287       4.704102       0.05878
   0    1013.0        0.0295        0.0002        3.9380        3.9381       3.908569       0.05524



 Wavenumbers:  3250. -  4000. cm-1, ATM      1
 LEVEL PRESSURE   UPWARD FLUX   DIFDOWN FLUX  DIRDOWN FLUX  DOWNWARD FLUX   NET FLUX    HEATING RATE
          mb          W/m2          W/m2          W/m2        W/m2          W/m2       degree/day
  51    .06700        0.0005        0.0000       14.5448       14.5448      14.544305       0.00000
  50    .07753        0.0005        0.0000       14.5394       14.5394      14.538930       4.30869
  49    .09103        0.0005        0.0000       14.5349       14.5349      14.534448       2.80133
  48    0.1069        0.0005        0.0000       14.5314       14.5314      14.530908       1.88427
  47    0.1255        0.0005        0.0000       14.5283       14.5283      14.527849       1.38703
  46    0.1487        0.0005        0.0000       14.5252       14.5252      14.524698       1.14850
  45    0.1794        0.0005        0.0000       14.5215       14.5215      14.521010       1.01247
  44    0.2165        0.0005        0.0000       14.5177       14.5177      14.517173       0.87268
  43    0.2613        0.0005        0.0000       14.5136       14.5136      14.513153       0.75783
  42    0.3336        0.0005        0.0000       14.5079       14.5079      14.507438       0.66631
  41    0.4307        0.0005        0.0000       14.5016       14.5016      14.501105       0.55063
  40    0.5894        0.0005        0.0000       14.4929       14.4929      14.492358       0.46516
  39     1.339        0.0005        0.0000       14.4602       14.4602      14.459723       0.36742
  38     1.782        0.0005        0.0000       14.4449       14.4449      14.444442       0.29091
  37     2.292        0.0005        0.0000       14.4299       14.4299      14.429411       0.24896
  36     2.964        0.0005        0.0000       14.4130       14.4130      14.412471       0.21264
  35     3.853        0.0005        0.0000       14.3934       14.3934      14.392899       0.18574
  34     5.035        0.0005        0.0000       14.3698       14.3698      14.369318       0.16845
  33     6.613        0.0005        0.0000       14.3399       14.3399      14.339384       0.16003
  32     8.786        0.0005        0.0000       14.2993       14.2993      14.298862       0.15737
  31     11.80        0.0005        0.0000       14.2394       14.2394      14.238905       0.16786
  30     15.07        0.0005        0.0000       14.1723       14.1724      14.171875       0.17306
  29     18.79        0.0005        0.0000       14.0941       14.0942      14.093705       0.17724
  28     23.16        0.0005        0.0000       14.0012       14.0012      14.000761       0.17972
  27     28.12        0.0005        0.0000       13.8952       13.8952      13.894743       0.18022
  26     33.73        0.0005        0.0000       13.7802       13.7803      13.779838       0.17276
  25     40.54        0.0004        0.0001       13.6497       13.6497      13.649302       0.16195
  24     48.69        0.0004        0.0001       13.5071       13.5071      13.506715       0.14756
  23     57.69        0.0004        0.0001       13.3665       13.3666      13.366162       0.13175
  22     68.43        0.0004        0.0001       13.2147       13.2148      13.214390       0.11931
  21     81.20        0.0004        0.0001       13.0461       13.0462      13.045776       0.11142
  20     96.49        0.0004        0.0001       12.8522       12.8523      12.851921       0.10699
  19     114.6        0.0003        0.0001       12.6174       12.6175      12.617188       0.10960
  18     136.5        0.0003        0.0002       12.3479       12.3481      12.347756       0.10360
  17     162.9        0.0003        0.0002       12.0268       12.0270      12.026724       0.10261
  16     196.4        0.0003        0.0002       11.5651       11.5653      11.565037       0.11621
  15     218.7        0.0002        0.0002       11.1352       11.1355      11.135237       0.16318
  14     243.0        0.0002        0.0003       10.5408       10.5410      10.540798       0.20617
  13     269.0        0.0002        0.0003        9.7678        9.7681       9.767873       0.25073
  12     297.5        0.0002        0.0003        8.8733        8.8735       8.873369       0.26530
  11     328.5        0.0001        0.0002        7.9887        7.9889       7.988781       0.24052
  10     361.9        0.0001        0.0002        7.1143        7.1145       7.114392       0.22123
   9     398.1        0.0001        0.0002        6.2538        6.2540       6.253912       0.20047
   8     437.6        0.0001        0.0002        5.4352        5.4354       5.435304       0.17502
   7     480.5        0.0001        0.0002        4.6971        4.6973       4.697229       0.14496
   6     533.0        0.0001        0.0002        3.9177        3.9179       3.917812       0.12538
   5     589.8        0.0000        0.0002        3.1747        3.1749       3.174810       0.11029
   4     651.6        0.0000        0.0001        2.4204        2.4206       2.420545       0.10315
   3     718.7        0.0000        0.0001        1.6987        1.6988       1.698751       0.09071
   2     792.3        0.0000        0.0001        1.0538        1.0539       1.053810       0.07397
   1     891.5        0.0001        0.0000        0.4517        0.4517       0.451595       0.05125
   0    1013.0        0.0011        0.0000        0.0929        0.0929       0.091814       0.02498



 Wavenumbers:  4000. -  4650. cm-1, ATM      1
 LEVEL PRESSURE   UPWARD FLUX   DIFDOWN FLUX  DIRDOWN FLUX  DOWNWARD FLUX   NET FLUX    HEATING RATE
          mb          W/m2          W/m2          W/m2        W/m2          W/m2       degree/day
  51    .06700        0.5422        0.0000       17.0800       17.0800      16.537748       0.00000
  50    .07753        0.5422        0.0000       17.0800       17.0800      16.537747       0.00080
  49    .09103        0.5422        0.0000       17.0800       17.0800      16.537745       0.00078
  48    0.1069        0.5422        0.0000       17.0800       17.0800      16.537744       0.00076
  47    0.1255        0.5422        0.0000       17.0800       17.0800      16.537742       0.00075
  46    0.1487        0.5422        0.0000       17.0800       17.0800      16.537740       0.00076
  45    0.1794        0.5422        0.0000       17.0800       17.0800      16.537737       0.00078
  44    0.2165        0.5422        0.0000       17.0800       17.0800      16.537734       0.00076
  43    0.2613        0.5422        0.0000       17.0800       17.0800      16.537730       0.00075
  42    0.3336        0.5422        0.0000       17.0800       17.0800      16.537724       0.00077
  41    0.4307        0.5422        0.0000       17.0800       17.0800      16.537715       0.00077
  40    0.5894        0.5422        0.0000       17.0799       17.0799      16.537700       0.00080
  39     1.339        0.5422        0.0000       17.0798       17.0799      16.537610       0.00101
  38     1.782        0.5422        0.0000       17.0798       17.0798      16.537541       0.00133
  37     2.292        0.5422        0.0000       17.0797       17.0797      16.537447       0.00156
  36     2.964        0.5422        0.0000       17.0795       17.0795      16.537306       0.00176
  35     3.853        0.5422        0.0000       17.0793       17.0793      16.537098       0.00197
  34     5.035        0.5422        0.0000       17.0790       17.0790      16.536791       0.00219
  33     6.613        0.5422        0.0000       17.0785       17.0786      16.536339       0.00242
  32     8.786        0.5422        0.0000       17.0779       17.0779      16.535671       0.00259
  31     11.80        0.5422        0.0000       17.0768       17.0768      16.534621       0.00294
  30     15.07        0.5422        0.0001       17.0755       17.0756      16.533387       0.00319
  29     18.79        0.5422        0.0001       17.0740       17.0741      16.531893       0.00339
  28     23.16        0.5422        0.0001       17.0721       17.0722      16.530035       0.00359
  27     28.12        0.5422        0.0001       17.0698       17.0699      16.527780       0.00383
  26     33.73        0.5421        0.0001       17.0670       17.0671      16.524994       0.00419
  25     40.54        0.5421        0.0001       17.0632       17.0633      16.521204       0.00470
  24     48.69        0.5421        0.0002       17.0581       17.0582      16.516136       0.00524
  23     57.69        0.5421        0.0002       17.0520       17.0522      16.510106       0.00565
  22     68.43        0.5420        0.0002       17.0443       17.0446      16.502525       0.00596
  21     81.20        0.5420        0.0003       17.0349       17.0352      16.493150       0.00620
  20     96.49        0.5420        0.0004       17.0233       17.0237      16.481706       0.00632
  19     114.6        0.5419        0.0004       17.0089       17.0093      16.467349       0.00670
  18     136.5        0.5419        0.0005       16.9914       16.9919      16.450019       0.00666
  17     162.9        0.5419        0.0006       16.9700       16.9706      16.428749       0.00680
  16     196.4        0.5419        0.0007       16.9406       16.9413      16.399416       0.00738
  15     218.7        0.5419        0.0008       16.9180       16.9188      16.376924       0.00854
  14     243.0        0.5419        0.0009       16.8877       16.8886      16.346647       0.01050
  13     269.0        0.5420        0.0010       16.8453       16.8463      16.304243       0.01376
  12     297.5        0.5422        0.0011       16.7877       16.7888      16.246557       0.01711
  11     328.5        0.5425        0.0012       16.7166       16.7178      16.175254       0.01939
  10     361.9        0.5430        0.0013       16.6269       16.6282      16.085247       0.02277
   9     398.1        0.5435        0.0014       16.5094       16.5108      15.967323       0.02747
   8     437.6        0.5442        0.0015       16.3543       16.3558      15.811652       0.03328
   7     480.5        0.5451        0.0016       16.1605       16.1621      15.617048       0.03822
   6     533.0        0.5464        0.0018       15.8957       15.8975      15.351072       0.04279
   5     589.8        0.5483        0.0019       15.5898       15.5918      15.043410       0.04567
   4     651.6        0.5514        0.0021       15.2219       15.2239      14.672565       0.05071
   3     718.7        0.5562        0.0022       14.7640       14.7662      14.209984       0.05813
   2     792.3        0.5644        0.0023       14.1483       14.1506      13.586208       0.07154
   1     891.5        0.5837        0.0024       13.1875       13.1899      12.606291       0.08339
   0    1013.0        0.6325        0.0025       12.0912       12.0937      11.461190       0.07951



 Wavenumbers:  4650. -  5150. cm-1, ATM      1
 LEVEL PRESSURE   UPWARD FLUX   DIFDOWN FLUX  DIRDOWN FLUX  DOWNWARD FLUX   NET FLUX    HEATING RATE
          mb          W/m2          W/m2          W/m2        W/m2          W/m2       degree/day
  51    .06700        0.0959        0.0000       16.1670       16.1670      16.071149       0.00000
  50    .07753        0.0959        0.0000       16.1668       16.1668      16.070913       0.18917
  49    .09103        0.0959        0.0000       16.1665       16.1665      16.070617       0.18479
  48    0.1069        0.0959        0.0000       16.1661       16.1661      16.070279       0.18021
  47    0.1255        0.0959        0.0000       16.1658       16.1658      16.069891       0.17558
  46    0.1487        0.0959        0.0000       16.1653       16.1653      16.069405       0.17723
  45    0.1794        0.0959        0.0000       16.1646       16.1646      16.068745       0.18113
  44    0.2165        0.0959        0.0000       16.1638       16.1638      16.067971       0.17618
  43    0.2613        0.0959        0.0000       16.1629       16.1629      16.067063       0.17118
  42    0.3336        0.0959        0.0000       16.1614       16.1614      16.065581       0.17272
  41    0.4307        0.0959        0.0000       16.1595       16.1595      16.063656       0.16743
  40    0.5894        0.0959        0.0000       16.1565       16.1565      16.060603       0.16235
  39     1.339        0.0959        0.0000       16.1434       16.1434      16.047553       0.14692
  38     1.782        0.0959        0.0000       16.1367       16.1367      16.040855       0.12751
  37     2.292        0.0959        0.0000       16.1297       16.1297      16.033883       0.11547
  36     2.964        0.0958        0.0000       16.1217       16.1217      16.025831       0.10109
  35     3.853        0.0958        0.0000       16.1126       16.1126      16.016784       0.08585
  34     5.035        0.0958        0.0000       16.1028       16.1028      16.006949       0.07026
  33     6.613        0.0958        0.0000       16.0924       16.0924      15.996585       0.05541
  32     8.786        0.0958        0.0000       16.0815       16.0816      15.985745       0.04210
  31     11.80        0.0958        0.0001       16.0692       16.0692      15.973417       0.03451
  30     15.07        0.0958        0.0001       16.0574       16.0575      15.961701       0.03025
  29     18.79        0.0958        0.0001       16.0443       16.0444      15.948590       0.02973
  28     23.16        0.0957        0.0001       16.0281       16.0282      15.932454       0.03120
  27     28.12        0.0957        0.0002       16.0080       16.0082      15.912468       0.03397
  26     33.73        0.0957        0.0002       15.9837       15.9838      15.888149       0.03656
  25     40.54        0.0957        0.0002       15.9517       15.9519      15.856247       0.03958
  24     48.69        0.0956        0.0003       15.9102       15.9105      15.814828       0.04286
  23     57.69        0.0956        0.0003       15.8617       15.8620      15.766455       0.04534
  22     68.43        0.0955        0.0004       15.8013       15.8016      15.706085       0.04746
  21     81.20        0.0955        0.0004       15.7272       15.7277      15.632199       0.04882
  20     96.49        0.0954        0.0005       15.6384       15.6389      15.543453       0.04898
  19     114.6        0.0953        0.0006       15.5345       15.5351      15.439741       0.04843
  18     136.5        0.0953        0.0007       15.4168       15.4175      15.322261       0.04517
  17     162.9        0.0952        0.0008       15.2860       15.2868      15.191620       0.04176
  16     196.4        0.0951        0.0010       15.1317       15.1327      15.037658       0.03875
  15     218.7        0.0950        0.0011       15.0376       15.0387      14.943718       0.03567
  14     243.0        0.0949        0.0012       14.9385       14.9398      14.844818       0.03430
  13     269.0        0.0949        0.0013       14.8311       14.8324      14.737525       0.03481
  12     297.5        0.0949        0.0015       14.7094       14.7109      14.616054       0.03603
  11     328.5        0.0949        0.0016       14.5727       14.5743      14.479450       0.03714
  10     361.9        0.0949        0.0018       14.4168       14.4185      14.323656       0.03942
   9     398.1        0.0950        0.0019       14.2356       14.2375      14.142568       0.04219
   8     437.6        0.0951        0.0021       14.0227       14.0247      13.929646       0.04552
   7     480.5        0.0953        0.0022       13.7720       13.7742      13.678958       0.04923
   6     533.0        0.0956        0.0024       13.4325       13.4349      13.339259       0.05465
   5     589.8        0.0962        0.0025       13.0257       13.0282      12.932028       0.06045
   4     651.6        0.0971        0.0027       12.5281       12.5308      12.433689       0.06815
   3     718.7        0.0986        0.0028       11.9486       11.9514      11.852847       0.07300
   2     792.3        0.1009        0.0029       11.2995       11.3024      11.201474       0.07471
   1     891.5        0.1061        0.0030       10.4298       10.4328      10.326680       0.07444
   0    1013.0        0.1175        0.0031        9.4710        9.4741       9.356622       0.06736



 Wavenumbers:  5150. -  6150. cm-1, ATM      1
 LEVEL PRESSURE   UPWARD FLUX   DIFDOWN FLUX  DIRDOWN FLUX  DOWNWARD FLUX   NET FLUX    HEATING RATE
          mb          W/m2          W/m2          W/m2        W/m2          W/m2       degree/day
  51    .06700        1.2417        0.0000       40.5308       40.5308      39.289024       0.00000
  50    .07753        1.2417        0.0000       40.5307       40.5307      39.288984       0.03156
  49    .09103        1.2417        0.0000       40.5307       40.5307      39.288933       0.03205
  48    0.1069        1.2417        0.0000       40.5306       40.5306      39.288872       0.03256
  47    0.1255        1.2417        0.0000       40.5305       40.5305      39.288799       0.03306
  46    0.1487        1.2417        0.0000       40.5304       40.5304      39.288703       0.03484
  45    0.1794        1.2417        0.0000       40.5303       40.5303      39.288568       0.03709
  44    0.2165        1.2417        0.0000       40.5301       40.5301      39.288403       0.03766
  43    0.2613        1.2417        0.0000       40.5299       40.5299      39.288200       0.03825
  42    0.3336        1.2417        0.0000       40.5296       40.5296      39.287853       0.04043
  41    0.4307        1.2417        0.0000       40.5291       40.5291      39.287381       0.04099
  40    0.5894        1.2417        0.0000       40.5283       40.5283      39.286591       0.04204
  39     1.339        1.2417        0.0000       40.5245       40.5245      39.282771       0.04300
  38     1.782        1.2417        0.0000       40.5222       40.5222      39.280539       0.04250
  37     2.292        1.2417        0.0001       40.5196       40.5197      39.278005       0.04197
  36     2.964        1.2417        0.0001       40.5164       40.5165      39.274774       0.04056
  35     3.853        1.2417        0.0001       40.5122       40.5123      39.270648       0.03915
  34     5.035        1.2416        0.0001       40.5068       40.5069      39.265302       0.03819
  33     6.613        1.2416        0.0002       40.4997       40.4999      39.258312       0.03737
  32     8.786        1.2416        0.0002       40.4905       40.4907      39.249156       0.03556
  31     11.80        1.2415        0.0003       40.4778       40.4781      39.236595       0.03517
  30     15.07        1.2414        0.0004       40.4648       40.4652      39.223789       0.03306
  29     18.79        1.2413        0.0005       40.4510       40.4515      39.210171       0.03088
  28     23.16        1.2413        0.0006       40.4359       40.4365      39.195224       0.02890
  27     28.12        1.2412        0.0007       40.4196       40.4203      39.179186       0.02726
  26     33.73        1.2410        0.0009       40.4028       40.4036      39.162590       0.02495
  25     40.54        1.2409        0.0010       40.3840       40.3851      39.144151       0.02288
  24     48.69        1.2408        0.0012       40.3635       40.3648      39.124016       0.02084
  23     57.69        1.2406        0.0015       40.3428       40.3443      39.103719       0.01903
  22     68.43        1.2404        0.0017       40.3200       40.3218      39.081384       0.01756
  21     81.20        1.2402        0.0021       40.2946       40.2966      39.056473       0.01646
  20     96.49        1.2399        0.0025       40.2655       40.2680      39.028100       0.01566
  19     114.6        1.2396        0.0029       40.2319       40.2348      38.995188       0.01537
  18     136.5        1.2392        0.0035       40.1923       40.1957      38.956530       0.01486
  17     162.9        1.2388        0.0041       40.1332       40.1373      38.898485       0.01855
  16     196.4        1.2382        0.0049       40.0083       40.0132      38.774982       0.03109
  15     218.7        1.2379        0.0055       39.8272       39.8327      38.594858       0.06839
  14     243.0        1.2375        0.0060       39.4756       39.4816      38.244072       0.12166
  13     269.0        1.2372        0.0065       38.8201       38.8267      37.589524       0.21233
  12     297.5        1.2368        0.0070       37.8632       37.8703      36.633451       0.28356
  11     328.5        1.2365        0.0076       36.8665       36.8741      35.637510       0.27079
  10     361.9        1.2363        0.0081       35.8092       35.8173      34.580978       0.26731
   9     398.1        1.2362        0.0085       34.5762       34.5847      33.348584       0.28712
   8     437.6        1.2361        0.0089       33.1458       33.1547      31.918612       0.30574
   7     480.5        1.2363        0.0093       31.6212       31.6306      30.394324       0.29936
   6     533.0        1.2368        0.0098       29.8207       29.8304      28.593650       0.28967
   5     589.8        1.2379        0.0102       27.9963       28.0065      26.768554       0.27090
   4     651.6        1.2405        0.0106       26.1673       26.1779      24.937349       0.25042
   3     718.7        1.2455        0.0110       24.5749       24.5859      23.340405       0.20069
   2     792.3        1.2555        0.0115       23.2493       23.2608      22.005355       0.15312
   1     891.5        1.2829        0.0122       21.8291       21.8412      20.558365       0.12313
   0    1013.0        1.3691        0.0128       20.2400       20.2528      18.883729       0.11628



 Wavenumbers:  6150. -  7700. cm-1, ATM      1
 LEVEL PRESSURE   UPWARD FLUX   DIFDOWN FLUX  DIRDOWN FLUX  DOWNWARD FLUX   NET FLUX    HEATING RATE
          mb          W/m2          W/m2          W/m2        W/m2          W/m2       degree/day
  51    .06700        3.0301        0.0000       74.9632       74.9632      71.933122       0.00000
  50    .07753        3.0301        0.0000       74.9631       74.9632      71.933065       0.04553
  49    .09103        3.0301        0.0000       74.9631       74.9631      71.932992       0.04583
  48    0.1069        3.0301        0.0000       74.9630       74.9630      71.932905       0.04615
  47    0.1255        3.0301        0.0000       74.9629       74.9629      71.932803       0.04646
  46    0.1487        3.0301        0.0000       74.9627       74.9627      71.932669       0.04853
  45    0.1794        3.0301        0.0000       74.9625       74.9626      71.932483       0.05129
  44    0.2165        3.0301        0.0000       74.9623       74.9623      71.932255       0.05170
  43    0.2613        3.0301        0.0000       74.9620       74.9620      71.931979       0.05214
  42    0.3336        3.0301        0.0000       74.9615       74.9616      71.931509       0.05476
  41    0.4307        3.0300        0.0000       74.9609       74.9609      71.930873       0.05528
  40    0.5894        3.0300        0.0001       74.9598       74.9598      71.929812       0.05643
  39     1.339        3.0300        0.0001       74.9545       74.9547      71.924701       0.05754
  38     1.782        3.0299        0.0002       74.9514       74.9516      71.921713       0.05690
  37     2.292        3.0299        0.0002       74.9479       74.9482      71.918309       0.05637
  36     2.964        3.0298        0.0003       74.9434       74.9437      71.913945       0.05478
  35     3.853        3.0297        0.0004       74.9376       74.9380      71.908334       0.05325
  34     5.035        3.0296        0.0005       74.9301       74.9306      71.901025       0.05221
  33     6.613        3.0294        0.0007       74.9201       74.9209      71.891419       0.05135
  32     8.786        3.0292        0.0010       74.9070       74.9080      71.878747       0.04922
  31     11.80        3.0289        0.0013       74.8888       74.8901      71.861167       0.04922
  30     15.07        3.0286        0.0016       74.8699       74.8716      71.842990       0.04693
  29     18.79        3.0282        0.0021       74.8495       74.8516      71.823339       0.04455
  28     23.16        3.0278        0.0025       74.8267       74.8292      71.801390       0.04244
  27     28.12        3.0273        0.0031       74.8016       74.8047      71.777401       0.04078
  26     33.73        3.0267        0.0037       74.7751       74.7788      71.752058       0.03810
  25     40.54        3.0261        0.0044       74.7450       74.7494      71.723305       0.03567
  24     48.69        3.0253        0.0053       74.7112       74.7165      71.691200       0.03322
  23     57.69        3.0244        0.0063       74.6762       74.6825      71.658120       0.03101
  22     68.43        3.0233        0.0074       74.6368       74.6443      71.620959       0.02921
  21     81.20        3.0221        0.0088       74.5920       74.6008      71.578789       0.02787
  20     96.49        3.0205        0.0105       74.5402       74.5507      71.530164       0.02684
  19     114.6        3.0187        0.0124       74.4794       74.4919      71.473143       0.02663
  18     136.5        3.0166        0.0148       74.4075       74.4223      71.405697       0.02593
  17     162.9        3.0141        0.0176       74.3039       74.3215      71.307427       0.03141
  16     196.4        3.0108        0.0211       74.0937       74.1148      71.104000       0.05121
  15     218.7        3.0087        0.0234       73.8010       73.8244      70.815732       0.10944
  14     243.0        3.0064        0.0258       73.2776       73.3034      70.296978       0.17992
  13     269.0        3.0041        0.0282       72.3952       72.4234      69.419295       0.28472
  12     297.5        3.0019        0.0305       70.9735       71.0040      68.002112       0.42032
  11     328.5        2.9996        0.0327       69.2415       69.2742      66.274602       0.46971
  10     361.9        2.9975        0.0350       67.3544       67.3894      64.391894       0.47634
   9     398.1        2.9957        0.0373       65.2833       65.3206      62.324850       0.48157
   8     437.6        2.9944        0.0393       62.8699       62.9091      59.914742       0.51530
   7     480.5        2.9938        0.0411       60.1446       60.1857      57.191842       0.53477
   6     533.0        2.9948        0.0429       56.7748       56.8177      53.822968       0.54194
   5     589.8        2.9987        0.0445       53.1680       53.2125      50.213820       0.53572
   4     651.6        3.0091        0.0455       49.1847       49.2302      46.221180       0.54600
   3     718.7        3.0304        0.0462       45.2007       45.2469      42.216442       0.50328
   2     792.3        3.0734        0.0466       41.2879       41.3345      38.261102       0.45363
   1     891.5        3.1901        0.0469       36.7266       36.7735      33.583367       0.39805
   0    1013.0        3.5411        0.0473       32.3800       32.4273      28.886251       0.32614



 Wavenumbers:  7700. -  8050. cm-1, ATM      1
 LEVEL PRESSURE   UPWARD FLUX   DIFDOWN FLUX  DIRDOWN FLUX  DOWNWARD FLUX   NET FLUX    HEATING RATE
          mb          W/m2          W/m2          W/m2        W/m2          W/m2       degree/day
  51    .06700        5.9682        0.0000       17.7160       17.7160      11.747873       0.00000
  50    .07753        5.9682        0.0000       17.7160       17.7160      11.747851       0.01752
  49    .09103        5.9682        0.0000       17.7160       17.7160      11.747824       0.01717
  48    0.1069        5.9682        0.0000       17.7160       17.7160      11.747792       0.01681
  47    0.1255        5.9682        0.0000       17.7159       17.7159      11.747756       0.01645
  46    0.1487        5.9682        0.0000       17.7159       17.7159      11.747710       0.01669
  45    0.1794        5.9682        0.0000       17.7158       17.7158      11.747647       0.01718
  44    0.2165        5.9682        0.0000       17.7158       17.7158      11.747573       0.01685
  43    0.2613        5.9682        0.0000       17.7157       17.7157      11.747486       0.01654
  42    0.3336        5.9683        0.0000       17.7156       17.7156      11.747341       0.01692
  41    0.4307        5.9683        0.0000       17.7154       17.7154      11.747148       0.01674
  40    0.5894        5.9683        0.0000       17.7152       17.7152      11.746834       0.01672
  39     1.339        5.9686        0.0001       17.7139       17.7140      11.745346       0.01675
  38     1.782        5.9688        0.0001       17.7131       17.7132      11.744472       0.01664
  37     2.292        5.9689        0.0001       17.7123       17.7124      11.743461       0.01676
  36     2.964        5.9692        0.0002       17.7111       17.7113      11.742132       0.01668
  35     3.853        5.9695        0.0002       17.7097       17.7099      11.740377       0.01666
  34     5.035        5.9699        0.0003       17.7077       17.7079      11.738044       0.01666
  33     6.613        5.9705        0.0004       17.7050       17.7054      11.734928       0.01666
  32     8.786        5.9712        0.0005       17.7014       17.7019      11.730728       0.01631
  31     11.80        5.9723        0.0007       17.6963       17.6970      11.724718       0.01682
  30     15.07        5.9734        0.0008       17.6909       17.6917      11.718266       0.01666
  29     18.79        5.9747        0.0010       17.6847       17.6857      11.710978       0.01652
  28     23.16        5.9762        0.0013       17.6774       17.6787      11.702467       0.01646
  27     28.12        5.9780        0.0016       17.6692       17.6707      11.692737       0.01654
  26     33.73        5.9800        0.0019       17.6600       17.6618      11.681855       0.01636
  25     40.54        5.9824        0.0022       17.6488       17.6511      11.668716       0.01630
  24     48.69        5.9853        0.0027       17.6355       17.6382      11.652892       0.01638
  23     57.69        5.9885        0.0032       17.6208       17.6240      11.635532       0.01627
  22     68.43        5.9923        0.0038       17.6034       17.6072      11.614887       0.01623
  21     81.20        5.9969        0.0045       17.5828       17.5873      11.590340       0.01622
  20     96.49        6.0025        0.0053       17.5583       17.5636      11.561161       0.01610
  19     114.6        6.0091        0.0063       17.5294       17.5357      11.526618       0.01613
  18     136.5        6.0171        0.0074       17.4955       17.5029      11.485816       0.01569
  17     162.9        6.0267        0.0088       17.4553       17.4641      11.437420       0.01547
  16     196.4        6.0395        0.0106       17.4038       17.4144      11.374952       0.01572
  15     218.7        6.0480        0.0118       17.3702       17.3820      11.334069       0.01552
  14     243.0        6.0574        0.0131       17.3339       17.3471      11.289702       0.01539
  13     269.0        6.0677        0.0145       17.2948       17.3094      11.241631       0.01559
  12     297.5        6.0792        0.0160       17.2528       17.2688      11.189571       0.01544
  11     328.5        6.0919        0.0177       17.2074       17.2250      11.133134       0.01534
  10     361.9        6.1060        0.0194       17.1586       17.1780      11.072028       0.01546
   9     398.1        6.1217        0.0213       17.1061       17.1274      11.005663       0.01546
   8     437.6        6.1393        0.0233       17.0493       17.0726      10.933323       0.01547
   7     480.5        6.1591        0.0255       16.9879       17.0134      10.854307       0.01552
   6     533.0        6.1849        0.0282       16.9112       16.9393      10.754381       0.01607
   5     589.8        6.2151        0.0310       16.8259       16.8570      10.641873       0.01670
   4     651.6        6.2513        0.0341       16.7288       16.7630      10.511630       0.01781
   3     718.7        6.2958        0.0374       16.6164       16.6538      10.357953       0.01931
   2     792.3        6.3524        0.0409       16.4822       16.5231      10.170644       0.02148
   1     891.5        6.4485        0.0455       16.2737       16.3191       9.870580       0.02553
   0    1013.0        6.6031        0.0508       15.9800       16.0308       9.427706       0.03075



 Wavenumbers:  8050. - 12850. cm-1, ATM      1
 LEVEL PRESSURE   UPWARD FLUX   DIFDOWN FLUX  DIRDOWN FLUX  DOWNWARD FLUX   NET FLUX    HEATING RATE
          mb          W/m2          W/m2          W/m2        W/m2          W/m2       degree/day
  51    .06700      132.6250        0.0000      248.0376      248.0376     115.412574       0.00000
  50    .07753      132.6250        0.0000      248.0376      248.0376     115.412574       0.00000
  49    .09103      132.6250        0.0001      248.0375      248.0376     115.412574      -0.00000
  48    0.1069      132.6250        0.0001      248.0374      248.0376     115.412574       0.00000
  47    0.1255      132.6250        0.0002      248.0374      248.0376     115.412574       0.00000
  46    0.1487      132.6250        0.0003      248.0373      248.0375     115.412574      -0.00000
  45    0.1794      132.6249        0.0004      248.0371      248.0375     115.412574       0.00000
  44    0.2165      132.6249        0.0005      248.0370      248.0375     115.412574       0.00000
  43    0.2613      132.6249        0.0006      248.0368      248.0374     115.412574      -0.00000
  42    0.3336      132.6248        0.0009      248.0365      248.0374     115.412574       0.00000
  41    0.4307      132.6247        0.0012      248.0362      248.0373     115.412574      -0.00000
  40    0.5894      132.6246        0.0017      248.0355      248.0372     115.412574       0.00000
  39     1.339      132.6241        0.0041      248.0326      248.0366     115.412574      -0.00000
  38     1.782      132.6237        0.0055      248.0308      248.0363     115.412574       0.00000
  37     2.292      132.6234        0.0071      248.0288      248.0359     115.412574      -0.00000
  36     2.964      132.6229        0.0092      248.0262      248.0354     115.412574       0.00000
  35     3.853      132.6222        0.0121      248.0227      248.0348     115.412574      -0.00000
  34     5.035      132.6213        0.0158      248.0180      248.0339     115.412574       0.00000
  33     6.613      132.6201        0.0209      248.0118      248.0327     115.412574       0.00000
  32     8.786      132.6185        0.0276      248.0035      248.0311     115.412574       0.00000
  31     11.80      132.6163        0.0373      247.9915      248.0288     115.412574      -0.00000
  30     15.07      132.6138        0.0478      247.9786      248.0264     115.412574       0.00000
  29     18.79      132.6110        0.0596      247.9641      248.0236     115.412574       0.00000
  28     23.16      132.6078        0.0734      247.9470      248.0204     115.412574       0.00000
  27     28.12      132.6041        0.0891      247.9275      248.0167     115.412574      -0.00000
  26     33.73      132.5999        0.1068      247.9057      248.0125     115.412574       0.00000
  25     40.54      132.5949        0.1283      247.8792      248.0075     115.412574       0.00000
  24     48.69      132.5889        0.1541      247.8473      248.0014     115.412574      -0.00000
  23     57.69      132.5822        0.1825      247.8122      247.9947     115.412574      -0.00000
  22     68.43      132.5742        0.2165      247.7703      247.9868     115.412574       0.00000
  21     81.20      132.5647        0.2570      247.7203      247.9773     115.412574       0.00000
  20     96.49      132.5533        0.3053      247.6606      247.9659     115.412574      -0.00000
  19     114.6      132.5401        0.3628      247.5835      247.9463     115.406268       0.00294
  18     136.5      132.5243        0.4311      247.4916      247.9228     115.398439       0.00301
  17     162.9      132.5055        0.5127      247.3783      247.8910     115.385440       0.00416
  16     196.4      132.4813        0.6188      247.2146      247.8333     115.352055       0.00840
  15     218.7      132.4656        0.6886      247.0663      247.7549     115.289273       0.02384
  14     243.0      132.4494        0.7645      246.8229      247.5874     115.138022       0.05246
  13     269.0      132.4336        0.8466      246.4104      247.2570     114.823407       0.10206
  12     297.5      132.4203        0.9352      245.7722      246.7074     114.287167       0.15904
  11     328.5      132.4106        1.0308      244.9726      246.0033     113.592751       0.18881
  10     361.9      132.4072        1.1335      244.0177      245.1511     112.743962       0.21475
   9     398.1      132.4143        1.2436      242.8483      244.0919     111.677625       0.24843
   8     437.6      132.4392        1.3609      241.3537      242.7146     110.275485       0.29979
   7     480.5      132.4906        1.4855      239.4695      240.9550     108.464464       0.35568
   6     533.0      132.6005        1.6367      236.7498      238.3866     105.786074       0.43087
   5     589.8      132.8046        1.7961      233.2356      235.0317     102.227121       0.52827
   4     651.6      133.2040        1.9607      228.4394      230.4001      97.196078       0.68801
   3     718.7      133.9321        2.1294      222.4070      224.5364      90.604271       0.82841
   2     792.3      135.2874        2.2985      215.0298      217.3282      82.040811       0.98213
   1     891.5      138.7151        2.5066      204.1552      206.6618      67.946774       1.19933
   0    1013.0      147.6093        2.7331      190.9800      193.7130      46.103702       1.51668



 Wavenumbers: 12850. - 16000. cm-1, ATM      1
 LEVEL PRESSURE   UPWARD FLUX   DIFDOWN FLUX  DIRDOWN FLUX  DOWNWARD FLUX   NET FLUX    HEATING RATE
          mb          W/m2          W/m2          W/m2        W/m2          W/m2       degree/day
  51    .06700      124.7581        0.0000      155.4175      155.4175      30.659353       0.00000
  50    .07753      124.7581        0.0001      155.4166      155.4167      30.658550       0.64426
  49    .09103      124.7582        0.0002      155.4155      155.4157      30.657534       0.63467
  48    0.1069      124.7582        0.0003      155.4143      155.4146      30.656359       0.62531
  47    0.1255      124.7583        0.0005      155.4128      155.4133      30.654999       0.61661
  46    0.1487      124.7584        0.0006      155.4110      155.4116      30.653267       0.63131
  45    0.1794      124.7585        0.0009      155.4085      155.4094      30.650886       0.65364
  44    0.2165      124.7587        0.0012      155.4056      155.4068      30.648051       0.64511
  43    0.2613      124.7590        0.0015      155.4022      155.4037      30.644669       0.63743
  42    0.3336      124.7596        0.0021      155.3966      155.3986      30.639051       0.65503
  41    0.4307      124.7604        0.0028      155.3893      155.3921      30.631626       0.64560
  40    0.5894      124.7621        0.0040      155.3776      155.3816      30.619554       0.64195
  39     1.339      124.7745        0.0098      155.3255      155.3353      30.560834       0.66108
  38     1.782      124.7852        0.0132      155.2960      155.3092      30.524078       0.69978
  37     2.292      124.8007        0.0171      155.2618      155.2789      30.478219       0.75954
  36     2.964      124.8260        0.0223      155.2156      155.2379      30.411852       0.83310
  35     3.853      124.8663        0.0291      155.1519      155.1810      30.314675       0.92223
  34     5.035      124.9266        0.0381      155.0651      155.1032      30.176582       0.98648
  33     6.613      125.0106        0.0502      154.9499      155.0001      29.989489       1.00020
  32     8.786      125.1202        0.0665      154.8019      154.8684      29.748201       0.93707
  31     11.80      125.2635        0.0897      154.6066      154.6963      29.432776       0.88309
  30     15.07      125.4018        0.1147      154.4141      154.5288      29.127060       0.78930
  29     18.79      125.5439        0.1429      154.2121      154.3550      28.811030       0.71654
  28     23.16      125.6937        0.1759      153.9933      154.1692      28.475456       0.64889
  27     28.12      125.8461        0.2136      153.7633      153.9769      28.130721       0.58603
  26     33.73      125.9896        0.2558      153.5343      153.7900      27.800440       0.49659
  25     40.54      126.1316        0.3068      153.2902      153.5970      27.465419       0.41563
  24     48.69      126.2722        0.3685      153.0284      153.3969      27.124668       0.35262
  23     57.69      126.3972        0.4363      152.7728      153.2091      26.811895       0.29318
  22     68.43      126.5140        0.5171      152.5035      153.0206      26.506664       0.23995
  21     81.20      126.6092        0.6136      152.2306      152.8442      26.235006       0.17951
  20     96.49      126.6821        0.7289      151.9516      152.6805      25.998460       0.13056
  19     114.6      126.7688        0.8676      151.6465      152.5141      25.745302       0.11821
  18     136.5      126.8534        1.0322      151.3072      152.3394      25.485993       0.09971
  17     162.9      126.9376        1.2285      150.9222      152.1507      25.213116       0.08722
  16     196.4      127.0114        1.4835      150.4521      151.9356      24.924223       0.07272
  15     218.7      127.0472        1.6511      150.1511      151.8023      24.755078       0.06422
  14     243.0      127.0808        1.8336      149.8238      151.6574      24.576665       0.06188
  13     269.0      127.1122        2.0316      149.4674      151.4990      24.386761       0.06160
  12     297.5      127.1427        2.2459      149.0771      151.3230      24.180286       0.06124
  11     328.5      127.1757        2.4777      148.6481      151.1258      23.950124       0.06258
  10     361.9      127.2129        2.7278      148.1770      150.9047      23.691851       0.06535
   9     398.1      127.2570        2.9973      147.6588      150.6561      23.399090       0.06821
   8     437.6      127.3129        3.2871      147.0851      150.3723      23.059367       0.07264
   7     480.5      127.3856        3.5983      146.4496      150.0479      22.662356       0.07797
   6     533.0      127.5000        3.9818      145.6316      149.6135      22.113473       0.08830
   5     589.8      127.6701        4.3955      144.6885      149.0841      21.413920       0.10384
   4     651.6      127.9491        4.8394      143.5506      148.3900      20.440854       0.13307
   3     718.7      128.3739        5.3120      142.1982      147.5102      19.136220       0.16396
   2     792.3      129.0600        5.8093      140.5420      146.3513      17.291336       0.21159
   1     891.5      130.5463        6.4618      137.9514      144.4132      13.866865       0.29141
   0    1013.0      133.5322        7.2179      134.4608      141.6787       8.146528       0.39719



 Wavenumbers: 16000. - 22650. cm-1, ATM      1
 LEVEL PRESSURE   UPWARD FLUX   DIFDOWN FLUX  DIRDOWN FLUX  DOWNWARD FLUX   NET FLUX    HEATING RATE
          mb          W/m2          W/m2          W/m2        W/m2          W/m2       degree/day
  51    .06700      223.9128        0.0000      247.7960      247.7960      23.883202       0.00000
  50    .07753      223.9129        0.0005      247.7954      247.7959      23.883015       0.14931
  49    .09103      223.9130        0.0011      247.7947      247.7957      23.882744       0.16935
  48    0.1069      223.9132        0.0018      247.7938      247.7956      23.882382       0.19312
  47    0.1255      223.9135        0.0026      247.7928      247.7954      23.881896       0.22013
  46    0.1487      223.9139        0.0036      247.7914      247.7950      23.881180       0.26085
  45    0.1794      223.9145        0.0050      247.7895      247.7945      23.880062       0.30713
  44    0.2165      223.9153        0.0067      247.7872      247.7939      23.878544       0.34518
  43    0.2613      223.9164        0.0086      247.7843      247.7929      23.876485       0.38807
  42    0.3336      223.9186        0.0118      247.7793      247.7912      23.872571       0.45637
  41    0.4307      223.9219        0.0161      247.7724      247.7885      23.866671       0.51302
  40    0.5894      223.9281        0.0231      247.7604      247.7835      23.855418       0.59843
  39     1.339      223.9740        0.0561      247.6901      247.7463      23.772269       0.93610
  38     1.782      224.0132        0.0756      247.6390      247.7146      23.701424       1.34878
  37     2.292      224.0699        0.0980      247.5707      247.6688      23.598856       1.69879
  36     2.964      224.1620        0.1275      247.4671      247.5946      23.432650       2.08639
  35     3.853      224.3082        0.1665      247.3105      247.4770      23.168810       2.50388
  34     5.035      224.5267        0.2182      247.0834      247.3016      22.774936       2.81368
  33     6.613      224.8311        0.2873      246.7709      247.0581      22.227078       2.92885
  32     8.786      225.2284        0.3803      246.3615      246.7417      21.513342       2.77189
  31     11.80      225.7490        0.5133      245.8164      246.3297      20.580650       2.61124
  30     15.07      226.2523        0.6561      245.2781      245.9341      19.681861       2.32050
  29     18.79      226.7706        0.8173      244.7124      245.5296      18.759066       2.09226
  28     23.16      227.3179        1.0055      244.1000      245.1056      17.787653       1.87840
  27     28.12      227.8761        1.2208      243.4559      244.6767      16.800565       1.67798
  26     33.73      228.4035        1.4618      242.8132      244.2751      15.871592       1.39674
  25     40.54      228.9279        1.7532      242.1263      243.8795      14.951644       1.14130
  24     48.69      229.4506        2.1047      241.3849      243.4896      14.039040       0.94440
  23     57.69      229.9187        2.4910      240.6537      243.1447      13.226011       0.76209
  22     68.43      230.3618        2.9515      239.8715      242.8230      12.461280       0.60118
  21     81.20      230.7327        3.5008      239.0593      242.5601      11.827420       0.41885
  20     96.49      231.0288        4.1560      238.2018      242.3579      11.329040       0.27507
  19     114.6      231.3046        4.9336      237.2432      242.1768      10.872194       0.21331
  18     136.5      231.5800        5.8543      236.1475      242.0018      10.421819       0.17318
  17     162.9      231.8606        6.9490      234.8811      241.8301       9.969589       0.14455
  16     196.4      232.1227        8.3669      233.3176      241.6844       9.561710       0.10267
  15     218.7      232.2571        9.2966      232.3207      241.6174       9.360275       0.07648
  14     243.0      232.3852       10.3059      231.2522      241.5580       9.172828       0.06501
  13     269.0      232.5052       11.3980      230.1099      241.5078       9.002610       0.05522
  12     297.5      232.6168       12.5763      228.8907      241.4670       8.850193       0.04521
  11     328.5      232.7282       13.8474      227.5823      241.4298       8.701580       0.04041
  10     361.9      232.8391       15.2134      226.1827      241.3961       8.556965       0.03659
   9     398.1      232.9504       16.6807      224.6848      241.3656       8.415187       0.03303
   8     437.6      233.0643       18.2532      223.0832      241.3364       8.272082       0.03060
   7     480.5      233.1811       19.9353      221.3731      241.3084       8.127248       0.02844
   6     533.0      233.3212       22.0011      219.2743      241.2754       7.954215       0.02784
   5     589.8      233.4742       24.2224      217.0139      241.2363       7.762077       0.02852
   4     651.6      233.6520       26.6048      214.5760      241.1808       7.528883       0.03189
   3     718.7      233.8660       29.1542      211.9458      241.1001       7.234059       0.03705
   2     792.3      234.1451       31.8722      209.1002      240.9724       6.827357       0.04664
   1     891.5      234.6478       35.5180      205.1896      240.7076       6.059747       0.06532
   0    1013.0      235.4613       39.8603      200.4063      240.2666       4.805332       0.08710



 Wavenumbers: 22650. - 29000. cm-1, ATM      1
 LEVEL PRESSURE   UPWARD FLUX   DIFDOWN FLUX  DIRDOWN FLUX  DOWNWARD FLUX   NET FLUX    HEATING RATE
          mb          W/m2          W/m2          W/m2        W/m2          W/m2       degree/day
  51    .06700       92.1937        0.0000       93.5092       93.5092       1.315442       0.00000
  50    .07753       92.1937        0.0006       93.5086       93.5092       1.315442      -0.00000
  49    .09103       92.1938        0.0013       93.5079       93.5092       1.315442       0.00000
  48    0.1069       92.1938        0.0021       93.5071       93.5092       1.315442       0.00000
  47    0.1255       92.1938        0.0031       93.5062       93.5093       1.315442       0.00000
  46    0.1487       92.1939        0.0042       93.5051       93.5093       1.315442      -0.00000
  45    0.1794       92.1939        0.0059       93.5035       93.5094       1.315442       0.00000
  44    0.2165       92.1940        0.0078       93.5016       93.5094       1.315442      -0.00000
  43    0.2613       92.1940        0.0101       93.4994       93.5095       1.315442      -0.00000
  42    0.3336       92.1942        0.0139       93.4957       93.5096       1.315442       0.00000
  41    0.4307       92.1943        0.0189       93.4909       93.5098       1.315442       0.00000
  40    0.5894       92.1946        0.0271       93.4829       93.5100       1.315442      -0.00000
  39     1.339       92.1958        0.0659       93.4453       93.5112       1.315442       0.00000
  38     1.782       92.1965        0.0887       93.4232       93.5119       1.315442      -0.00000
  37     2.292       92.1973        0.1150       93.3977       93.5127       1.315442       0.00000
  36     2.964       92.1984        0.1497       93.3641       93.5138       1.315442      -0.00000
  35     3.853       92.1998        0.1954       93.3198       93.5152       1.315442       0.00000
  34     5.035       92.2017        0.2562       93.2609       93.5171       1.315442       0.00000
  33     6.613       92.2042        0.3373       93.1823       93.5196       1.315442      -0.00000
  32     8.786       92.2075        0.4466       93.0763       93.5230       1.315442       0.00000
  31     11.80       92.2124        0.6030       92.9249       93.5278       1.315442       0.00000
  30     15.07       92.2175        0.7707       92.7623       93.5330       1.315442      -0.00000
  29     18.79       92.2234        0.9600       92.5789       93.5388       1.315442       0.00000
  28     23.16       92.2302        1.1808       92.3648       93.5456       1.315442       0.00000
  27     28.12       92.2380        1.4331       92.1203       93.5534       1.315442      -0.00000
  26     33.73       92.2466        1.7149       91.8472       93.5621       1.315442       0.00000
  25     40.54       92.2571        2.0546       91.5179       93.5725       1.315442       0.00000
  24     48.69       92.2696        2.4631       91.1220       93.5851       1.315442      -0.00000
  23     57.69       92.2834        2.9103       90.6885       93.5988       1.315442      -0.00000
  22     68.43       92.2996        3.4409       90.1742       93.6151       1.315442       0.00000
  21     81.20       92.3189        4.0700       89.5644       93.6343       1.315442       0.00000
  20     96.49       92.3417        4.8151       88.8420       93.6571       1.315442      -0.00000
  19     114.6       92.3684        5.6934       87.9905       93.6839       1.315442       0.00000
  18     136.5       92.3998        6.7252       86.9900       93.7152       1.315442       0.00000
  17     162.9       92.4366        7.9410       85.8111       93.7520       1.315442      -0.00000
  16     196.4       92.4835        9.4965       84.3024       93.7989       1.315442       0.00000
  15     218.7       92.5138       10.5053       83.3239       93.8292       1.315442       0.00000
  14     243.0       92.5462       11.5905       82.2712       93.8617       1.315442       0.00000
  13     269.0       92.5809       12.7534       81.1430       93.8963       1.315442       0.00000
  12     297.5       92.6177       13.9949       79.9383       93.9332       1.315442      -0.00000
  11     328.5       92.6568       15.3192       78.6530       93.9723       1.315442       0.00000
  10     361.9       92.6981       16.7253       77.2882       94.0135       1.315442       0.00000
   9     398.1       92.7416       18.2161       75.8409       94.0571       1.315442       0.00000
   8     437.6       92.7873       19.7917       74.3110       94.1027       1.315442       0.00000
   7     480.5       92.8351       21.4518       72.6987       94.1505       1.315442      -0.00000
   6     533.0       92.8923       23.4556       70.7521       94.2077       1.315442       0.00000
   5     589.8       92.9519       25.5680       68.6993       94.2673       1.315442       0.00000
   4     651.6       93.0138       27.7863       66.5429       94.3292       1.315442      -0.00000
   3     718.7       93.0777       30.1073       64.2858       94.3931       1.315442      -0.00000
   2     792.3       93.1432       32.5252       61.9334       94.4586       1.315442       0.00000
   1     891.5       93.2270       35.6813       58.8612       94.5425       1.315442       0.00000
   0    1013.0       93.3207       39.3070       55.3291       94.6361       1.315442       0.00000



 Wavenumbers: 29000. - 38000. cm-1, ATM      1
 LEVEL PRESSURE   UPWARD FLUX   DIFDOWN FLUX  DIRDOWN FLUX  DOWNWARD FLUX   NET FLUX    HEATING RATE
          mb          W/m2          W/m2          W/m2        W/m2          W/m2       degree/day
  51    .06700       14.3257        0.0000       32.9752       32.9752      18.649510       0.00000
  50    .07753       14.3256        0.0004       32.9709       32.9713      18.645690       3.06176
  49    .09103       14.3254        0.0008       32.9647       32.9655      18.640131       3.47454
  48    0.1069       14.3252        0.0013       32.9566       32.9579      18.632686       3.96318
  47    0.1255       14.3250        0.0019       32.9459       32.9478      18.622723       4.51680
  46    0.1487       14.3248        0.0027       32.9302       32.9329      18.608051       5.34792
  45    0.1794       14.3245        0.0037       32.9060       32.9097      18.585165       6.28285
  44    0.2165       14.3242        0.0049       32.8736       32.8785      18.554242       7.03442
  43    0.2613       14.3240        0.0063       32.8302       32.8365      18.512526       7.86338
  42    0.3336       14.3236        0.0086       32.7490       32.7576      18.434043       9.15033
  41    0.4307       14.3232        0.0116       32.6295       32.6411      18.317905      10.09797
  40    0.5894       14.3230        0.0165       32.4098       32.4263      18.103314      11.41164
  39     1.339       14.3278        0.0379       31.0679       31.1057      16.777912      14.92162
  38     1.782       14.3346        0.0491       30.2098       30.2589      15.924317      16.25107
  37     2.292       14.3458        0.0614       29.2672       29.3285      14.982775      15.59439
  36     2.964       14.3655        0.0766       28.1885       28.2651      13.899586      13.59729
  35     3.853       14.3986        0.0958       27.0400       27.1358      12.737229      11.03098
  34     5.035       14.4494        0.1204       25.8807       26.0011      11.551717       8.46880
  33     6.613       14.5213        0.1524       24.7507       24.9031      10.381740       6.25470
  32     8.786       14.6164        0.1944       23.6836       23.8780       9.261625       4.35012
  31     11.80       14.7426        0.2533       22.6371       22.8903       8.147669       3.11873
  30     15.07       14.8674        0.3154       21.8362       22.1517       7.284342       2.22894
  29     18.79       14.9991        0.3844       21.1446       21.5290       6.529888       1.71058
  28     23.16       15.1427        0.4638       20.5108       20.9746       5.831945       1.34960
  27     28.12       15.2944        0.5535       19.9347       20.4883       5.193837       1.08474
  26     33.73       15.4427        0.6537       19.4299       20.0835       4.640877       0.83139
  25     40.54       15.5946        0.7742       18.9466       19.7208       4.126251       0.63845
  24     48.69       15.7513        0.9189       18.4728       19.3917       3.640399       0.50278
  23     57.69       15.8962        1.0772       18.0423       19.1195       3.223348       0.39092
  22     68.43       16.0370        1.2649       17.6130       18.8778       2.840825       0.30071
  21     81.20       16.1555        1.4892       17.1963       18.6854       2.529960       0.20541
  20     96.49       16.2481        1.7565       16.7803       18.5368       2.288685       0.13317
  19     114.6       16.3336        2.0693       16.3338       18.4031       2.069494       0.10235
  18     136.5       16.4235        2.4633       15.8421       18.3055       1.881962       0.07211
  17     162.9       16.5125        2.8828       15.2949       18.1778       1.665220       0.06928
  16     196.4       16.5931        3.4141       14.6485       18.0626       1.469490       0.04927
  15     218.7       16.6333        3.7554       14.2505       18.0058       1.372511       0.03682
  14     243.0       16.6714        4.1181       13.8350       17.9531       1.281702       0.03150
  13     269.0       16.7061        4.5020       13.4032       17.9052       1.199008       0.02683
  12     297.5       16.7372        4.9062       12.9560       17.8622       1.124958       0.02196
  11     328.5       16.7678        5.3302       12.4908       17.8210       1.053209       0.01951
  10     361.9       16.7978        5.7721       12.0096       17.7818       0.984007       0.01751
   9     398.1       16.8270        6.2314       11.5131       17.7445       0.917457       0.01550
   8     437.6       16.8562        6.7063       11.0023       17.7086       0.852421       0.01391
   7     480.5       16.8848        7.1949       10.4797       17.6746       0.789774       0.01230
   6     533.0       16.9173        7.7695        9.8683       17.6378       0.720483       0.01115
   5     589.8       16.9502        8.3562        9.2463       17.6025       0.652304       0.01012
   4     651.6       16.9840        8.9512        8.6173       17.5685       0.584544       0.00927
   3     718.7       17.0189        9.5499        7.9861       17.5360       0.517163       0.00847
   2     792.3       17.0550       10.1502        7.3551       17.5053       0.450244       0.00767
   1     891.5       17.1029       10.8961        6.5731       17.4692       0.366302       0.00714
   0    1013.0       17.1606       11.7003        5.7322       17.4325       0.271947       0.00655



 Wavenumbers: 38000. - 50000. cm-1, ATM      1
 LEVEL PRESSURE   UPWARD FLUX   DIFDOWN FLUX  DIRDOWN FLUX  DOWNWARD FLUX   NET FLUX    HEATING RATE
          mb          W/m2          W/m2          W/m2        W/m2          W/m2       degree/day
  51    .06700        0.0071        0.0000        2.0339        2.0339       2.026805       0.00000
  50    .07753        0.0070        0.0001        2.0314        2.0315       2.024468       1.87326
  49    .09103        0.0070        0.0002        2.0279        2.0281       2.021130       2.08644
  48    0.1069        0.0069        0.0002        2.0234        2.0236       2.016738       2.33819
  47    0.1255        0.0068        0.0004        2.0174        2.0177       2.010953       2.62228
  46    0.1487        0.0067        0.0005        2.0087        2.0092       2.002564       3.05809
  45    0.1794        0.0065        0.0007        1.9955        1.9962       1.989649       3.54551
  44    0.2165        0.0064        0.0009        1.9779        1.9788       1.972433       3.91620
  43    0.2613        0.0062        0.0011        1.9546        1.9557       1.949533       4.31668
  42    0.3336        0.0059        0.0015        1.9115        1.9131       1.907176       4.93832
  41    0.4307        0.0055        0.0020        1.8493        1.8513       1.845827       5.33421
  40    0.5894        0.0049        0.0027        1.7385        1.7411       1.736180       5.83087
  39     1.339        0.0031        0.0039        1.1480        1.1519       1.148739       6.61352
  38     1.782        0.0024        0.0037        0.8485        0.8522       0.849744       5.69239
  37     2.292        0.0019        0.0032        0.5907        0.5939       0.592034       4.26834
  36     2.964        0.0014        0.0027        0.3813        0.3839       0.382507       2.63020
  35     3.853        0.0011        0.0021        0.2375        0.2396       0.238514       1.36651
  34     5.035        0.0008        0.0017        0.1451        0.1468       0.145971       0.66109
  33     6.613        0.0006        0.0013        0.0876        0.0889       0.088298       0.30832
  32     8.786        0.0004        0.0010        0.0528        0.0538       0.053421       0.13545
  31     11.80        0.0003        0.0007        0.0301        0.0309       0.030595       0.06390
  30     15.07        0.0002        0.0005        0.0180        0.0186       0.018401       0.03148
  29     18.79        0.0001        0.0004        0.0107        0.0111       0.010965       0.01686
  28     23.16        0.0001        0.0002        0.0062        0.0064       0.006327       0.00897
  27     28.12        0.0000        0.0002        0.0035        0.0036       0.003568       0.00469
  26     33.73        0.0000        0.0001        0.0019        0.0020       0.002014       0.00234
  25     40.54        0.0000        0.0001        0.0010        0.0011       0.001086       0.00115
  24     48.69        0.0000        0.0000        0.0005        0.0006       0.000550       0.00055
  23     57.69        0.0000        0.0000        0.0003        0.0003       0.000277       0.00026
  22     68.43        0.0000        0.0000        0.0001        0.0001       0.000129       0.00012
  21     81.20        0.0000        0.0000        0.0001        0.0001       0.000056       0.00005
  20     96.49        0.0000        0.0000        0.0000        0.0000       0.000022       0.00002
  19     114.6        0.0000        0.0000        0.0000        0.0000       0.000008       0.00001
  18     136.5        0.0000        0.0000        0.0000        0.0000       0.000002       0.00000
  17     162.9        0.0000        0.0000        0.0000        0.0000       0.000000       0.00000
  16     196.4        0.0000        0.0000        0.0000        0.0000       0.000000       0.00000
  15     218.7        0.0000        0.0000        0.0000        0.0000       0.000000       0.00000
  14     243.0        0.0000        0.0000        0.0000        0.0000       0.000000       0.00000
  13     269.0        0.0000        0.0000        0.0000        0.0000       0.000000       0.00000
  12     297.5        0.0000        0.0000        0.0000        0.0000       0.000000       0.00000
  11     328.5        0.0000        0.0000        0.0000        0.0000       0.000000       0.00000
  10     361.9        0.0000        0.0000        0.0000        0.0000       0.000000       0.00000
   9     398.1        0.0000        0.0000        0.0000        0.0000       0.000000       0.00000
   8     437.6        0.0000        0.0000        0.0000        0.0000       0.000000       0.00000
   7     480.5        0.0000        0.0000        0.0000        0.0000       0.000000       0.00000
   6     533.0        0.0000        0.0000        0.0000        0.0000       0.000000       0.00000
   5     589.8        0.0000        0.0000        0.0000        0.0000       0.000000       0.00000
   4     651.6        0.0000        0.0000        0.0000        0.0000       0.000000       0.00000
   3     718.7        0.0000        0.0000        0.0000        0.0000       0.000000       0.00000
   2     792.3        0.0000        0.0000        0.0000        0.0000       0.000000       0.00000
   1     891.5        0.0000        0.0000        0.0000        0.0000       0.000000       0.00000
   0    1013.0        0.0000        0.0000        0.0000        0.0000       0.000000       0.00000



 Wavenumbers:   820. -  2600. cm-1, ATM      1
 LEVEL PRESSURE   UPWARD FLUX   DIFDOWN FLUX  DIRDOWN FLUX  DOWNWARD FLUX   NET FLUX    HEATING RATE
          mb          W/m2          W/m2          W/m2        W/m2          W/m2       degree/day
  51    .06700        0.0108        0.0000        9.5143        9.5143       9.503462       0.00000
  50    .07753        0.0108        0.0000        9.5087        9.5087       9.497930       4.43372
  49    .09103        0.0108        0.0000        9.5076        9.5076       9.496821       0.69344
  48    0.1069        0.0108        0.0000        9.5066        9.5066       9.495763       0.56331
  47    0.1255        0.0108        0.0000        9.5053        9.5053       9.494535       0.55640
  46    0.1487        0.0108        0.0000        9.5038        9.5038       9.492985       0.56516
  45    0.1794        0.0108        0.0000        9.5017        9.5017       9.490928       0.56457
  44    0.2165        0.0108        0.0000        9.4994        9.4994       9.488617       0.52584
  43    0.2613        0.0108        0.0000        9.4969        9.4969       9.486065       0.48104
  42    0.3336        0.0108        0.0000        9.4931        9.4931       9.482270       0.44243
  41    0.4307        0.0108        0.0000        9.4887        9.4887       9.477861       0.38332
  40    0.5894        0.0108        0.0000        9.4822        9.4822       9.471358       0.34584
  39     1.339        0.0108        0.0000        9.4528        9.4528       9.441970       0.33086
  38     1.782        0.0108        0.0000        9.4361        9.4361       9.425329       0.31680
  37     2.292        0.0108        0.0000        9.4175        9.4175       9.406735       0.30797
  36     2.964        0.0108        0.0000        9.3939        9.3939       9.383080       0.29693
  35     3.853        0.0108        0.0000        9.3637        9.3637       9.352861       0.28679
  34     5.035        0.0108        0.0000        9.3254        9.3254       9.314606       0.27328
  33     6.613        0.0108        0.0000        9.2777        9.2777       9.266859       0.25526
  32     8.786        0.0108        0.0000        9.2173        9.2173       9.206541       0.23426
  31     11.80        0.0108        0.0000        9.1375        9.1375       9.126746       0.22340
  30     15.07        0.0108        0.0000        9.0620        9.0620       9.051209       0.19502
  29     18.79        0.0108        0.0000        8.9916        8.9916       8.980837       0.15956
  28     23.16        0.0108        0.0000        8.9293        8.9293       8.918546       0.12045
  27     28.12        0.0108        0.0000        8.8789        8.8789       8.868126       0.08571
  26     33.73        0.0108        0.0000        8.8396        8.8396       8.828789       0.05914
  25     40.54        0.0108        0.0000        8.8043        8.8044       8.793558       0.04371
  24     48.69        0.0108        0.0000        8.7688        8.7688       8.758013       0.03678
  23     57.69        0.0108        0.0000        8.7319        8.7320       8.721160       0.03454
  22     68.43        0.0108        0.0000        8.6887        8.6888       8.677961       0.03396
  21     81.20        0.0108        0.0000        8.6384        8.6384       8.627617       0.03327
  20     96.49        0.0108        0.0000        8.5794        8.5794       8.568590       0.03258
  19     114.6        0.0108        0.0000        8.5097        8.5097       8.498905       0.03254
  18     136.5        0.0108        0.0000        8.4281        8.4281       8.417309       0.03138
  17     162.9        0.0108        0.0000        8.3238        8.3238       8.313039       0.03333
  16     196.4        0.0108        0.0000        8.1604        8.1604       8.149615       0.04114
  15     218.7        0.0108        0.0000        8.0045        8.0046       7.993785       0.05916
  14     243.0        0.0108        0.0000        7.7680        7.7681       7.757279       0.08203
  13     269.0        0.0108        0.0000        7.4687        7.4687       7.457907       0.09711
  12     297.5        0.0108        0.0000        7.1523        7.1523       7.141482       0.09385
  11     328.5        0.0108        0.0000        6.8649        6.8649       6.854078       0.07814
  10     361.9        0.0108        0.0000        6.5463        6.5464       6.535533       0.08060
   9     398.1        0.0108        0.0000        6.1752        6.1752       6.164382       0.08647
   8     437.6        0.0109        0.0000        5.7760        5.7760       5.765167       0.08535
   7     480.5        0.0109        0.0000        5.4185        5.4185       5.407618       0.07022
   6     533.0        0.0110        0.0000        5.1116        5.1116       5.100645       0.04938
   5     589.8        0.0110        0.0000        4.8848        4.8848       4.873806       0.03367
   4     651.6        0.0112        0.0000        4.6413        4.6413       4.630114       0.03333
   3     718.7        0.0114        0.0000        4.3419        4.3420       4.330528       0.03765
   2     792.3        0.0119        0.0000        3.9888        3.9888       3.976954       0.04055
   1     891.5        0.0131        0.0000        3.5114        3.5115       3.498420       0.04072
   0    1013.0        0.0161        0.0000        2.9347        2.9347       2.918581       0.04026

  Modules and versions used in this calculation:

       rrtmg_sw.1col.f90:  $Revision$                    rrtmg_sw_init.f90:  $Revision$        
     rrtmgsw_cldprop.f90:  $Revision$                  rrtmgsw_cldprmc.f90:  NOT USED          
     rrtmg_sw_reftra.f90:  $Revision$                  rrtmg_sw_spcvrt.f90:  NOT USED          
     rrtmg_sw_spcvmc.f90:  NOT USED                    rrtmgsw_setcoef.f90:  NOT USED          
     rrtmg_sw_taumol.f90:  $Revision$                  rrtmg_sw_vrtqdr.f90:  NOT USED          
                rrtatm.f:  NOT USED                             util_xxx.f:  NOT USED          
                 extra.f:  NOT USED                       rrtmg_sw_k_g.f90:  $Revision$        

