

 Wavenumbers:   820. - 50000. cm-1, ATM      1
 LEVEL PRESSURE   UPWARD FLUX   DIFDOWN FLUX  DIRDOWN FLUX  DOWNWARD FLUX   NET FLUX    HEATING RATE
          mb          W/m2          W/m2          W/m2        W/m2          W/m2       degree/day
  51    .06700      123.8258        0.0000      212.8837      212.8837      89.057942       0.00000
  50    .07753      123.8250        0.0011      212.8696      212.8707      89.045626       9.87145
  49    .09103      123.8241        0.0024      212.8547      212.8571      89.032949       7.92317
  48    0.1069      123.8231        0.0039      212.8366      212.8405      89.017461       8.24443
  47    0.1255      123.8219        0.0057      212.8143      212.8200      88.998115       8.77068
  46    0.1487      123.8204        0.0079      212.7838      212.7917      88.971274       9.78351
  45    0.1794      123.8184        0.0109      212.7391      212.7499      88.931543      10.90718
  44    0.2165      123.8161        0.0144      212.6822      212.6966      88.880517      11.60755
  43    0.2613      123.8134        0.0186      212.6100      212.6285      88.815135      12.32416
  42    0.3336      123.8091        0.0254      212.4840      212.5094      88.700301      13.38857
  41    0.4307      123.8036        0.0343      212.3156      212.3498      88.546212      13.39771
  40    0.5894      123.7951        0.0485      212.0481      212.0966      88.301457      13.01574
  39     1.339      123.7623        0.1115      211.0386      211.1501      87.387751      10.28667
  38     1.782      123.7475        0.1469      210.6101      210.7570      87.009518       7.20096
  37     2.292      123.7340        0.1872      210.1762      210.3634      86.629407       6.29562
  36     2.964      123.7218        0.2395      209.6618      209.9012      86.179366       5.64938
  35     3.853      123.7133        0.3075      209.0436      209.3511      85.637843       5.13915
  34     5.035      123.7095        0.3967      208.3066      208.7033      84.993878       4.60022
  33     6.613      123.7091        0.5145      207.4377      207.9522      84.243101       4.01366
  32     8.786      123.7069        0.6713      206.4183      207.0896      83.382637       3.34173
  31     11.80      123.6938        0.8927      205.1602      206.0529      82.359065       2.86568
  30     15.07      123.6678        1.1271      203.9769      205.1040      81.436218       2.38261
  29     18.79      123.6280        1.3885      202.7716      204.1600      80.532052       2.05002
  28     23.16      123.5696        1.6895      201.4937      203.1832      79.613684       1.77583
  27     28.12      123.4888        2.0291      200.1638      202.1928      78.704090       1.54625
  26     33.73      123.3772        2.4038      198.8301      201.2339      77.856789       1.27394
  25     40.54      123.2182        2.8501      197.3839      200.2340      77.015781       1.04337
  24     48.69      123.0049        3.3792      195.8012      199.1804      76.175517       0.86954
  23     57.69      122.7508        3.9498      194.2158      198.1656      75.414773       0.71308
  22     68.43      122.4282        4.6162      192.4915      197.1077      74.679508       0.57802
  21     81.20      122.0160        5.3930      190.6487      196.0417      74.025681       0.43204
  20     96.49      121.5038        6.2954      188.6593      194.9547      73.450967       0.31720
  19     114.6      120.9028        7.3354      186.4304      193.7658      72.862919       0.27458
  18     136.5      120.2044        8.5244      183.9344      192.4588      72.254406       0.23399
  17     162.9      119.3968        9.8821      181.1037      190.9858      71.588955       0.21271
  16     196.4      118.3763       11.5587      177.5894      189.1481      70.771809       0.20569
  15     218.7      117.7276       12.6106      175.1774      187.7881      70.060521       0.27005
  14     243.0      117.0436       13.7131      172.2971      186.0103      68.966646       0.37939
  13     269.0      116.3266       14.8624      168.9042      183.7666      67.440003       0.49524
  12     297.5      115.5789       16.0547      165.0862      181.1409      65.562010       0.55699
  11     328.5      114.8034       17.2892      161.0176      178.3068      63.503341       0.55975
  10     361.9      114.0045       18.5591      156.7158      175.2749      61.270428       0.56495
   9     398.1      113.1843       19.8622      152.2030      172.0652      58.880936       0.55670
   8     437.6      112.3469       21.1940      147.4574      168.6513      56.304407       0.55088
   7     480.5      111.4972       22.5489      142.5485      165.0973      53.600176       0.53110
   6     533.0      110.5159       24.1229      136.7558      160.8786      50.362721       0.52080
   5     589.8      109.5385       25.7123      130.7239      156.4362      46.897734       0.51432
   4     651.6      108.5889       27.3061      124.1948      151.5009      42.912050       0.54505
   3     718.7      107.6920       28.8945      117.2894      146.1839      38.491952       0.55548
   2     792.3      106.9017       30.4613      109.9957      140.4570      33.555312       0.56618
   1     891.5      106.1752       32.3752      100.6633      133.0385      26.863382       0.56945
   0    1013.0      105.9299       34.4066       90.6090      125.0155      19.085658       0.54005



 Wavenumbers:  2600. -  3250. cm-1, ATM      1
 LEVEL PRESSURE   UPWARD FLUX   DIFDOWN FLUX  DIRDOWN FLUX  DOWNWARD FLUX   NET FLUX    HEATING RATE
          mb          W/m2          W/m2          W/m2        W/m2          W/m2       degree/day
  51    .06700        0.2397        0.0000        1.8762        1.8762       1.636518       0.00000
  50    .07753        0.2397        0.0000        1.8762        1.8762       1.636510       0.00640
  49    .09103        0.2397        0.0000        1.8762        1.8762       1.636500       0.00626
  48    0.1069        0.2397        0.0000        1.8762        1.8762       1.636489       0.00612
  47    0.1255        0.2397        0.0000        1.8762        1.8762       1.636476       0.00598
  46    0.1487        0.2397        0.0000        1.8762        1.8762       1.636459       0.00606
  45    0.1794        0.2397        0.0000        1.8761        1.8761       1.636436       0.00622
  44    0.2165        0.2397        0.0000        1.8761        1.8761       1.636410       0.00608
  43    0.2613        0.2397        0.0000        1.8761        1.8761       1.636378       0.00595
  42    0.3336        0.2397        0.0000        1.8760        1.8760       1.636326       0.00611
  41    0.4307        0.2397        0.0000        1.8760        1.8760       1.636255       0.00612
  40    0.5894        0.2397        0.0000        1.8758        1.8759       1.636138       0.00625
  39     1.339        0.2397        0.0000        1.8752        1.8752       1.635460       0.00764
  38     1.782        0.2397        0.0000        1.8747        1.8747       1.634957       0.00956
  37     2.292        0.2397        0.0000        1.8740        1.8740       1.634319       0.01057
  36     2.964        0.2397        0.0000        1.8731        1.8731       1.633437       0.01107
  35     3.853        0.2397        0.0000        1.8720        1.8720       1.632268       0.01109
  34     5.035        0.2397        0.0000        1.8705        1.8705       1.630794       0.01053
  33     6.613        0.2397        0.0000        1.8688        1.8688       1.629049       0.00933
  32     8.786        0.2397        0.0000        1.8668        1.8668       1.627109       0.00754
  31     11.80        0.2397        0.0000        1.8646        1.8646       1.624934       0.00609
  30     15.07        0.2397        0.0000        1.8627        1.8627       1.623001       0.00499
  29     18.79        0.2397        0.0000        1.8606        1.8606       1.620943       0.00467
  28     23.16        0.2397        0.0000        1.8581        1.8581       1.618433       0.00485
  27     28.12        0.2397        0.0000        1.8550        1.8550       1.615285       0.00535
  26     33.73        0.2397        0.0000        1.8509        1.8509       1.611200       0.00614
  25     40.54        0.2397        0.0000        1.8451        1.8451       1.605384       0.00722
  24     48.69        0.2397        0.0000        1.8371        1.8371       1.597369       0.00829
  23     57.69        0.2397        0.0000        1.8275        1.8275       1.587793       0.00898
  22     68.43        0.2397        0.0000        1.8157        1.8157       1.576020       0.00925
  21     81.20        0.2397        0.0000        1.8020        1.8021       1.562366       0.00902
  20     96.49        0.2397        0.0000        1.7871        1.7871       1.547423       0.00825
  19     114.6        0.2397        0.0000        1.7714        1.7714       1.531703       0.00734
  18     136.5        0.2397        0.0000        1.7560        1.7561       1.516387       0.00589
  17     162.9        0.2397        0.0001        1.7413        1.7413       1.501611       0.00472
  16     196.4        0.2397        0.0001        1.7249        1.7250       1.485229       0.00412
  15     218.7        0.2398        0.0001        1.7130        1.7130       1.473282       0.00454
  14     243.0        0.2398        0.0001        1.6960        1.6961       1.456266       0.00590
  13     269.0        0.2399        0.0001        1.6718        1.6719       1.432001       0.00787
  12     297.5        0.2400        0.0001        1.6372        1.6373       1.397253       0.01031
  11     328.5        0.2402        0.0001        1.5923        1.5924       1.352197       0.01225
  10     361.9        0.2405        0.0001        1.5368        1.5369       1.296386       0.01412
   9     398.1        0.2408        0.0001        1.4705        1.4706       1.229802       0.01551
   8     437.6        0.2413        0.0001        1.3950        1.3951       1.153812       0.01625
   7     480.5        0.2419        0.0001        1.3137        1.3138       1.071920       0.01608
   6     533.0        0.2429        0.0002        1.2169        1.2171       0.974231       0.01571
   5     589.8        0.2442        0.0002        1.1118        1.1120       0.867741       0.01581
   4     651.6        0.2464        0.0002        0.9896        0.9897       0.743326       0.01701
   3     718.7        0.2496        0.0002        0.8589        0.8590       0.609411       0.01683
   2     792.3        0.2547        0.0002        0.7265        0.7267       0.471960       0.01576
   1     891.5        0.2657        0.0002        0.5686        0.5688       0.303149       0.01436
   0    1013.0        0.2882        0.0001        0.4129        0.4130       0.124852       0.01238



 Wavenumbers:  3250. -  4000. cm-1, ATM      1
 LEVEL PRESSURE   UPWARD FLUX   DIFDOWN FLUX  DIRDOWN FLUX  DOWNWARD FLUX   NET FLUX    HEATING RATE
          mb          W/m2          W/m2          W/m2        W/m2          W/m2       degree/day
  51    .06700        0.0004        0.0000        3.1631        3.1631       3.162647       0.00000
  50    .07753        0.0004        0.0000        3.1598        3.1598       3.159427       2.58085
  49    .09103        0.0004        0.0000        3.1582        3.1582       3.157827       0.99974
  48    0.1069        0.0004        0.0000        3.1569        3.1569       3.156489       0.71244
  47    0.1255        0.0004        0.0000        3.1557        3.1557       3.155268       0.55323
  46    0.1487        0.0004        0.0000        3.1544        3.1544       3.154028       0.45221
  45    0.1794        0.0004        0.0000        3.1530        3.1530       3.152636       0.38212
  44    0.2165        0.0004        0.0000        3.1516        3.1516       3.151194       0.32806
  43    0.2613        0.0004        0.0000        3.1500        3.1500       3.149595       0.30136
  42    0.3336        0.0004        0.0000        3.1475        3.1475       3.147095       0.29150
  41    0.4307        0.0004        0.0000        3.1445        3.1445       3.144051       0.26465
  40    0.5894        0.0004        0.0000        3.1401        3.1401       3.139725       0.23005
  39     1.339        0.0004        0.0000        3.1267        3.1267       3.126284       0.15132
  38     1.782        0.0004        0.0000        3.1210        3.1210       3.120553       0.10909
  37     2.292        0.0004        0.0000        3.1149        3.1149       3.114480       0.10060
  36     2.964        0.0004        0.0000        3.1072        3.1072       3.106845       0.09584
  35     3.853        0.0004        0.0000        3.0973        3.0973       3.096946       0.09394
  34     5.035        0.0004        0.0000        3.0843        3.0843       3.083867       0.09343
  33     6.613        0.0004        0.0000        3.0668        3.0668       3.066417       0.09329
  32     8.786        0.0004        0.0000        3.0432        3.0432       3.042828       0.09161
  31     11.80        0.0004        0.0000        3.0105        3.0105       3.010093       0.09165
  30     15.07        0.0004        0.0000        2.9779        2.9780       2.977574       0.08396
  29     18.79        0.0004        0.0000        2.9451        2.9452       2.944787       0.07434
  28     23.16        0.0004        0.0000        2.9115        2.9115       2.911127       0.06509
  27     28.12        0.0004        0.0000        2.8770        2.8771       2.876721       0.05849
  26     33.73        0.0004        0.0000        2.8410        2.8410       2.840647       0.05424
  25     40.54        0.0003        0.0001        2.7983        2.7984       2.798027       0.05287
  24     48.69        0.0003        0.0001        2.7478        2.7479       2.747553       0.05223
  23     57.69        0.0003        0.0001        2.6941        2.6942       2.693873       0.05032
  22     68.43        0.0003        0.0001        2.6340        2.6341       2.633752       0.04726
  21     81.20        0.0003        0.0001        2.5684        2.5685       2.568183       0.04333
  20     96.49        0.0003        0.0001        2.4980        2.4981       2.497841       0.03882
  19     114.6        0.0003        0.0001        2.4193        2.4194       2.419186       0.03673
  18     136.5        0.0002        0.0002        2.3377        2.3379       2.337666       0.03135
  17     162.9        0.0002        0.0002        2.2503        2.2505       2.250320       0.02792
  16     196.4        0.0002        0.0002        2.1389        2.1391       2.138918       0.02804
  15     218.7        0.0002        0.0002        2.0363        2.0365       2.036340       0.03895
  14     243.0        0.0001        0.0002        1.8844        1.8847       1.884527       0.05265
  13     269.0        0.0001        0.0002        1.6674        1.6676       1.667486       0.07041
  12     297.5        0.0001        0.0002        1.4170        1.4173       1.417162       0.07424
  11     328.5        0.0001        0.0002        1.1978        1.1981       1.198002       0.05959
  10     361.9        0.0001        0.0002        1.0115        1.0117       1.011629       0.04715
   9     398.1        0.0000        0.0002        0.8467        0.8469       0.846822       0.03840
   8     437.6        0.0000        0.0002        0.6950        0.6952       0.695131       0.03243
   7     480.5        0.0000        0.0002        0.5571        0.5573       0.557310       0.02707
   6     533.0        0.0000        0.0002        0.4089        0.4091       0.409078       0.02385
   5     589.8        0.0000        0.0001        0.2723        0.2725       0.272469       0.02028
   4     651.6        0.0000        0.0001        0.1521        0.1522       0.152200       0.01645
   3     718.7        0.0000        0.0001        0.0619        0.0620       0.061958       0.01134
   2     792.3        0.0000        0.0000        0.0129        0.0129       0.012927       0.00562
   1     891.5        0.0000        0.0000        0.0004        0.0004       0.000371       0.00107
   0    1013.0        0.0000        0.0000        0.0000        0.0000       0.000001       0.00003



 Wavenumbers:  4000. -  4650. cm-1, ATM      1
 LEVEL PRESSURE   UPWARD FLUX   DIFDOWN FLUX  DIRDOWN FLUX  DOWNWARD FLUX   NET FLUX    HEATING RATE
          mb          W/m2          W/m2          W/m2        W/m2          W/m2       degree/day
  51    .06700        1.2570        0.0000        3.7144        3.7144       2.457374       0.00000
  50    .07753        1.2570        0.0000        3.7144        3.7144       2.457373       0.00080
  49    .09103        1.2570        0.0000        3.7144        3.7144       2.457372       0.00078
  48    0.1069        1.2570        0.0000        3.7144        3.7144       2.457371       0.00076
  47    0.1255        1.2570        0.0000        3.7144        3.7144       2.457369       0.00075
  46    0.1487        1.2570        0.0000        3.7144        3.7144       2.457367       0.00076
  45    0.1794        1.2570        0.0000        3.7144        3.7144       2.457364       0.00078
  44    0.2165        1.2570        0.0000        3.7144        3.7144       2.457361       0.00076
  43    0.2613        1.2570        0.0000        3.7144        3.7144       2.457357       0.00075
  42    0.3336        1.2570        0.0000        3.7144        3.7144       2.457350       0.00077
  41    0.4307        1.2570        0.0000        3.7143        3.7143       2.457341       0.00077
  40    0.5894        1.2570        0.0000        3.7143        3.7143       2.457326       0.00079
  39     1.339        1.2570        0.0000        3.7142        3.7142       2.457237       0.00100
  38     1.782        1.2570        0.0000        3.7142        3.7142       2.457167       0.00133
  37     2.292        1.2570        0.0000        3.7141        3.7141       2.457074       0.00155
  36     2.964        1.2570        0.0000        3.7139        3.7139       2.456934       0.00176
  35     3.853        1.2570        0.0000        3.7137        3.7137       2.456727       0.00196
  34     5.035        1.2570        0.0000        3.7134        3.7134       2.456422       0.00218
  33     6.613        1.2570        0.0000        3.7129        3.7130       2.455975       0.00239
  32     8.786        1.2570        0.0000        3.7123        3.7123       2.455318       0.00255
  31     11.80        1.2570        0.0000        3.7112        3.7113       2.454294       0.00287
  30     15.07        1.2570        0.0001        3.7100        3.7101       2.453104       0.00307
  29     18.79        1.2569        0.0001        3.7086        3.7086       2.451679       0.00323
  28     23.16        1.2569        0.0001        3.7068        3.7069       2.449931       0.00338
  27     28.12        1.2569        0.0001        3.7047        3.7048       2.447843       0.00355
  26     33.73        1.2569        0.0001        3.7021        3.7022       2.445305       0.00382
  25     40.54        1.2569        0.0002        3.6986        3.6988       2.441920       0.00420
  24     48.69        1.2569        0.0002        3.6942        3.6944       2.437497       0.00458
  23     57.69        1.2568        0.0002        3.6890        3.6892       2.432354       0.00482
  22     68.43        1.2568        0.0003        3.6826        3.6828       2.426035       0.00497
  21     81.20        1.2568        0.0003        3.6749        3.6752       2.418390       0.00505
  20     96.49        1.2568        0.0004        3.6656        3.6660       2.409240       0.00505
  19     114.6        1.2567        0.0004        3.6543        3.6547       2.397999       0.00525
  18     136.5        1.2567        0.0005        3.6408        3.6413       2.384639       0.00514
  17     162.9        1.2567        0.0006        3.6245        3.6252       2.368454       0.00517
  16     196.4        1.2567        0.0007        3.6025        3.6032       2.346508       0.00552
  15     218.7        1.2568        0.0008        3.5863        3.5871       2.330353       0.00613
  14     243.0        1.2569        0.0009        3.5660        3.5669       2.310062       0.00704
  13     269.0        1.2571        0.0010        3.5398        3.5408       2.283685       0.00856
  12     297.5        1.2574        0.0011        3.5049        3.5060       2.248584       0.01041
  11     328.5        1.2580        0.0012        3.4614        3.4626       2.204622       0.01195
  10     361.9        1.2586        0.0013        3.4091        3.4105       2.151807       0.01336
   9     398.1        1.2595        0.0014        3.3493        3.3507       2.091201       0.01412
   8     437.6        1.2606        0.0015        3.2821        3.2836       2.023017       0.01458
   7     480.5        1.2619        0.0017        3.2077        3.2094       1.947500       0.01483
   6     533.0        1.2638        0.0018        3.1084        3.1102       1.846413       0.01626
   5     589.8        1.2664        0.0020        2.9851        2.9870       1.720598       0.01868
   4     651.6        1.2703        0.0021        2.8280        2.8301       1.559787       0.02199
   3     718.7        1.2760        0.0022        2.6505        2.6527       1.376703       0.02301
   2     792.3        1.2852        0.0023        2.4616        2.4639       1.178730       0.02271
   1     891.5        1.3050        0.0024        2.2091        2.2115       0.906457       0.02317
   0    1013.0        1.3468        0.0025        1.9279        1.9304       0.583557       0.02242



 Wavenumbers:  4650. -  5150. cm-1, ATM      1
 LEVEL PRESSURE   UPWARD FLUX   DIFDOWN FLUX  DIRDOWN FLUX  DOWNWARD FLUX   NET FLUX    HEATING RATE
          mb          W/m2          W/m2          W/m2        W/m2          W/m2       degree/day
  51    .06700        0.8294        0.0000        3.5158        3.5158       2.686465       0.00000
  50    .07753        0.8294        0.0000        3.5156        3.5156       2.686231       0.18818
  49    .09103        0.8294        0.0000        3.5153        3.5153       2.685940       0.18167
  48    0.1069        0.8294        0.0000        3.5150        3.5150       2.685612       0.17473
  47    0.1255        0.8294        0.0000        3.5146        3.5146       2.685242       0.16759
  46    0.1487        0.8294        0.0000        3.5142        3.5142       2.684787       0.16602
  45    0.1794        0.8294        0.0000        3.5135        3.5135       2.684183       0.16557
  44    0.2165        0.8294        0.0000        3.5129        3.5129       2.683497       0.15625
  43    0.2613        0.8294        0.0000        3.5121        3.5121       2.682719       0.14657
  42    0.3336        0.8294        0.0000        3.5109        3.5109       2.681511       0.14088
  41    0.4307        0.8294        0.0000        3.5094        3.5094       2.680047       0.12722
  40    0.5894        0.8294        0.0000        3.5073        3.5073       2.677944       0.11188
  39     1.339        0.8294        0.0000        3.5006        3.5006       2.671286       0.07496
  38     1.782        0.8294        0.0000        3.4982        3.4982       2.668890       0.04560
  37     2.292        0.8294        0.0000        3.4962        3.4962       2.666840       0.03396
  36     2.964        0.8294        0.0000        3.4941        3.4941       2.664776       0.02591
  35     3.853        0.8293        0.0000        3.4919        3.4919       2.662532       0.02130
  34     5.035        0.8293        0.0000        3.4891        3.4892       2.659822       0.01936
  33     6.613        0.8293        0.0000        3.4855        3.4856       2.656253       0.01908
  32     8.786        0.8293        0.0001        3.4805        3.4806       2.651260       0.01939
  31     11.80        0.8293        0.0001        3.4729        3.4730       2.643661       0.02127
  30     15.07        0.8293        0.0001        3.4641        3.4642       2.634909       0.02260
  29     18.79        0.8293        0.0001        3.4535        3.4536       2.624354       0.02393
  28     23.16        0.8293        0.0001        3.4404        3.4406       2.611311       0.02522
  27     28.12        0.8292        0.0002        3.4248        3.4250       2.595748       0.02646
  26     33.73        0.8292        0.0002        3.4070        3.4072       2.577949       0.02676
  25     40.54        0.8292        0.0002        3.3854        3.3857       2.556472       0.02664
  24     48.69        0.8292        0.0003        3.3603        3.3606       2.531400       0.02595
  23     57.69        0.8291        0.0003        3.3344        3.3347       2.505595       0.02419
  22     68.43        0.8291        0.0004        3.3064        3.3068       2.477694       0.02193
  21     81.20        0.8291        0.0004        3.2770        3.2775       2.448389       0.01936
  20     96.49        0.8291        0.0005        3.2465        3.2471       2.417993       0.01678
  19     114.6        0.8291        0.0006        3.2143        3.2149       2.385890       0.01499
  18     136.5        0.8290        0.0007        3.1786        3.1793       2.350289       0.01369
  17     162.9        0.8291        0.0009        3.1362        3.1371       2.308001       0.01352
  16     196.4        0.8291        0.0010        3.0790        3.0800       2.250920       0.01437
  15     218.7        0.8292        0.0011        3.0391        3.0402       2.211043       0.01514
  14     243.0        0.8293        0.0013        2.9928        2.9940       2.164745       0.01606
  13     269.0        0.8295        0.0014        2.9385        2.9398       2.110398       0.01763
  12     297.5        0.8298        0.0015        2.8737        2.8752       2.045408       0.01928
  11     328.5        0.8302        0.0016        2.8003        2.8019       1.971735       0.02003
  10     361.9        0.8308        0.0018        2.7187        2.7204       1.889642       0.02077
   9     398.1        0.8316        0.0019        2.6288        2.6307       1.799095       0.02110
   8     437.6        0.8327        0.0020        2.5313        2.5333       1.700672       0.02104
   7     480.5        0.8341        0.0022        2.4273        2.4295       1.595419       0.02067
   6     533.0        0.8363        0.0023        2.3023        2.3046       1.468351       0.02044
   5     589.8        0.8393        0.0025        2.1703        2.1727       1.333444       0.02002
   4     651.6        0.8437        0.0026        2.0263        2.0289       1.185154       0.02028
   3     718.7        0.8502        0.0027        1.8728        1.8756       1.025360       0.02008
   2     792.3        0.8598        0.0028        1.7124        1.7153       0.855520       0.01948
   1     891.5        0.8787        0.0029        1.5115        1.5144       0.635746       0.01870
   0    1013.0        0.9126        0.0030        1.3050        1.3080       0.395406       0.01669



 Wavenumbers:  5150. -  6150. cm-1, ATM      1
 LEVEL PRESSURE   UPWARD FLUX   DIFDOWN FLUX  DIRDOWN FLUX  DOWNWARD FLUX   NET FLUX    HEATING RATE
          mb          W/m2          W/m2          W/m2        W/m2          W/m2       degree/day
  51    .06700        2.4584        0.0000        8.8142        8.8142       6.355845       0.00000
  50    .07753        2.4584        0.0000        8.8142        8.8142       6.355806       0.03156
  49    .09103        2.4584        0.0000        8.8141        8.8141       6.355755       0.03203
  48    0.1069        2.4584        0.0000        8.8141        8.8141       6.355694       0.03253
  47    0.1255        2.4584        0.0000        8.8140        8.8140       6.355621       0.03301
  46    0.1487        2.4584        0.0000        8.8139        8.8139       6.355525       0.03476
  45    0.1794        2.4584        0.0000        8.8137        8.8137       6.355391       0.03697
  44    0.2165        2.4584        0.0000        8.8136        8.8136       6.355226       0.03749
  43    0.2613        2.4584        0.0000        8.8134        8.8134       6.355024       0.03802
  42    0.3336        2.4584        0.0000        8.8130        8.8130       6.354680       0.04009
  41    0.4307        2.4584        0.0000        8.8126        8.8126       6.354215       0.04051
  40    0.5894        2.4583        0.0000        8.8118        8.8118       6.353437       0.04133
  39     1.339        2.4583        0.0000        8.8081        8.8081       6.349755       0.04145
  38     1.782        2.4583        0.0000        8.8059        8.8060       6.347657       0.03995
  37     2.292        2.4583        0.0001        8.8036        8.8036       6.345322       0.03867
  36     2.964        2.4583        0.0001        8.8006        8.8007       6.342416       0.03649
  35     3.853        2.4583        0.0001        8.7970        8.7971       6.338816       0.03416
  34     5.035        2.4583        0.0001        8.7924        8.7926       6.334323       0.03210
  33     6.613        2.4582        0.0002        8.7868        8.7870       6.328736       0.02987
  32     8.786        2.4582        0.0002        8.7799        8.7801       6.321913       0.02650
  31     11.80        2.4581        0.0003        8.7712        8.7715       6.313337       0.02401
  30     15.07        2.4581        0.0004        8.7631        8.7635       6.305430       0.02041
  29     18.79        2.4580        0.0005        8.7553        8.7558       6.297825       0.01724
  28     23.16        2.4579        0.0006        8.7476        8.7482       6.290303       0.01455
  27     28.12        2.4578        0.0007        8.7401        8.7409       6.283041       0.01234
  26     33.73        2.4577        0.0009        8.7331        8.7339       6.276199       0.01029
  25     40.54        2.4576        0.0011        8.7257        8.7268       6.269155       0.00874
  24     48.69        2.4575        0.0013        8.7181        8.7194       6.261901       0.00751
  23     57.69        2.4574        0.0015        8.7107        8.7122       6.254796       0.00666
  22     68.43        2.4572        0.0018        8.7025        8.7043       6.247005       0.00613
  21     81.20        2.4571        0.0021        8.6931        8.6952       6.238150       0.00585
  20     96.49        2.4569        0.0025        8.6820        8.6845       6.227660       0.00579
  19     114.6        2.4567        0.0030        8.6684        8.6714       6.214747       0.00603
  18     136.5        2.4564        0.0036        8.6512        8.6547       6.198349       0.00631
  17     162.9        2.4561        0.0042        8.6238        8.6281       6.171964       0.00843
  16     196.4        2.4557        0.0051        8.5590        8.5641       6.108358       0.01601
  15     218.7        2.4555        0.0056        8.4500        8.4556       6.000149       0.04108
  14     243.0        2.4553        0.0062        8.2426        8.2488       5.793499       0.07167
  13     269.0        2.4551        0.0067        7.9619        7.9686       5.513523       0.09082
  12     297.5        2.4549        0.0072        7.6196        7.6268       5.171874       0.10133
  11     328.5        2.4549        0.0077        7.2354        7.2430       4.788158       0.10433
  10     361.9        2.4549        0.0082        6.8367        6.8449       4.389951       0.10075
   9     398.1        2.4551        0.0086        6.4364        6.4450       3.989920       0.09320
   8     437.6        2.4554        0.0090        6.0429        6.0519       3.596523       0.08411
   7     480.5        2.4559        0.0094        5.6871        5.6965       3.240551       0.06991
   6     533.0        2.4569        0.0098        5.3400        5.3499       2.892983       0.05591
   5     589.8        2.4585        0.0103        5.0535        5.0637       2.605222       0.04271
   4     651.6        2.4615        0.0107        4.7969        4.8076       2.346047       0.03544
   3     718.7        2.4667        0.0112        4.5389        4.5501       2.083373       0.03301
   2     792.3        2.4759        0.0118        4.2494        4.2612       1.785261       0.03419
   1     891.5        2.4970        0.0124        3.9180        3.9305       1.433493       0.02993
   0    1013.0        2.5416        0.0131        3.6297        3.6429       1.101236       0.02307



 Wavenumbers:  6150. -  7700. cm-1, ATM      1
 LEVEL PRESSURE   UPWARD FLUX   DIFDOWN FLUX  DIRDOWN FLUX  DOWNWARD FLUX   NET FLUX    HEATING RATE
          mb          W/m2          W/m2          W/m2        W/m2          W/m2       degree/day
  51    .06700        3.4438        0.0000       16.3022       16.3022      12.858438       0.00000
  50    .07753        3.4438        0.0000       16.3022       16.3022      12.858381       0.04553
  49    .09103        3.4438        0.0000       16.3021       16.3021      12.858308       0.04581
  48    0.1069        3.4438        0.0000       16.3020       16.3020      12.858221       0.04611
  47    0.1255        3.4438        0.0000       16.3019       16.3019      12.858119       0.04640
  46    0.1487        3.4438        0.0000       16.3017       16.3018      12.857986       0.04846
  45    0.1794        3.4438        0.0000       16.3015       16.3016      12.857799       0.05117
  44    0.2165        3.4438        0.0000       16.3013       16.3013      12.857573       0.05154
  43    0.2613        3.4438        0.0000       16.3010       16.3011      12.857297       0.05193
  42    0.3336        3.4437        0.0000       16.3005       16.3006      12.856830       0.05446
  41    0.4307        3.4437        0.0000       16.2999       16.2999      12.856199       0.05486
  40    0.5894        3.4437        0.0001       16.2988       16.2989      12.855149       0.05583
  39     1.339        3.4436        0.0001       16.2937       16.2938      12.850152       0.05626
  38     1.782        3.4436        0.0002       16.2907       16.2909      12.847275       0.05478
  37     2.292        3.4436        0.0002       16.2873       16.2876      12.844038       0.05361
  36     2.964        3.4435        0.0003       16.2831       16.2834      12.839949       0.05133
  35     3.853        3.4434        0.0004       16.2778       16.2782      12.834790       0.04895
  34     5.035        3.4433        0.0005       16.2710       16.2715      12.828236       0.04683
  33     6.613        3.4431        0.0007       16.2623       16.2630      12.819894       0.04459
  32     8.786        3.4429        0.0010       16.2513       16.2522      12.809339       0.04099
  31     11.80        3.4426        0.0013       16.2368       16.2381      12.795509       0.03872
  30     15.07        3.4423        0.0017       16.2227       16.2244      12.782087       0.03466
  29     18.79        3.4419        0.0021       16.2084       16.2104      12.768528       0.03074
  28     23.16        3.4415        0.0025       16.1934       16.1959      12.754409       0.02730
  27     28.12        3.4410        0.0031       16.1780       16.1811      12.740063       0.02439
  26     33.73        3.4404        0.0037       16.1627       16.1664      12.725984       0.02117
  25     40.54        3.4398        0.0044       16.1464       16.1509      12.711089       0.01848
  24     48.69        3.4390        0.0053       16.1292       16.1346      12.695574       0.01606
  23     57.69        3.4381        0.0063       16.1123       16.1186      12.680513       0.01412
  22     68.43        3.4371        0.0074       16.0940       16.1014      12.664366       0.01269
  21     81.20        3.4358        0.0088       16.0736       16.0824      12.646617       0.01173
  20     96.49        3.4343        0.0105       16.0502       16.0607      12.626412       0.01115
  19     114.6        3.4325        0.0124       16.0226       16.0350      12.602469       0.01118
  18     136.5        3.4304        0.0148       15.9890       16.0038      12.573340       0.01120
  17     162.9        3.4279        0.0175       15.9394       15.9569      12.528994       0.01417
  16     196.4        3.4247        0.0211       15.8366       15.8577      12.433043       0.02415
  15     218.7        3.4226        0.0234       15.6897       15.7131      12.290514       0.05411
  14     243.0        3.4204        0.0258       15.3964       15.4221      12.001726       0.10016
  13     269.0        3.4181        0.0281       14.9290       14.9571      11.538992       0.15011
  12     297.5        3.4158        0.0303       14.3489       14.3792      10.963392       0.17072
  11     328.5        3.4135        0.0325       13.7151       13.7476      10.334057       0.17111
  10     361.9        3.4113        0.0346       13.0115       13.0461       9.634817       0.17691
   9     398.1        3.4092        0.0366       12.2683       12.3050       8.895736       0.17219
   8     437.6        3.4074        0.0384       11.4989       11.5373       8.129850       0.16375
   7     480.5        3.4060        0.0400       10.7403       10.7803       7.374275       0.14839
   6     533.0        3.4052        0.0416        9.9069        9.9485       6.543314       0.13368
   5     589.8        3.4058        0.0429        9.0985        9.1415       5.735632       0.11989
   4     651.6        3.4096        0.0438        8.2694        8.3132       4.903601       0.11378
   3     718.7        3.4185        0.0445        7.4772        7.5217       4.103184       0.10059
   2     792.3        3.4367        0.0449        6.7227        6.7675       3.330842       0.08858
   1     891.5        3.4830        0.0451        5.8763        5.9214       2.438443       0.07594
   0    1013.0        3.5899        0.0454        5.0999        5.1453       1.555420       0.06131



 Wavenumbers:  7700. -  8050. cm-1, ATM      1
 LEVEL PRESSURE   UPWARD FLUX   DIFDOWN FLUX  DIRDOWN FLUX  DOWNWARD FLUX   NET FLUX    HEATING RATE
          mb          W/m2          W/m2          W/m2        W/m2          W/m2       degree/day
  51    .06700        1.7676        0.0000        3.8527        3.8527       2.085077       0.00000
  50    .07753        1.7676        0.0000        3.8527        3.8527       2.085058       0.01509
  49    .09103        1.7676        0.0000        3.8527        3.8527       2.085034       0.01478
  48    0.1069        1.7676        0.0000        3.8526        3.8526       2.085007       0.01447
  47    0.1255        1.7676        0.0000        3.8526        3.8526       2.084976       0.01416
  46    0.1487        1.7676        0.0000        3.8526        3.8526       2.084937       0.01437
  45    0.1794        1.7676        0.0000        3.8525        3.8525       2.084883       0.01479
  44    0.2165        1.7676        0.0000        3.8524        3.8524       2.084819       0.01450
  43    0.2613        1.7676        0.0000        3.8524        3.8524       2.084743       0.01423
  42    0.3336        1.7676        0.0000        3.8522        3.8523       2.084619       0.01456
  41    0.4307        1.7676        0.0000        3.8521        3.8521       2.084453       0.01440
  40    0.5894        1.7677        0.0000        3.8518        3.8518       2.084183       0.01438
  39     1.339        1.7677        0.0001        3.8505        3.8506       2.082904       0.01439
  38     1.782        1.7677        0.0001        3.8498        3.8499       2.082154       0.01428
  37     2.292        1.7678        0.0001        3.8489        3.8490       2.081287       0.01437
  36     2.964        1.7678        0.0001        3.8478        3.8480       2.080149       0.01428
  35     3.853        1.7679        0.0002        3.8463        3.8465       2.078649       0.01424
  34     5.035        1.7679        0.0002        3.8444        3.8446       2.076659       0.01421
  33     6.613        1.7680        0.0003        3.8417        3.8420       2.074008       0.01417
  32     8.786        1.7682        0.0004        3.8382        3.8386       2.070448       0.01382
  31     11.80        1.7684        0.0005        3.8332        3.8337       2.065382       0.01418
  30     15.07        1.7686        0.0007        3.8279        3.8286       2.059978       0.01395
  29     18.79        1.7688        0.0008        3.8219        3.8227       2.053916       0.01374
  28     23.16        1.7691        0.0010        3.8149        3.8160       2.046893       0.01358
  27     28.12        1.7694        0.0013        3.8071        3.8083       2.038938       0.01352
  26     33.73        1.7698        0.0015        3.7984        3.7999       2.030131       0.01324
  25     40.54        1.7702        0.0018        3.7880        3.7898       2.019622       0.01304
  24     48.69        1.7707        0.0022        3.7757        3.7779       2.007141       0.01292
  23     57.69        1.7713        0.0026        3.7624        3.7650       1.993661       0.01264
  22     68.43        1.7720        0.0030        3.7469        3.7499       1.977910       0.01238
  21     81.20        1.7729        0.0036        3.7289        3.7324       1.959559       0.01213
  20     96.49        1.7739        0.0042        3.7079        3.7122       1.938240       0.01177
  19     114.6        1.7752        0.0050        3.6838        3.6888       1.913655       0.01148
  18     136.5        1.7766        0.0059        3.6562        3.6621       1.885472       0.01084
  17     162.9        1.7785        0.0070        3.6246        3.6316       1.853159       0.01033
  16     196.4        1.7809        0.0084        3.5854        3.5938       1.812970       0.01012
  15     218.7        1.7825        0.0093        3.5607        3.5700       1.787490       0.00967
  14     243.0        1.7843        0.0103        3.5345        3.5448       1.760515       0.00936
  13     269.0        1.7863        0.0114        3.5069        3.5183       1.731992       0.00925
  12     297.5        1.7885        0.0125        3.4778        3.4903       1.701790       0.00896
  11     328.5        1.7909        0.0137        3.4470        3.4607       1.669772       0.00871
  10     361.9        1.7937        0.0150        3.4145        3.4295       1.635803       0.00859
   9     398.1        1.7968        0.0164        3.3800        3.3964       1.599585       0.00844
   8     437.6        1.8003        0.0179        3.3431        3.3610       1.560705       0.00831
   7     480.5        1.8043        0.0195        3.3037        3.3232       1.518843       0.00822
   6     533.0        1.8096        0.0214        3.2548        3.2763       1.466650       0.00840
   5     589.8        1.8159        0.0235        3.2010        3.2245       1.408583       0.00862
   4     651.6        1.8236        0.0257        3.1401        3.1658       1.342190       0.00908
   3     718.7        1.8331        0.0280        3.0701        3.0980       1.264896       0.00971
   2     792.3        1.8454        0.0304        2.9874        3.0177       1.172326       0.01062
   1     891.5        1.8663        0.0334        2.8608        2.8942       1.027914       0.01229
   0    1013.0        1.8989        0.0368        2.6849        2.7217       0.822775       0.01424



 Wavenumbers:  8050. - 12850. cm-1, ATM      1
 LEVEL PRESSURE   UPWARD FLUX   DIFDOWN FLUX  DIRDOWN FLUX  DOWNWARD FLUX   NET FLUX    HEATING RATE
          mb          W/m2          W/m2          W/m2        W/m2          W/m2       degree/day
  51    .06700       23.7456        0.0000       53.9406       53.9406      30.194975       0.00000
  50    .07753       23.7456        0.0000       53.9406       53.9406      30.194975       0.00000
  49    .09103       23.7456        0.0001       53.9405       53.9406      30.194975      -0.00000
  48    0.1069       23.7456        0.0001       53.9405       53.9405      30.194975       0.00000
  47    0.1255       23.7455        0.0001       53.9404       53.9405      30.194975       0.00000
  46    0.1487       23.7455        0.0002       53.9403       53.9405      30.194975      -0.00000
  45    0.1794       23.7454        0.0002       53.9402       53.9404      30.194975       0.00000
  44    0.2165       23.7454        0.0003       53.9400       53.9403      30.194975       0.00000
  43    0.2613       23.7453        0.0004       53.9398       53.9403      30.194975      -0.00000
  42    0.3336       23.7452        0.0006       53.9396       53.9401      30.194975       0.00000
  41    0.4307       23.7450        0.0008       53.9392       53.9400      30.194975      -0.00000
  40    0.5894       23.7447        0.0011       53.9385       53.9397      30.194975       0.00000
  39     1.339       23.7434        0.0028       53.9356       53.9384      30.194975       0.00000
  38     1.782       23.7426        0.0038       53.9339       53.9376      30.194975      -0.00000
  37     2.292       23.7417        0.0049       53.9318       53.9367      30.194975       0.00000
  36     2.964       23.7406        0.0063       53.9292       53.9355      30.194975       0.00000
  35     3.853       23.7390        0.0083       53.9257       53.9340      30.194975       0.00000
  34     5.035       23.7370        0.0109       53.9211       53.9319      30.194975      -0.00000
  33     6.613       23.7342        0.0143       53.9149       53.9292      30.194975      -0.00000
  32     8.786       23.7305        0.0190       53.9065       53.9255      30.194975       0.00000
  31     11.80       23.7252        0.0256       53.8945       53.9202      30.194975       0.00000
  30     15.07       23.7195        0.0328       53.8817       53.9144      30.194975      -0.00000
  29     18.79       23.7130        0.0409       53.8671       53.9080      30.194975      -0.00000
  28     23.16       23.7055        0.0503       53.8501       53.9004      30.194975      -0.00000
  27     28.12       23.6968        0.0612       53.8306       53.8918      30.194975       0.00000
  26     33.73       23.6871        0.0733       53.8088       53.8821      30.194975      -0.00000
  25     40.54       23.6754        0.0879       53.7824       53.8704      30.194975       0.00000
  24     48.69       23.6613        0.1056       53.7506       53.8563      30.194975      -0.00000
  23     57.69       23.6457        0.1251       53.7156       53.8407      30.194975       0.00000
  22     68.43       23.6272        0.1483       53.6739       53.8222      30.194975       0.00000
  21     81.20       23.6051        0.1760       53.6241       53.8001      30.194975      -0.00000
  20     96.49       23.5787        0.2090       53.5647       53.7737      30.194975      -0.00000
  19     114.6       23.5474        0.2482       53.4881       53.7363      30.188951       0.00281
  18     136.5       23.5102        0.2948       53.3970       53.6917      30.181536       0.00285
  17     162.9       23.4659        0.3502       53.2850       53.6352      30.169346       0.00390
  16     196.4       23.4083        0.4222       53.1248       53.5471      30.138774       0.00770
  15     218.7       23.3705        0.4695       52.9855       53.4550      30.084437       0.02063
  14     243.0       23.3295        0.5207       52.7776       53.2983      29.968756       0.04012
  13     269.0       23.2854        0.5759       52.4822       53.0582      29.772775       0.06358
  12     297.5       23.2381        0.6351       52.0946       52.7297      29.491558       0.08341
  11     328.5       23.1877        0.6987       51.6197       52.3184      29.130667       0.09813
  10     361.9       23.1343        0.7664       51.0345       51.8009      28.666575       0.11742
   9     398.1       23.0782        0.8383       50.3205       51.1588      28.080526       0.13654
   8     437.6       23.0200        0.9140       49.4505       50.3645      27.344437       0.15738
   7     480.5       22.9605        0.9931       48.4248       49.4179      26.457474       0.17420
   6     533.0       22.8922        1.0874       47.0638       48.1512      25.258973       0.19280
   5     589.8       22.8275        1.1845       45.4790       46.6635      23.836019       0.21121
   4     651.6       22.7749        1.2816       43.5302       44.8118      22.036905       0.24603
   3     718.7       22.7453        1.3772       41.2593       42.6365      19.891278       0.26965
   2     792.3       22.7612        1.4683       38.6919       40.1602      17.399004       0.28584
   1     891.5       22.8973        1.5725       35.3137       36.8862      13.988956       0.29018
   0    1013.0       23.3059        1.6770       31.7269       33.4039      10.098000       0.27017



 Wavenumbers: 12850. - 16000. cm-1, ATM      1
 LEVEL PRESSURE   UPWARD FLUX   DIFDOWN FLUX  DIRDOWN FLUX  DOWNWARD FLUX   NET FLUX    HEATING RATE
          mb          W/m2          W/m2          W/m2        W/m2          W/m2       degree/day
  51    .06700       22.5076        0.0000       33.7986       33.7986      11.290950       0.00000
  50    .07753       22.5076        0.0001       33.7977       33.7978      11.290178       0.61832
  49    .09103       22.5075        0.0001       33.7966       33.7968      11.289231       0.59216
  48    0.1069       22.5075        0.0002       33.7955       33.7957      11.288170       0.56455
  47    0.1255       22.5074        0.0003       33.7941       33.7944      11.286986       0.53667
  46    0.1487       22.5074        0.0004       33.7925       33.7929      11.285538       0.52785
  45    0.1794       22.5073        0.0005       33.7904       33.7909      11.283652       0.51796
  44    0.2165       22.5072        0.0007       33.7880       33.7887      11.281536       0.48115
  43    0.2613       22.5071        0.0009       33.7853       33.7863      11.279178       0.44456
  42    0.3336       22.5069        0.0013       33.7812       33.7825      11.275584       0.41902
  41    0.4307       22.5067        0.0018       33.7763       33.7780      11.271311       0.37157
  40    0.5894       22.5065        0.0025       33.7691       33.7716      11.265169       0.32658
  39     1.339       22.5059        0.0061       33.7390       33.7452      11.239211       0.29224
  38     1.782       22.5062        0.0082       33.7202       33.7284      11.222186       0.32415
  37     2.292       22.5070        0.0107       33.6956       33.7063      11.199257       0.37976
  36     2.964       22.5090        0.0139       33.6588       33.6727      11.163761       0.44558
  35     3.853       22.5126        0.0181       33.6037       33.6218      11.109176       0.51802
  34     5.035       22.5186        0.0237       33.5243       33.5480      11.029378       0.57004
  33     6.613       22.5272        0.0312       33.4160       33.4471      10.919904       0.58525
  32     8.786       22.5382        0.0412       33.2757       33.3169      10.778646       0.54860
  31     11.80       22.5518        0.0555       33.0919       33.1474      10.595566       0.51257
  30     15.07       22.5638        0.0707       32.9138       32.9845      10.420660       0.45157
  29     18.79       22.5751        0.0878       32.7300       32.8179      10.242784       0.40330
  28     23.16       22.5857        0.1077       32.5353       32.6430      10.057365       0.35854
  27     28.12       22.5947        0.1304       32.3350       32.4654       9.870741       0.31725
  26     33.73       22.6003        0.1556       32.1408       32.2964       9.696074       0.26262
  25     40.54       22.6021        0.1859       31.9397       32.1257       9.523581       0.21400
  24     48.69       22.5993        0.2223       31.7297       31.9520       9.352687       0.17685
  23     57.69       22.5915        0.2622       31.5290       31.7912       9.199661       0.14344
  22     68.43       22.5771        0.3094       31.3211       31.6305       9.053405       0.11498
  21     81.20       22.5529        0.3654       31.1137       31.4791       8.926242       0.08403
  20     96.49       22.5176        0.4320       30.9026       31.3345       8.816944       0.06033
  19     114.6       22.4774        0.5112       30.6645       31.1757       8.698279       0.05541
  18     136.5       22.4269        0.6047       30.3951       30.9998       8.572911       0.04821
  17     162.9       22.3641        0.7152       30.0867       30.8019       8.437825       0.04318
  16     196.4       22.2768        0.8574       29.7145       30.5720       8.295114       0.03592
  15     218.7       22.2176        0.9502       29.4810       30.4312       8.213588       0.03095
  14     243.0       22.1525        1.0505       29.2323       30.2829       8.130312       0.02888
  13     269.0       22.0813        1.1586       28.9676       30.1262       8.044891       0.02771
  12     297.5       22.0039        1.2748       28.6845       29.9592       7.955298       0.02657
  11     328.5       21.9205        1.3994       28.3793       29.7788       7.858253       0.02639
  10     361.9       21.8311        1.5327       28.0502       29.5829       7.751815       0.02693
   9     398.1       21.7356        1.6749       27.6940       29.3689       7.633310       0.02761
   8     437.6       21.6344        1.8264       27.3060       29.1324       7.498018       0.02893
   7     480.5       21.5277        1.9871       26.8845       28.8715       7.343812       0.03029
   6     533.0       21.3998        2.1825       26.3563       28.5388       7.138989       0.03295
   5     589.8       21.2677        2.3899       25.7701       28.1600       6.892349       0.03661
   4     651.6       21.1364        2.6087       25.1009       27.7096       6.573226       0.04364
   3     718.7       21.0098        2.8364       24.3572       27.1936       6.183752       0.04895
   2     792.3       20.8991        3.0700       23.5104       26.5804       5.681278       0.05763
   1     891.5       20.8057        3.3653       22.2802       25.6455       4.839872       0.07160
   0    1013.0       20.7928        3.6899       20.7348       24.4247       3.631957       0.08387



 Wavenumbers: 16000. - 22650. cm-1, ATM      1
 LEVEL PRESSURE   UPWARD FLUX   DIFDOWN FLUX  DIRDOWN FLUX  DOWNWARD FLUX   NET FLUX    HEATING RATE
          mb          W/m2          W/m2          W/m2        W/m2          W/m2       degree/day
  51    .06700       44.6316        0.0000       53.8881       53.8881       9.256455       0.00000
  50    .07753       44.6314        0.0003       53.8875       53.8878       9.256353       0.08220
  49    .09103       44.6312        0.0007       53.8868       53.8874       9.256204       0.09324
  48    0.1069       44.6310        0.0011       53.8859       53.8870       9.256004       0.10632
  47    0.1255       44.6307        0.0016       53.8849       53.8864       9.255737       0.12119
  46    0.1487       44.6304        0.0022       53.8835       53.8857       9.255343       0.14360
  45    0.1794       44.6299        0.0030       53.8816       53.8847       9.254727       0.16908
  44    0.2165       44.6294        0.0040       53.8793       53.8833       9.253891       0.19002
  43    0.2613       44.6289        0.0052       53.8764       53.8816       9.252758       0.21362
  42    0.3336       44.6280        0.0071       53.8715       53.8786       9.250603       0.25120
  41    0.4307       44.6269        0.0097       53.8645       53.8742       9.247356       0.28236
  40    0.5894       44.6253        0.0139       53.8525       53.8664       9.241164       0.32931
  39     1.339       44.6207        0.0338       53.7823       53.8162       9.195440       0.51476
  38     1.782       44.6203        0.0455       53.7313       53.7769       9.156525       0.74088
  37     2.292       44.6221        0.0591       53.6632       53.7223       9.100249       0.93208
  36     2.964       44.6276        0.0768       53.5600       53.6368       9.009211       1.14280
  35     3.853       44.6396        0.1002       53.4045       53.5047       8.865072       1.36790
  34     5.035       44.6601        0.1311       53.1798       53.3109       8.650736       1.53113
  33     6.613       44.6900        0.1723       52.8720       53.0442       8.354255       1.58499
  32     8.786       44.7280        0.2275       52.4713       52.6988       7.970859       1.48897
  31     11.80       44.7737        0.3059       51.9424       52.2483       7.474694       1.38910
  30     15.07       44.8126        0.3895       51.4248       51.8144       7.001747       1.22106
  29     18.79       44.8477        0.4833       50.8859       51.3692       6.521460       1.08896
  28     23.16       44.8784        0.5919       50.3082       50.9000       6.021667       0.96644
  27     28.12       44.9014        0.7150       49.7064       50.4214       5.519919       0.85294
  26     33.73       44.9099        0.8517       49.1117       49.9633       5.053403       0.70142
  25     40.54       44.9002        1.0154       48.4819       49.4972       4.597008       0.56621
  24     48.69       44.8695        1.2109       47.8086       49.0194       4.149950       0.46263
  23     57.69       44.8176        1.4234       47.1508       48.5742       3.756660       0.36865
  22     68.43       44.7365        1.6740       46.4538       48.1278       3.391308       0.28721
  21     81.20       44.6134        1.9694       45.7362       47.7056       3.092226       0.19763
  20     96.49       44.4430        2.3171       44.9858       47.3030       2.859924       0.12821
  19     114.6       44.2316        2.7238       44.1560       46.8798       2.648248       0.09884
  18     136.5       43.9770        3.1973       43.2220       46.4194       2.442392       0.07916
  17     162.9       43.6726        3.7494       42.1621       45.9114       2.238841       0.06506
  16     196.4       43.2711        4.4476       40.8820       45.3296       2.058527       0.04539
  15     218.7       43.0073        4.8957       40.0825       44.9782       1.970876       0.03328
  14     243.0       42.7233        5.3735       39.2401       44.6136       1.890328       0.02794
  13     269.0       42.4188        5.8809       38.3561       44.2369       1.818131       0.02342
  12     297.5       42.0941        6.4172       37.4313       43.8485       1.754356       0.01891
  11     328.5       41.7501        6.9831       36.4601       43.4432       1.693064       0.01667
  10     361.9       41.3878        7.5770       35.4451       43.0221       1.634329       0.01486
   9     398.1       41.0071        8.1989       34.3859       42.5848       1.577673       0.01320
   8     437.6       40.6094        8.8474       33.2835       42.1309       1.521477       0.01202
   7     480.5       40.1954        9.5210       32.1401       41.6611       1.465679       0.01096
   6     533.0       39.7033       10.3205       30.7833       41.1038       1.400554       0.01048
   5     589.8       39.1942       11.1476       29.3770       40.5245       1.330307       0.01043
   4     651.6       38.6722       11.9974       27.9230       39.9205       1.248263       0.01122
   3     718.7       38.1407       12.8663       26.4240       39.2903       1.149634       0.01239
   2     792.3       37.6074       13.7464       24.8835       38.6299       1.022470       0.01458
   1     891.5       36.9481       14.8562       22.8962       37.7524       0.804325       0.01856
   0    1013.0       36.2464       16.0753       20.6634       36.7387       0.492298       0.02167



 Wavenumbers: 22650. - 29000. cm-1, ATM      1
 LEVEL PRESSURE   UPWARD FLUX   DIFDOWN FLUX  DIRDOWN FLUX  DOWNWARD FLUX   NET FLUX    HEATING RATE
          mb          W/m2          W/m2          W/m2        W/m2          W/m2       degree/day
  51    .06700       20.1569        0.0000       20.3354       20.3354       0.178522       0.00000
  50    .07753       20.1567        0.0003       20.3348       20.3352       0.178522      -0.00000
  49    .09103       20.1564        0.0008       20.3341       20.3349       0.178522       0.00000
  48    0.1069       20.1561        0.0013       20.3334       20.3346       0.178522      -0.00000
  47    0.1255       20.1557        0.0018       20.3324       20.3343       0.178522       0.00000
  46    0.1487       20.1553        0.0025       20.3313       20.3338       0.178522       0.00000
  45    0.1794       20.1547        0.0035       20.3297       20.3332       0.178522       0.00000
  44    0.2165       20.1540        0.0047       20.3278       20.3325       0.178522      -0.00000
  43    0.2613       20.1531        0.0060       20.3256       20.3316       0.178522       0.00000
  42    0.3336       20.1517        0.0083       20.3219       20.3302       0.178522      -0.00000
  41    0.4307       20.1498        0.0113       20.3171       20.3284       0.178522       0.00000
  40    0.5894       20.1468        0.0162       20.3092       20.3253       0.178522       0.00000
  39     1.339       20.1324        0.0393       20.2716       20.3109       0.178522       0.00000
  38     1.782       20.1240        0.0529       20.2496       20.3025       0.178522      -0.00000
  37     2.292       20.1142        0.0685       20.2242       20.2927       0.178522       0.00000
  36     2.964       20.1014        0.0891       20.1908       20.2799       0.178522       0.00000
  35     3.853       20.0845        0.1162       20.1468       20.2630       0.178522      -0.00000
  34     5.035       20.0621        0.1522       20.0884       20.2406       0.178522      -0.00000
  33     6.613       20.0323        0.2001       20.0107       20.2108       0.178522       0.00000
  32     8.786       19.9923        0.2643       19.9065       20.1708       0.178522      -0.00000
  31     11.80       19.9354        0.3557       19.7582       20.1139       0.178522      -0.00000
  30     15.07       19.8747        0.4531       19.6001       20.0533       0.178522       0.00000
  29     18.79       19.8068        0.5623       19.4230       19.9853       0.178522       0.00000
  28     23.16       19.7281        0.6886       19.2181       19.9066       0.178522       0.00000
  27     28.12       19.6392        0.8314       18.9863       19.8177       0.178522       0.00000
  26     33.73       19.5409        0.9892       18.7301       19.7194       0.178522      -0.00000
  25     40.54       19.4239        1.1771       18.4253       19.6024       0.178522      -0.00000
  24     48.69       19.2853        1.3996       18.0643       19.4638       0.178522       0.00000
  23     57.69       19.1362        1.6389       17.6759       19.3147       0.178522       0.00000
  22     68.43       18.9629        1.9171       17.2244       19.1414       0.178522      -0.00000
  21     81.20       18.7622        2.2390       16.7017       18.9408       0.178522       0.00000
  20     96.49       18.5312        2.6097       16.1001       18.7098       0.178522       0.00000
  19     114.6       18.2679        3.0320       15.4144       18.4465       0.178522      -0.00000
  18     136.5       17.9707        3.5087       14.6405       18.1492       0.178522       0.00000
  17     162.9       17.6369        4.0437       13.7717       17.8154       0.178522      -0.00000
  16     196.4       17.2335        4.6899       12.7221       17.4121       0.178522       0.00000
  15     218.7       16.9863        5.0859       12.0789       17.1648       0.178522      -0.00000
  14     243.0       16.7319        5.4931       11.4173       16.9104       0.178522       0.00000
  13     269.0       16.4723        5.9084       10.7424       16.6508       0.178522       0.00000
  12     297.5       16.2091        6.3291       10.0585       16.3876       0.178522       0.00000
  11     328.5       15.9436        6.7533        9.3688       16.1222       0.178522       0.00000
  10     361.9       15.6786        7.1764        8.6807       15.8571       0.178522      -0.00000
   9     398.1       15.4154        7.5962        7.9978       15.5940       0.178522       0.00000
   8     437.6       15.1557        8.0100        7.3243       15.3342       0.178522      -0.00000
   7     480.5       14.9018        8.4140        6.6663       15.0803       0.178522       0.00000
   6     533.0       14.6199        8.8618        5.9366       14.7984       0.178522       0.00000
   5     589.8       14.3505        9.2890        5.2400       14.5290       0.178522       0.00000
   4     651.6       14.0955        9.6922        4.5818       14.2740       0.178522       0.00000
   3     718.7       13.8567       10.0685        3.9667       14.0352       0.178522       0.00000
   2     792.3       13.6357       10.4154        3.3989       13.8142       0.178522       0.00000
   1     891.5       13.3853       10.8061        2.7577       13.5638       0.178522       0.00000
   0    1013.0       13.1440       11.1793        2.1432       13.3225       0.178522       0.00000



 Wavenumbers: 29000. - 38000. cm-1, ATM      1
 LEVEL PRESSURE   UPWARD FLUX   DIFDOWN FLUX  DIRDOWN FLUX  DOWNWARD FLUX   NET FLUX    HEATING RATE
          mb          W/m2          W/m2          W/m2        W/m2          W/m2       degree/day
  51    .06700        2.6479        0.0000        7.1711        7.1711       4.523231       0.00000
  50    .07753        2.6476        0.0003        7.1668        7.1671       4.519442       3.03758
  49    .09103        2.6473        0.0006        7.1607        7.1613       4.513946       3.43464
  48    0.1069        2.6470        0.0010        7.1526        7.1536       4.506623       3.89822
  47    0.1255        2.6466        0.0015        7.1420        7.1435       4.496888       4.41354
  46    0.1487        2.6461        0.0021        7.1267        7.1288       4.482684       5.17747
  45    0.1794        2.6455        0.0029        7.1035        7.1063       4.460835       5.99793
  44    0.2165        2.6447        0.0038        7.0729        7.0766       4.431897       6.58302
  43    0.2613        2.6439        0.0049        7.0329        7.0377       4.393885       7.16498
  42    0.3336        2.6425        0.0066        6.9612        6.9678       4.325339       7.99188
  41    0.4307        2.6406        0.0089        6.8625        6.8714       4.230740       8.22515
  40    0.5894        2.6378        0.0124        6.7001        6.7125       4.074708       8.29758
  39     1.339        2.6269        0.0269        6.0396        6.0665       3.439591       7.15026
  38     1.782        2.6217        0.0342        5.7576        5.7919       3.170194       5.12888
  37     2.292        2.6165        0.0421        5.4858        5.5279       2.911369       4.28683
  36     2.964        2.6110        0.0516        5.1887        5.2402       2.629232       3.54167
  35     3.853        2.6053        0.0631        4.8731        4.9362       2.330838       2.83181
  34     5.035        2.5996        0.0773        4.5547        4.6320       2.032438       2.13165
  33     6.613        2.5934        0.0950        4.2472        4.3422       1.748731       1.51670
  32     8.786        2.5861        0.1174        3.9547        4.0720       1.485904       1.02073
  31     11.80        2.5762        0.1476        3.6609        3.8085       1.232301       0.71001
  30     15.07        2.5658        0.1780        3.4310        3.6090       1.043259       0.48807
  29     18.79        2.5543        0.2106        3.2292        3.4397       0.885468       0.35776
  28     23.16        2.5411        0.2465        3.0421        3.2886       0.747529       0.26673
  27     28.12        2.5261        0.2857        2.8686        3.1543       0.628245       0.20278
  26     33.73        2.5086        0.3276        2.7116        3.0392       0.530567       0.14686
  25     40.54        2.4867        0.3760        2.5555        2.9315       0.444742       0.10648
  24     48.69        2.4600        0.4315        2.3969        2.8284       0.368320       0.07908
  23     57.69        2.4308        0.4892        2.2480        2.7373       0.306505       0.05794
  22     68.43        2.3961        0.5544        2.0949        2.6493       0.253155       0.04194
  21     81.20        2.3546        0.6277        1.9393        2.5670       0.212415       0.02692
  20     96.49        2.3061        0.7094        1.7796        2.4889       0.182807       0.01634
  19     114.6        2.2523        0.7984        1.6116        2.4100       0.157714       0.01172
  18     136.5        2.1944        0.8932        1.4361        2.3293       0.134887       0.00878
  17     162.9        2.1331        0.9930        1.2539        2.2470       0.113854       0.00672
  16     196.4        2.0634        1.1049        1.0550        2.1599       0.096518       0.00436
  15     218.7        2.0232        1.1688        0.9429        2.1117       0.088504       0.00304
  14     243.0        1.9841        1.2305        0.8350        2.0655       0.081387       0.00247
  13     269.0        1.9465        1.2897        0.7321        2.0217       0.075238       0.00199
  12     297.5        1.9107        1.3456        0.6352        1.9808       0.070014       0.00155
  11     328.5        1.8773        1.3976        0.5448        1.9424       0.065187       0.00131
  10     361.9        1.8463        1.4454        0.4617        1.9071       0.060742       0.00112
   9     398.1        1.8182        1.4886        0.3863        1.8748       0.056654       0.00095
   8     437.6        1.7929        1.5270        0.3188        1.8457       0.052815       0.00082
   7     480.5        1.7706        1.5606        0.2593        1.8198       0.049251       0.00070
   6     533.0        1.7486        1.5932        0.2008        1.7940       0.045441       0.00061
   5     589.8        1.7302        1.6199        0.1522        1.7720       0.041811       0.00054
   4     651.6        1.7154        1.6410        0.1127        1.7537       0.038297       0.00048
   3     718.7        1.7036        1.6571        0.0814        1.7385       0.034876       0.00043
   2     792.3        1.6946        1.6688        0.0573        1.7261       0.031535       0.00038
   1     891.5        1.6865        1.6785        0.0354        1.7139       0.027406       0.00035
   0    1013.0        1.6810        1.6841        0.0197        1.7038       0.022831       0.00032



 Wavenumbers: 38000. - 50000. cm-1, ATM      1
 LEVEL PRESSURE   UPWARD FLUX   DIFDOWN FLUX  DIRDOWN FLUX  DOWNWARD FLUX   NET FLUX    HEATING RATE
          mb          W/m2          W/m2          W/m2        W/m2          W/m2       degree/day
  51    .06700        0.0038        0.0000        0.4423        0.4423       0.438508       0.00000
  50    .07753        0.0037        0.0001        0.4399        0.4399       0.436181       1.86523
  49    .09103        0.0037        0.0002        0.4364        0.4365       0.432877       2.06506
  48    0.1069        0.0036        0.0002        0.4319        0.4321       0.428565       2.29509
  47    0.1255        0.0035        0.0004        0.4261        0.4264       0.422950       2.54560
  46    0.1487        0.0034        0.0005        0.4178        0.4183       0.414932       2.92266
  45    0.1794        0.0032        0.0007        0.4054        0.4061       0.402878       3.30909
  44    0.2165        0.0030        0.0009        0.3895        0.3904       0.387355       3.53117
  43    0.2613        0.0028        0.0011        0.3693        0.3704       0.367590       3.72559
  42    0.3336        0.0025        0.0014        0.3348        0.3362       0.333660       3.95591
  41    0.4307        0.0022        0.0017        0.2905        0.2922       0.290065       3.79056
  40    0.5894        0.0017        0.0021        0.2259        0.2281       0.226383       3.38650
  39     1.339        0.0007        0.0023        0.0665        0.0688       0.068137       1.78157
  38     1.782        0.0004        0.0019        0.0377        0.0396       0.039194       0.55101
  37     2.292        0.0003        0.0016        0.0212        0.0227       0.022476       0.27690
  36     2.964        0.0001        0.0012        0.0109        0.0121       0.011965       0.13195
  35     3.853        0.0001        0.0009        0.0051        0.0059       0.005875       0.05780
  34     5.035        0.0000        0.0006        0.0019        0.0025       0.002515       0.02400
  33     6.613        0.0000        0.0004        0.0006        0.0010       0.000955       0.00834
  32     8.786        0.0000        0.0002        0.0001        0.0004       0.000359       0.00232
  31     11.80        0.0000        0.0001        0.0000        0.0001       0.000137       0.00062
  30     15.07        0.0000        0.0001        0.0000        0.0001       0.000065       0.00019
  29     18.79        0.0000        0.0000        0.0000        0.0000       0.000032       0.00007
  28     23.16        0.0000        0.0000        0.0000        0.0000       0.000016       0.00003
  27     28.12        0.0000        0.0000        0.0000        0.0000       0.000007       0.00001
  26     33.73        0.0000        0.0000        0.0000        0.0000       0.000003       0.00001
  25     40.54        0.0000        0.0000        0.0000        0.0000       0.000002       0.00000
  24     48.69        0.0000        0.0000        0.0000        0.0000       0.000001       0.00000
  23     57.69        0.0000        0.0000        0.0000        0.0000       0.000000       0.00000
  22     68.43        0.0000        0.0000        0.0000        0.0000       0.000000       0.00000
  21     81.20        0.0000        0.0000        0.0000        0.0000       0.000000       0.00000
  20     96.49        0.0000        0.0000        0.0000        0.0000       0.000000       0.00000
  19     114.6        0.0000        0.0000        0.0000        0.0000       0.000000       0.00000
  18     136.5        0.0000        0.0000        0.0000        0.0000       0.000000       0.00000
  17     162.9        0.0000        0.0000        0.0000        0.0000       0.000000       0.00000
  16     196.4        0.0000        0.0000        0.0000        0.0000       0.000000       0.00000
  15     218.7        0.0000        0.0000        0.0000        0.0000       0.000000       0.00000
  14     243.0        0.0000        0.0000        0.0000        0.0000       0.000000       0.00000
  13     269.0        0.0000        0.0000        0.0000        0.0000       0.000000       0.00000
  12     297.5        0.0000        0.0000        0.0000        0.0000       0.000000       0.00000
  11     328.5        0.0000        0.0000        0.0000        0.0000       0.000000       0.00000
  10     361.9        0.0000        0.0000        0.0000        0.0000       0.000000       0.00000
   9     398.1        0.0000        0.0000        0.0000        0.0000       0.000000       0.00000
   8     437.6        0.0000        0.0000        0.0000        0.0000       0.000000       0.00000
   7     480.5        0.0000        0.0000        0.0000        0.0000       0.000000       0.00000
   6     533.0        0.0000        0.0000        0.0000        0.0000       0.000000       0.00000
   5     589.8        0.0000        0.0000        0.0000        0.0000       0.000000       0.00000
   4     651.6        0.0000        0.0000        0.0000        0.0000       0.000000       0.00000
   3     718.7        0.0000        0.0000        0.0000        0.0000       0.000000       0.00000
   2     792.3        0.0000        0.0000        0.0000        0.0000       0.000000       0.00000
   1     891.5        0.0000        0.0000        0.0000        0.0000       0.000000       0.00000
   0    1013.0        0.0000        0.0000        0.0000        0.0000       0.000000       0.00000



 Wavenumbers:   820. -  2600. cm-1, ATM      1
 LEVEL PRESSURE   UPWARD FLUX   DIFDOWN FLUX  DIRDOWN FLUX  DOWNWARD FLUX   NET FLUX    HEATING RATE
          mb          W/m2          W/m2          W/m2        W/m2          W/m2       degree/day
  51    .06700        0.1361        0.0000        2.0691        2.0691       1.932936       0.00000
  50    .07753        0.1361        0.0000        2.0673        2.0673       1.931189       1.39972
  49    .09103        0.1361        0.0000        2.0666        2.0666       1.930458       0.45699
  48    0.1069        0.1361        0.0000        2.0658        2.0658       1.929720       0.39309
  47    0.1255        0.1361        0.0000        2.0651        2.0651       1.928986       0.33257
  46    0.1487        0.1361        0.0000        2.0643        2.0643       1.928193       0.28929
  45    0.1794        0.1361        0.0000        2.0634        2.0634       1.927262       0.25549
  44    0.2165        0.1361        0.0000        2.0624        2.0624       1.926262       0.22750
  43    0.2613        0.1361        0.0000        2.0612        2.0612       1.925113       0.21660
  42    0.3336        0.1361        0.0000        2.0593        2.0593       1.923207       0.22220
  41    0.4307        0.1361        0.0000        2.0568        2.0568       1.920682       0.21955
  40    0.5894        0.1361        0.0000        2.0528        2.0528       1.916634       0.21526
  39     1.339        0.1361        0.0000        2.0349        2.0349       1.898797       0.20081
  38     1.782        0.1361        0.0000        2.0254        2.0254       1.889267       0.18145
  37     2.292        0.1361        0.0000        2.0153        2.0153       1.879200       0.16673
  36     2.964        0.1361        0.0000        2.0033        2.0033       1.867195       0.15070
  35     3.853        0.1361        0.0000        1.9888        1.9888       1.852657       0.13796
  34     5.035        0.1361        0.0000        1.9713        1.9713       1.835192       0.12477
  33     6.613        0.1361        0.0000        1.9516        1.9516       1.815427       0.10567
  32     8.786        0.1361        0.0000        1.9313        1.9313       1.795157       0.07872
  31     11.80        0.1361        0.0000        1.9118        1.9118       1.775658       0.05459
  30     15.07        0.1361        0.0000        1.8970        1.8970       1.760908       0.03808
  29     18.79        0.1361        0.0000        1.8829        1.8829       1.746778       0.03204
  28     23.16        0.1361        0.0000        1.8673        1.8673       1.731204       0.03011
  27     28.12        0.1361        0.0000        1.8502        1.8502       1.714041       0.02918
  26     33.73        0.1361        0.0000        1.8320        1.8320       1.695828       0.02738
  25     40.54        0.1361        0.0000        1.8114        1.8114       1.675282       0.02549
  24     48.69        0.1361        0.0000        1.7888        1.7888       1.652626       0.02344
  23     57.69        0.1361        0.0000        1.7660        1.7660       1.629865       0.02133
  22     68.43        0.1361        0.0000        1.7415        1.7415       1.605360       0.01926
  21     81.20        0.1361        0.0000        1.7158        1.7158       1.579647       0.01699
  20     96.49        0.1361        0.0000        1.6891        1.6891       1.552987       0.01471
  19     114.6        0.1361        0.0000        1.6617        1.6617       1.525557       0.01281
  18     136.5        0.1361        0.0000        1.6341        1.6342       1.498016       0.01059
  17     162.9        0.1361        0.0000        1.6042        1.6042       1.468064       0.00957
  16     196.4        0.1362        0.0000        1.5645        1.5646       1.428409       0.00998
  15     218.7        0.1362        0.0000        1.5316        1.5316       1.395424       0.01252
  14     243.0        0.1362        0.0000        1.4822        1.4822       1.346002       0.01714
  13     269.0        0.1362        0.0000        1.4086        1.4086       1.272368       0.02389
  12     297.5        0.1363        0.0000        1.3030        1.3031       1.166799       0.03131
  11     328.5        0.1363        0.0000        1.1954        1.1954       1.059104       0.02928
  10     361.9        0.1365        0.0000        1.1048        1.1049       0.968410       0.02295
   9     398.1        0.1366        0.0000        1.0387        1.0387       0.902089       0.01545
   8     437.6        0.1368        0.0000        0.9862        0.9862       0.849427       0.01126
   7     480.5        0.1371        0.0000        0.9366        0.9367       0.799620       0.00978
   6     533.0        0.1375        0.0000        0.8767        0.8767       0.739222       0.00972
   5     589.8        0.1381        0.0000        0.8131        0.8132       0.675036       0.00953
   4     651.6        0.1394        0.0000        0.7439        0.7439       0.604533       0.00964
   3     718.7        0.1417        0.0000        0.6707        0.6707       0.529006       0.00949
   2     792.3        0.1460        0.0000        0.5809        0.5809       0.434938       0.01079
   1     891.5        0.1568        0.0000        0.4355        0.4355       0.278728       0.01329
   0    1013.0        0.1819        0.0000        0.2606        0.2607       0.078804       0.01388

  Modules and versions used in this calculation:

       rrtmg_sw.1col.f90:  $Revision$                    rrtmg_sw_init.f90:  $Revision$        
     rrtmgsw_cldprop.f90:  $Revision$                  rrtmgsw_cldprmc.f90:  NOT USED          
     rrtmg_sw_reftra.f90:  $Revision$                  rrtmg_sw_spcvrt.f90:  NOT USED          
     rrtmg_sw_spcvmc.f90:  NOT USED                    rrtmgsw_setcoef.f90:  NOT USED          
     rrtmg_sw_taumol.f90:  $Revision$                  rrtmg_sw_vrtqdr.f90:  NOT USED          
                rrtatm.f:  NOT USED                             util_xxx.f:  NOT USED          
                 extra.f:  NOT USED                       rrtmg_sw_k_g.f90:  $Revision$        

