

 Wavenumbers:   820. - 50000. cm-1, ATM      1
 LEVEL PRESSURE   UPWARD FLUX   DIFDOWN FLUX  DIRDOWN FLUX  DOWNWARD FLUX   NET FLUX    HEATING RATE
          mb          W/m2          W/m2          W/m2        W/m2          W/m2       degree/day
  51    .06700      225.3859        0.0000      375.1009      375.1009     149.714929       0.00000
  50    .07753      225.3853        0.0012      375.0850      375.0861     149.700808      11.31783
  49    .09103      225.3846        0.0026      375.0691      375.0718     149.687195       8.50896
  48    0.1069      225.3838        0.0043      375.0503      375.0546     149.670887       8.68036
  47    0.1255      225.3828        0.0063      375.0271      375.0333     149.650493       9.24589
  46    0.1487      225.3817        0.0087      374.9951      375.0038     149.622118      10.34299
  45    0.1794      225.3802        0.0121      374.9481      374.9602     149.579977      11.56859
  44    0.2165      225.3785        0.0160      374.8880      374.9040     149.525555      12.38015
  43    0.2613      225.3765        0.0206      374.8110      374.8316     149.455096      13.28115
  42    0.3336      225.3735        0.0282      374.6739      374.7021     149.328548      14.75427
  41    0.4307      225.3698        0.0382      374.4829      374.5211     149.151255      15.41524
  40    0.5894      225.3644        0.0543      374.1603      374.2146     148.850157      16.01200
  39     1.339      225.3501        0.1261      372.7072      372.8333     147.483149      15.39003
  38     1.782      225.3493        0.1664      372.0423      372.2087     146.859417      11.87484
  37     2.292      225.3549        0.2123      371.4001      371.6124     146.257476       9.96972
  36     2.964      225.3721        0.2719      370.6726      370.9444     145.572275       8.60134
  35     3.853      225.4085        0.3497      369.8338      370.1836     144.775033       7.56597
  34     5.035      225.4703        0.4521      368.8763      369.3284     143.858114       6.55009
  33     6.613      225.5604        0.5878      367.7884      368.3762     142.815761       5.57242
  32     8.786      225.6764        0.7692      366.5529      367.3221     141.645744       4.54392
  31     11.80      225.8196        1.0266      365.0715      366.0981     140.278536       3.82775
  30     15.07      225.9466        1.3006      363.7028      365.0034     139.056809       3.15426
  29     18.79      226.0662        1.6077      362.3216      363.9293     137.863031       2.70666
  28     23.16      226.1786        1.9633      360.8650      362.8283     136.649695       2.34620
  27     28.12      226.2752        2.3666      359.3549      361.7215     135.446358       2.04559
  26     33.73      226.3362        2.8146      357.8462      360.6608     134.324537       1.68669
  25     40.54      226.3557        3.3516      356.2150      359.5665     133.210829       1.38168
  24     48.69      226.3272        3.9930      354.4301      358.4231     132.095894       1.15378
  23     57.69      226.2462        4.6908      352.6362      357.3270     131.080781       0.95152
  22     68.43      226.0966        5.5131      350.6735      356.1866     130.090025       0.77887
  21     81.20      225.8449        6.4818      348.5591      355.0409     129.196052       0.59072
  20     96.49      225.4791        7.6208      346.2552      353.8759     128.396885       0.44108
  19     114.6      225.0260        8.9504      343.6521      352.6025     127.576448       0.38309
  18     136.5      224.4761       10.4939      340.7040      351.1979     126.721803       0.32863
  17     162.9      223.8157       12.2873      337.3096      349.5969     125.781141       0.30067
  16     196.4      222.9357       14.5460      333.0153      347.5612     124.625531       0.29088
  15     218.7      222.3555       15.9901      330.0224      346.0125     123.657007       0.36771
  14     243.0      221.7310       17.5255      326.4087      343.9343     122.203247       0.50421
  13     269.0      221.0625       19.1503      322.0048      341.1552     120.092674       0.68466
  12     297.5      220.3516       20.8627      316.8994      337.7621     117.410553       0.79549
  11     328.5      219.6022       22.6638      311.4330      334.0968     114.494558       0.79285
  10     361.9      218.8176       24.5487      305.5352      330.0839     111.266234       0.81680
   9     398.1      217.9996       26.5173      299.1682      325.6855     107.685833       0.83415
   8     437.6      217.1546       28.5644      292.3330      320.8974     103.742885       0.84303
   7     480.5      216.2876       30.6860      285.1356      315.8216      99.534002       0.82661
   6     533.0      215.2795       33.2006      276.4571      309.6577      94.378123       0.82942
   5     589.8      214.2780       35.7978      267.2125      303.0104      88.732396       0.83801
   4     651.6      213.3351       38.4635      257.0554      295.5189      82.183814       0.89554
   3     718.7      212.5060       41.1861      246.2528      287.4390      74.933007       0.91123
   2     792.3      211.9163       43.9463      234.5922      278.5385      66.622193       0.95316
   1     891.5      211.8106       47.4303      219.1839      266.6142      54.803627       1.00570
   0    1013.0      213.1766       51.2825      202.2380      253.5205      40.343850       1.00402



 Wavenumbers:  2600. -  3250. cm-1, ATM      1
 LEVEL PRESSURE   UPWARD FLUX   DIFDOWN FLUX  DIRDOWN FLUX  DOWNWARD FLUX   NET FLUX    HEATING RATE
          mb          W/m2          W/m2          W/m2        W/m2          W/m2       degree/day
  51    .06700        0.5340        0.0000        3.3059        3.3059       2.771894       0.00000
  50    .07753        0.5340        0.0000        3.3059        3.3059       2.771886       0.00640
  49    .09103        0.5340        0.0000        3.3059        3.3059       2.771876       0.00627
  48    0.1069        0.5340        0.0000        3.3059        3.3059       2.771865       0.00613
  47    0.1255        0.5340        0.0000        3.3059        3.3059       2.771852       0.00599
  46    0.1487        0.5340        0.0000        3.3059        3.3059       2.771835       0.00607
  45    0.1794        0.5340        0.0000        3.3058        3.3058       2.771812       0.00624
  44    0.2165        0.5340        0.0000        3.3058        3.3058       2.771785       0.00611
  43    0.2613        0.5340        0.0000        3.3058        3.3058       2.771754       0.00598
  42    0.3336        0.5340        0.0000        3.3057        3.3057       2.771701       0.00615
  41    0.4307        0.5340        0.0000        3.3057        3.3057       2.771630       0.00617
  40    0.5894        0.5340        0.0000        3.3055        3.3055       2.771511       0.00633
  39     1.339        0.5340        0.0000        3.3048        3.3048       2.770814       0.00785
  38     1.782        0.5340        0.0000        3.3043        3.3043       2.770285       0.01007
  37     2.292        0.5340        0.0000        3.3036        3.3036       2.769596       0.01140
  36     2.964        0.5340        0.0000        3.3026        3.3026       2.768613       0.01235
  35     3.853        0.5340        0.0000        3.3013        3.3013       2.767249       0.01294
  34     5.035        0.5340        0.0000        3.2994        3.2994       2.765423       0.01305
  33     6.613        0.5340        0.0000        3.2971        3.2971       2.763071       0.01257
  32     8.786        0.5340        0.0000        3.2942        3.2942       2.760195       0.01117
  31     11.80        0.5340        0.0000        3.2907        3.2907       2.756713       0.00975
  30     15.07        0.5340        0.0000        3.2877        3.2877       2.753649       0.00791
  29     18.79        0.5340        0.0000        3.2847        3.2847       2.750729       0.00662
  28     23.16        0.5340        0.0000        3.2816        3.2816       2.747624       0.00600
  27     28.12        0.5340        0.0000        3.2781        3.2781       2.744086       0.00601
  26     33.73        0.5340        0.0000        3.2737        3.2737       2.739673       0.00663
  25     40.54        0.5340        0.0000        3.2674        3.2674       2.733396       0.00779
  24     48.69        0.5340        0.0000        3.2586        3.2586       2.724569       0.00913
  23     57.69        0.5340        0.0000        3.2476        3.2476       2.713628       0.01026
  22     68.43        0.5340        0.0000        3.2336        3.2336       2.699567       0.01105
  21     81.20        0.5340        0.0000        3.2161        3.2162       2.682141       0.01152
  20     96.49        0.5340        0.0000        3.1955        3.1956       2.661514       0.01138
  19     114.6        0.5341        0.0000        3.1716        3.1717       2.637608       0.01116
  18     136.5        0.5341        0.0001        3.1459        3.1459       2.611812       0.00992
  17     162.9        0.5341        0.0001        3.1190        3.1190       2.584910       0.00860
  16     196.4        0.5342        0.0001        3.0892        3.0893       2.555110       0.00750
  15     218.7        0.5343        0.0001        3.0700        3.0701       2.535816       0.00733
  14     243.0        0.5345        0.0001        3.0462        3.0463       2.511857       0.00831
  13     269.0        0.5347        0.0001        3.0155        3.0156       2.480944       0.01003
  12     297.5        0.5351        0.0001        2.9744        2.9745       2.439434       0.01231
  11     328.5        0.5356        0.0001        2.9217        2.9218       2.386256       0.01446
  10     361.9        0.5363        0.0001        2.8543        2.8544       2.318161       0.01723
   9     398.1        0.5372        0.0001        2.7688        2.7690       2.231776       0.02013
   8     437.6        0.5384        0.0001        2.6634        2.6636       2.125111       0.02281
   7     480.5        0.5401        0.0002        2.5406        2.5408       2.000669       0.02444
   6     533.0        0.5428        0.0002        2.3863        2.3864       1.843663       0.02526
   5     589.8        0.5467        0.0002        2.2188        2.2190       1.672365       0.02543
   4     651.6        0.5527        0.0002        2.0303        2.0305       1.477744       0.02662
   3     718.7        0.5621        0.0002        1.8217        1.8219       1.259856       0.02738
   2     792.3        0.5771        0.0002        1.5904        1.5905       1.013438       0.02826
   1     891.5        0.6102        0.0002        1.2993        1.2995       0.689335       0.02758
   0    1013.0        0.6823        0.0002        1.0076        1.0077       0.325395       0.02527



 Wavenumbers:  3250. -  4000. cm-1, ATM      1
 LEVEL PRESSURE   UPWARD FLUX   DIFDOWN FLUX  DIRDOWN FLUX  DOWNWARD FLUX   NET FLUX    HEATING RATE
          mb          W/m2          W/m2          W/m2        W/m2          W/m2       degree/day
  51    .06700        0.0004        0.0000        5.5733        5.5733       5.572852       0.00000
  50    .07753        0.0004        0.0000        5.5692        5.5692       5.568729       3.30460
  49    .09103        0.0004        0.0000        5.5668        5.5668       5.566371       1.47419
  48    0.1069        0.0004        0.0000        5.5650        5.5650       5.564546       0.97132
  47    0.1255        0.0004        0.0000        5.5633        5.5633       5.562823       0.78103
  46    0.1487        0.0004        0.0000        5.5614        5.5614       5.560980       0.67189
  45    0.1794        0.0004        0.0000        5.5593        5.5593       5.558893       0.57308
  44    0.2165        0.0004        0.0000        5.5573        5.5573       5.556834       0.46828
  43    0.2613        0.0004        0.0000        5.5552        5.5552       5.554718       0.39884
  42    0.3336        0.0004        0.0000        5.5520        5.5520       5.551586       0.36515
  41    0.4307        0.0004        0.0000        5.5482        5.5482       5.547763       0.33241
  40    0.5894        0.0004        0.0000        5.5424        5.5424       5.541992       0.30690
  39     1.339        0.0004        0.0000        5.5224        5.5224       5.521964       0.22547
  38     1.782        0.0004        0.0000        5.5143        5.5143       5.513849       0.15451
  37     2.292        0.0004        0.0000        5.5064        5.5064       5.505933       0.13110
  36     2.964        0.0004        0.0000        5.4970        5.4970       5.496544       0.11786
  35     3.853        0.0004        0.0000        5.4851        5.4851       5.484653       0.11285
  34     5.035        0.0004        0.0000        5.4693        5.4694       5.468920       0.11239
  33     6.613        0.0004        0.0000        5.4480        5.4480       5.447592       0.11402
  32     8.786        0.0004        0.0000        5.4186        5.4186       5.418155       0.11432
  31     11.80        0.0004        0.0000        5.3757        5.3758       5.375333       0.11989
  30     15.07        0.0004        0.0000        5.3300        5.3300       5.329613       0.11804
  29     18.79        0.0004        0.0000        5.2802        5.2803       5.279837       0.11286
  28     23.16        0.0004        0.0000        5.2263        5.2263       5.225941       0.10422
  27     28.12        0.0004        0.0000        5.1709        5.1709       5.170541       0.09418
  26     33.73        0.0004        0.0000        5.1159        5.1159       5.115522       0.08272
  25     40.54        0.0004        0.0001        5.0557        5.0557       5.055344       0.07466
  24     48.69        0.0004        0.0001        4.9876        4.9877       4.987339       0.07037
  23     57.69        0.0004        0.0001        4.9149        4.9150       4.914617       0.06817
  22     68.43        0.0003        0.0001        4.8298        4.8299       4.829587       0.06684
  21     81.20        0.0003        0.0001        4.7321        4.7322       4.731832       0.06459
  20     96.49        0.0003        0.0001        4.6225        4.6226       4.622305       0.06045
  19     114.6        0.0003        0.0001        4.4980        4.4981       4.497814       0.05813
  18     136.5        0.0003        0.0002        4.3649        4.3651       4.364821       0.05114
  17     162.9        0.0002        0.0002        4.2130        4.2132       4.212939       0.04855
  16     196.4        0.0002        0.0002        4.0017        4.0019       4.001674       0.05318
  15     218.7        0.0002        0.0002        3.8131        3.8134       3.813190       0.07156
  14     243.0        0.0002        0.0002        3.5661        3.5663       3.566155       0.08568
  13     269.0        0.0001        0.0002        3.2435        3.2437       3.243604       0.10463
  12     297.5        0.0001        0.0002        2.8482        2.8484       2.848299       0.11724
  11     328.5        0.0001        0.0002        2.4608        2.4611       2.460975       0.10531
  10     361.9        0.0001        0.0002        2.1148        2.1150       2.114956       0.08755
   9     398.1        0.0001        0.0002        1.8066        1.8068       1.806780       0.07180
   8     437.6        0.0001        0.0002        1.5243        1.5245       1.524443       0.06037
   7     480.5        0.0000        0.0002        1.2678        1.2680       1.267986       0.05037
   6     533.0        0.0000        0.0002        0.9968        0.9969       0.996908       0.04361
   5     589.8        0.0000        0.0002        0.7354        0.7356       0.735555       0.03879
   4     651.6        0.0000        0.0001        0.4780        0.4781       0.478080       0.03521
   3     718.7        0.0000        0.0001        0.2663        0.2663       0.266330       0.02661
   2     792.3        0.0000        0.0001        0.1072        0.1072       0.107201       0.01825
   1     891.5        0.0000        0.0000        0.0140        0.0140       0.013978       0.00793
   0    1013.0        0.0002        0.0000        0.0002        0.0002       0.000074       0.00097



 Wavenumbers:  4000. -  4650. cm-1, ATM      1
 LEVEL PRESSURE   UPWARD FLUX   DIFDOWN FLUX  DIRDOWN FLUX  DOWNWARD FLUX   NET FLUX    HEATING RATE
          mb          W/m2          W/m2          W/m2        W/m2          W/m2       degree/day
  51    .06700        2.3806        0.0000        6.5447        6.5447       4.164088       0.00000
  50    .07753        2.3806        0.0000        6.5447        6.5447       4.164087       0.00080
  49    .09103        2.3806        0.0000        6.5447        6.5447       4.164086       0.00078
  48    0.1069        2.3806        0.0000        6.5447        6.5447       4.164085       0.00076
  47    0.1255        2.3806        0.0000        6.5447        6.5447       4.164083       0.00075
  46    0.1487        2.3806        0.0000        6.5447        6.5447       4.164081       0.00076
  45    0.1794        2.3806        0.0000        6.5447        6.5447       4.164078       0.00078
  44    0.2165        2.3806        0.0000        6.5447        6.5447       4.164075       0.00076
  43    0.2613        2.3806        0.0000        6.5447        6.5447       4.164071       0.00075
  42    0.3336        2.3806        0.0000        6.5447        6.5447       4.164064       0.00077
  41    0.4307        2.3806        0.0000        6.5447        6.5447       4.164055       0.00077
  40    0.5894        2.3806        0.0000        6.5447        6.5447       4.164040       0.00080
  39     1.339        2.3806        0.0000        6.5446        6.5446       4.163951       0.00101
  38     1.782        2.3806        0.0000        6.5445        6.5445       4.163881       0.00133
  37     2.292        2.3806        0.0000        6.5444        6.5444       4.163787       0.00156
  36     2.964        2.3806        0.0000        6.5443        6.5443       4.163647       0.00176
  35     3.853        2.3806        0.0000        6.5441        6.5441       4.163440       0.00197
  34     5.035        2.3806        0.0000        6.5437        6.5438       4.163134       0.00219
  33     6.613        2.3806        0.0000        6.5433        6.5433       4.162684       0.00241
  32     8.786        2.3806        0.0000        6.5426        6.5426       4.162021       0.00257
  31     11.80        2.3806        0.0000        6.5415        6.5416       4.160982       0.00291
  30     15.07        2.3806        0.0001        6.5403        6.5404       4.159767       0.00314
  29     18.79        2.3806        0.0001        6.5388        6.5389       4.158304       0.00332
  28     23.16        2.3806        0.0001        6.5370        6.5371       4.156495       0.00350
  27     28.12        2.3806        0.0001        6.5348        6.5349       4.154316       0.00370
  26     33.73        2.3806        0.0001        6.5321        6.5322       4.151645       0.00402
  25     40.54        2.3805        0.0002        6.5284        6.5286       4.148045       0.00447
  24     48.69        2.3805        0.0002        6.5236        6.5238       4.143284       0.00493
  23     57.69        2.3805        0.0002        6.5180        6.5182       4.137685       0.00525
  22     68.43        2.3805        0.0003        6.5110        6.5112       4.130734       0.00546
  21     81.20        2.3805        0.0003        6.5024        6.5028       4.122237       0.00561
  20     96.49        2.3805        0.0004        6.4921        6.4925       4.111984       0.00566
  19     114.6        2.3806        0.0005        6.4794        6.4798       4.099281       0.00593
  18     136.5        2.3806        0.0005        6.4641        6.4647       4.084083       0.00584
  17     162.9        2.3807        0.0007        6.4456        6.4463       4.065587       0.00591
  16     196.4        2.3809        0.0008        6.4204        6.4212       4.040287       0.00637
  15     218.7        2.3812        0.0009        6.4016        6.4025       4.021357       0.00719
  14     243.0        2.3815        0.0010        6.3776        6.3786       3.997055       0.00843
  13     269.0        2.3821        0.0011        6.3460        6.3471       3.964979       0.01041
  12     297.5        2.3831        0.0012        6.3040        6.3052       3.922135       0.01271
  11     328.5        2.3844        0.0013        6.2502        6.2515       3.867149       0.01495
  10     361.9        2.3861        0.0014        6.1825        6.1839       3.797782       0.01755
   9     398.1        2.3883        0.0015        6.0997        6.1012       3.712961       0.01976
   8     437.6        2.3909        0.0017        6.0020        6.0037       3.612735       0.02143
   7     480.5        2.3942        0.0018        5.8939        5.8957       3.501443       0.02186
   6     533.0        2.3991        0.0020        5.7575        5.7595       3.360391       0.02269
   5     589.8        2.4058        0.0021        5.5947        5.5968       3.191003       0.02514
   4     651.6        2.4159        0.0023        5.3746        5.3769       2.961083       0.03144
   3     718.7        2.4312        0.0025        5.0968        5.0993       2.668065       0.03682
   2     792.3        2.4561        0.0026        4.7767        4.7793       2.323195       0.03955
   1     891.5        2.5119        0.0027        4.3615        4.3642       1.852290       0.04007
   0    1013.0        2.6360        0.0028        3.8903        3.8931       1.257078       0.04133



 Wavenumbers:  4650. -  5150. cm-1, ATM      1
 LEVEL PRESSURE   UPWARD FLUX   DIFDOWN FLUX  DIRDOWN FLUX  DOWNWARD FLUX   NET FLUX    HEATING RATE
          mb          W/m2          W/m2          W/m2        W/m2          W/m2       degree/day
  51    .06700        1.6341        0.0000        6.1949        6.1949       4.560796       0.00000
  50    .07753        1.6341        0.0000        6.1947        6.1947       4.560561       0.18873
  49    .09103        1.6341        0.0000        6.1944        6.1944       4.560267       0.18339
  48    0.1069        1.6341        0.0000        6.1940        6.1940       4.559933       0.17774
  47    0.1255        1.6341        0.0000        6.1936        6.1937       4.559554       0.17196
  46    0.1487        1.6341        0.0000        6.1932        6.1932       4.559082       0.17212
  45    0.1794        1.6341        0.0000        6.1925        6.1925       4.558448       0.17399
  44    0.2165        1.6341        0.0000        6.1918        6.1918       4.557714       0.16695
  43    0.2613        1.6341        0.0000        6.1910        6.1910       4.556867       0.15966
  42    0.3336        1.6341        0.0000        6.1896        6.1896       4.555516       0.15750
  41    0.4307        1.6341        0.0000        6.1879        6.1879       4.553818       0.14767
  40    0.5894        1.6341        0.0000        6.1853        6.1853       4.551239       0.13714
  39     1.339        1.6341        0.0000        6.1758        6.1758       4.541742       0.10692
  38     1.782        1.6341        0.0000        6.1718        6.1718       4.537711       0.07674
  37     2.292        1.6341        0.0000        6.1681        6.1681       4.534029       0.06099
  36     2.964        1.6341        0.0000        6.1644        6.1644       4.530313       0.04664
  35     3.853        1.6341        0.0000        6.1607        6.1607       4.526617       0.03508
  34     5.035        1.6341        0.0000        6.1569        6.1569       4.522832       0.02703
  33     6.613        1.6341        0.0000        6.1526        6.1527       4.518599       0.02263
  32     8.786        1.6341        0.0001        6.1472        6.1473       4.513202       0.02096
  31     11.80        1.6340        0.0001        6.1392        6.1392       4.505187       0.02244
  30     15.07        1.6340        0.0001        6.1298        6.1299       4.495874       0.02404
  29     18.79        1.6340        0.0001        6.1184        6.1185       4.484437       0.02593
  28     23.16        1.6340        0.0001        6.1038        6.1040       4.469969       0.02798
  27     28.12        1.6340        0.0002        6.0860        6.0862       4.452188       0.03023
  26     33.73        1.6340        0.0002        6.0649        6.0651       4.431071       0.03175
  25     40.54        1.6340        0.0002        6.0382        6.0385       4.404456       0.03302
  24     48.69        1.6340        0.0003        6.0052        6.0055       4.371519       0.03408
  23     57.69        1.6340        0.0003        5.9691        5.9694       4.335434       0.03382
  22     68.43        1.6340        0.0004        5.9272        5.9276       4.293597       0.03289
  21     81.20        1.6341        0.0005        5.8803        5.8808       4.246673       0.03101
  20     96.49        1.6341        0.0006        5.8293        5.8299       4.195758       0.02810
  19     114.6        1.6343        0.0007        5.7756        5.7763       4.142017       0.02509
  18     136.5        1.6344        0.0008        5.7196        5.7204       4.086000       0.02154
  17     162.9        1.6347        0.0009        5.6599        5.6608       4.026105       0.01914
  16     196.4        1.6351        0.0011        5.5870        5.5881       3.953035       0.01839
  15     218.7        1.6354        0.0012        5.5386        5.5398       3.904349       0.01848
  14     243.0        1.6359        0.0013        5.4830        5.4843       3.848391       0.01941
  13     269.0        1.6366        0.0015        5.4172        5.4186       3.782026       0.02153
  12     297.5        1.6377        0.0016        5.3370        5.3386       3.700936       0.02405
  11     328.5        1.6391        0.0018        5.2431        5.2449       3.605807       0.02587
  10     361.9        1.6409        0.0019        5.1344        5.1363       3.495437       0.02792
   9     398.1        1.6433        0.0021        5.0093        5.0114       3.368122       0.02966
   8     437.6        1.6464        0.0022        4.8672        4.8694       3.222996       0.03103
   7     480.5        1.6505        0.0024        4.7087        4.7111       3.060561       0.03190
   6     533.0        1.6567        0.0026        4.5092        4.5118       2.855127       0.03305
   5     589.8        1.6652        0.0028        4.2922        4.2950       2.629814       0.03344
   4     651.6        1.6775        0.0029        4.0523        4.0552       2.377670       0.03448
   3     718.7        1.6955        0.0031        3.7955        3.7985       2.103027       0.03452
   2     792.3        1.7224        0.0032        3.5215        3.5246       1.802268       0.03449
   1     891.5        1.7768        0.0033        3.1598        3.1631       1.386358       0.03539
   0    1013.0        1.8804        0.0034        2.7738        2.7772       0.896761       0.03400



 Wavenumbers:  5150. -  6150. cm-1, ATM      1
 LEVEL PRESSURE   UPWARD FLUX   DIFDOWN FLUX  DIRDOWN FLUX  DOWNWARD FLUX   NET FLUX    HEATING RATE
          mb          W/m2          W/m2          W/m2        W/m2          W/m2       degree/day
  51    .06700        4.4367        0.0000       15.5306       15.5306      11.093901       0.00000
  50    .07753        4.4367        0.0000       15.5306       15.5306      11.093861       0.03157
  49    .09103        4.4367        0.0000       15.5305       15.5305      11.093810       0.03205
  48    0.1069        4.4367        0.0000       15.5305       15.5305      11.093749       0.03256
  47    0.1255        4.4367        0.0000       15.5304       15.5304      11.093676       0.03305
  46    0.1487        4.4367        0.0000       15.5303       15.5303      11.093580       0.03482
  45    0.1794        4.4367        0.0000       15.5302       15.5302      11.093445       0.03705
  44    0.2165        4.4367        0.0000       15.5300       15.5300      11.093280       0.03760
  43    0.2613        4.4367        0.0000       15.5298       15.5298      11.093078       0.03816
  42    0.3336        4.4367        0.0000       15.5294       15.5294      11.092732       0.04029
  41    0.4307        4.4367        0.0000       15.5290       15.5290      11.092263       0.04079
  40    0.5894        4.4367        0.0000       15.5282       15.5282      11.091478       0.04173
  39     1.339        4.4367        0.0000       15.5244       15.5244      11.087719       0.04232
  38     1.782        4.4367        0.0000       15.5222       15.5222      11.085547       0.04136
  37     2.292        4.4367        0.0001       15.5197       15.5198      11.083103       0.04048
  36     2.964        4.4367        0.0001       15.5166       15.5167      11.080019       0.03871
  35     3.853        4.4367        0.0001       15.5127       15.5128      11.076135       0.03686
  34     5.035        4.4366        0.0001       15.5077       15.5078      11.071190       0.03533
  33     6.613        4.4366        0.0002       15.5013       15.5015      11.064870       0.03379
  32     8.786        4.4366        0.0002       15.4932       15.4934      11.056837       0.03120
  31     11.80        4.4365        0.0003       15.4824       15.4828      11.046231       0.02969
  30     15.07        4.4365        0.0004       15.4720       15.4724      11.035921       0.02662
  29     18.79        4.4365        0.0005       15.4614       15.4619      11.025475       0.02369
  28     23.16        4.4364        0.0006       15.4503       15.4509      11.014539       0.02115
  27     28.12        4.4364        0.0008       15.4390       15.4398      11.003416       0.01891
  26     33.73        4.4363        0.0009       15.4278       15.4288      10.992463       0.01647
  25     40.54        4.4362        0.0011       15.4160       15.4171      10.980863       0.01439
  24     48.69        4.4362        0.0013       15.4036       15.4050      10.968780       0.01250
  23     57.69        4.4362        0.0016       15.3916       15.3932      10.957030       0.01101
  22     68.43        4.4361        0.0019       15.3787       15.3806      10.944468       0.00988
  21     81.20        4.4361        0.0022       15.3646       15.3669      10.930765       0.00905
  20     96.49        4.4361        0.0027       15.3488       15.3514      10.915364       0.00850
  19     114.6        4.4360        0.0031       15.3304       15.3336      10.897570       0.00831
  18     136.5        4.4360        0.0037       15.3087       15.3124      10.876416       0.00813
  17     162.9        4.4360        0.0044       15.2759       15.2804      10.844377       0.01024
  16     196.4        4.4360        0.0053       15.2025       15.2078      10.771776       0.01827
  15     218.7        4.4361        0.0059       15.0781       15.0840      10.647932       0.04702
  14     243.0        4.4362        0.0065       14.8131       14.8196      10.383423       0.09174
  13     269.0        4.4363        0.0071       14.3968       14.4038       9.967499       0.13492
  12     297.5        4.4367        0.0076       13.9050       13.9126       9.475944       0.14579
  11     328.5        4.4371        0.0082       13.3705       13.3787       8.941544       0.14530
  10     361.9        4.4378        0.0087       12.7670       12.7757       8.337958       0.15271
   9     398.1        4.4387        0.0092       12.1256       12.1349       7.696185       0.14952
   8     437.6        4.4400        0.0097       11.4597       11.4694       7.029419       0.14256
   7     480.5        4.4417        0.0102       10.8084       10.8185       6.376859       0.12816
   6     533.0        4.4445        0.0107       10.1222       10.1329       5.688442       0.11074
   5     589.8        4.4487        0.0112        9.5165        9.5277       5.078999       0.09046
   4     651.6        4.4560        0.0117        8.9810        8.9927       4.536690       0.07416
   3     718.7        4.4682        0.0123        8.5284        8.5408       4.072549       0.05833
   2     792.3        4.4896        0.0130        8.0678        8.0808       3.591202       0.05521
   1     891.5        4.5400        0.0138        7.4441        7.4578       2.917796       0.05730
   0    1013.0        4.6600        0.0146        6.8677        6.8823       2.222298       0.04829



 Wavenumbers:  6150. -  7700. cm-1, ATM      1
 LEVEL PRESSURE   UPWARD FLUX   DIFDOWN FLUX  DIRDOWN FLUX  DOWNWARD FLUX   NET FLUX    HEATING RATE
          mb          W/m2          W/m2          W/m2        W/m2          W/m2       degree/day
  51    .06700        6.3810        0.0000       28.7245       28.7245      22.343443       0.00000
  50    .07753        6.3810        0.0000       28.7244       28.7244      22.343387       0.04553
  49    .09103        6.3810        0.0000       28.7243       28.7243      22.343313       0.04582
  48    0.1069        6.3810        0.0000       28.7243       28.7243      22.343227       0.04613
  47    0.1255        6.3810        0.0000       28.7241       28.7242      22.343124       0.04643
  46    0.1487        6.3810        0.0000       28.7240       28.7240      22.342991       0.04850
  45    0.1794        6.3810        0.0000       28.7238       28.7238      22.342805       0.05123
  44    0.2165        6.3810        0.0000       28.7236       28.7236      22.342578       0.05163
  43    0.2613        6.3810        0.0000       28.7233       28.7233      22.342302       0.05204
  42    0.3336        6.3810        0.0000       28.7228       28.7228      22.341833       0.05462
  41    0.4307        6.3810        0.0000       28.7222       28.7222      22.341199       0.05509
  40    0.5894        6.3810        0.0001       28.7211       28.7211      22.340143       0.05616
  39     1.339        6.3809        0.0001       28.7159       28.7160      22.335084       0.05696
  38     1.782        6.3809        0.0002       28.7128       28.7130      22.332146       0.05594
  37     2.292        6.3808        0.0003       28.7094       28.7096      22.328818       0.05512
  36     2.964        6.3808        0.0003       28.7050       28.7053      22.324579       0.05321
  35     3.853        6.3807        0.0004       28.6994       28.6999      22.319176       0.05128
  34     5.035        6.3806        0.0006       28.6922       28.6928      22.312215       0.04973
  33     6.613        6.3804        0.0008       28.6829       28.6836      22.303198       0.04820
  32     8.786        6.3802        0.0010       28.6707       28.6717      22.291526       0.04533
  31     11.80        6.3799        0.0013       28.6543       28.6557      22.275745       0.04418
  30     15.07        6.3796        0.0017       28.6378       28.6395      22.259906       0.04089
  29     18.79        6.3793        0.0021       28.6204       28.6225      22.243253       0.03776
  28     23.16        6.3789        0.0026       28.6015       28.6042      22.225306       0.03470
  27     28.12        6.3784        0.0032       28.5815       28.5847      22.206352       0.03222
  26     33.73        6.3779        0.0038       28.5611       28.5649      22.187059       0.02901
  25     40.54        6.3772        0.0046       28.5385       28.5432      22.165929       0.02622
  24     48.69        6.3765        0.0055       28.5142       28.5197      22.143264       0.02345
  23     57.69        6.3756        0.0066       28.4898       28.4964      22.120747       0.02111
  22     68.43        6.3746        0.0078       28.4631       28.4709      22.096267       0.01924
  21     81.20        6.3734        0.0092       28.4335       28.4428      22.069345       0.01779
  20     96.49        6.3720        0.0109       28.4002       28.4111      22.039120       0.01668
  19     114.6        6.3703        0.0130       28.3617       28.3747      22.004372       0.01622
  18     136.5        6.3683        0.0154       28.3166       28.3320      21.963740       0.01562
  17     162.9        6.3659        0.0183       28.2525       28.2708      21.904870       0.01882
  16     196.4        6.3628        0.0220       28.1253       28.1474      21.784543       0.03029
  15     218.7        6.3609        0.0244       27.9506       27.9750      21.614194       0.06468
  14     243.0        6.3588        0.0269       27.5978       27.6248      21.265973       0.12077
  13     269.0        6.3567        0.0294       26.9675       26.9969      20.640222       0.20299
  12     297.5        6.3547        0.0318       26.1055       26.1372      19.782537       0.25438
  11     328.5        6.3529        0.0342       25.1987       25.2329      18.880037       0.24539
  10     361.9        6.3513        0.0365       24.1941       24.2306      17.879350       0.25318
   9     398.1        6.3501        0.0388       23.0566       23.0954      16.745248       0.26422
   8     437.6        6.3498        0.0409       21.8173       21.8582      15.508435       0.26444
   7     480.5        6.3505        0.0427       20.5480       20.5908      14.240290       0.24906
   6     533.0        6.3534        0.0447       19.0917       19.1364      12.782958       0.23444
   5     589.8        6.3604        0.0464       17.6406       17.6869      11.326536       0.21618
   4     651.6        6.3757        0.0476       16.1312       16.1789       9.803120       0.20833
   3     718.7        6.4051        0.0486       14.6717       14.7203       8.315203       0.18699
   2     792.3        6.4604        0.0493       13.2677       13.3170       6.856577       0.16729
   1     891.5        6.5976        0.0500       11.6659       11.7159       5.118304       0.14792
   0    1013.0        6.9278        0.0508       10.1809       10.2316       3.303795       0.12599



 Wavenumbers:  7700. -  8050. cm-1, ATM      1
 LEVEL PRESSURE   UPWARD FLUX   DIFDOWN FLUX  DIRDOWN FLUX  DOWNWARD FLUX   NET FLUX    HEATING RATE
          mb          W/m2          W/m2          W/m2        W/m2          W/m2       degree/day
  51    .06700        3.3978        0.0000        6.7884        6.7884       3.390619       0.00000
  50    .07753        3.3978        0.0000        6.7884        6.7884       3.390599       0.01593
  49    .09103        3.3978        0.0000        6.7884        6.7884       3.390574       0.01561
  48    0.1069        3.3978        0.0000        6.7884        6.7884       3.390545       0.01528
  47    0.1255        3.3978        0.0000        6.7883        6.7884       3.390512       0.01496
  46    0.1487        3.3978        0.0000        6.7883        6.7883       3.390471       0.01518
  45    0.1794        3.3978        0.0000        6.7883        6.7883       3.390414       0.01562
  44    0.2165        3.3979        0.0000        6.7882        6.7882       3.390346       0.01532
  43    0.2613        3.3979        0.0000        6.7881        6.7881       3.390267       0.01503
  42    0.3336        3.3979        0.0000        6.7880        6.7880       3.390135       0.01538
  41    0.4307        3.3979        0.0000        6.7878        6.7878       3.389960       0.01521
  40    0.5894        3.3979        0.0000        6.7876        6.7876       3.389674       0.01519
  39     1.339        3.3980        0.0001        6.7863        6.7864       3.388323       0.01521
  38     1.782        3.3981        0.0001        6.7856        6.7856       3.387530       0.01511
  37     2.292        3.3982        0.0001        6.7847        6.7848       3.386611       0.01521
  36     2.964        3.3983        0.0001        6.7836        6.7837       3.385406       0.01513
  35     3.853        3.3984        0.0002        6.7821        6.7823       3.383815       0.01510
  34     5.035        3.3986        0.0002        6.7801        6.7803       3.381703       0.01509
  33     6.613        3.3989        0.0003        6.7775        6.7778       3.378885       0.01507
  32     8.786        3.3992        0.0004        6.7739        6.7743       3.375092       0.01473
  31     11.80        3.3997        0.0006        6.7688        6.7694       3.369679       0.01516
  30     15.07        3.4003        0.0007        6.7634        6.7642       3.363883       0.01496
  29     18.79        3.4009        0.0009        6.7573        6.7582       3.357357       0.01480
  28     23.16        3.4016        0.0011        6.7502        6.7514       3.349763       0.01468
  27     28.12        3.4024        0.0014        6.7422        6.7435       3.341116       0.01470
  26     33.73        3.4033        0.0016        6.7332        6.7348       3.331490       0.01447
  25     40.54        3.4045        0.0020        6.7224        6.7244       3.319928       0.01434
  24     48.69        3.4058        0.0024        6.7095        6.7119       3.306091       0.01432
  23     57.69        3.4073        0.0028        6.6955        6.6983       3.291018       0.01413
  22     68.43        3.4091        0.0033        6.6790        6.6823       3.273238       0.01398
  21     81.20        3.4112        0.0039        6.6596        6.6635       3.252293       0.01384
  20     96.49        3.4138        0.0046        6.6368        6.6415       3.227667       0.01359
  19     114.6        3.4169        0.0055        6.6103        6.6158       3.198877       0.01344
  18     136.5        3.4207        0.0065        6.5795        6.5860       3.165358       0.01289
  17     162.9        3.4252        0.0077        6.5436        6.5514       3.126210       0.01251
  16     196.4        3.4311        0.0093        6.4985        6.5078       3.076706       0.01246
  15     218.7        3.4351        0.0103        6.4696        6.4799       3.044834       0.01210
  14     243.0        3.4395        0.0114        6.4387        6.4502       3.010699       0.01184
  13     269.0        3.4443        0.0126        6.4059        6.4185       2.974212       0.01184
  12     297.5        3.4497        0.0139        6.3710        6.3849       2.935231       0.01156
  11     328.5        3.4556        0.0153        6.3338        6.3491       2.893549       0.01133
  10     361.9        3.4622        0.0168        6.2944        6.3112       2.848977       0.01128
   9     398.1        3.4695        0.0184        6.2523        6.2707       2.801169       0.01114
   8     437.6        3.4778        0.0201        6.2073        6.2275       2.749652       0.01101
   7     480.5        3.4871        0.0220        6.1592        6.1812       2.694065       0.01092
   6     533.0        3.4993        0.0242        6.0997        6.1239       2.624582       0.01118
   5     589.8        3.5135        0.0266        6.0342        6.0607       2.547218       0.01148
   4     651.6        3.5307        0.0292        5.9603        5.9895       2.458771       0.01210
   3     718.7        3.5517        0.0319        5.8756        5.9075       2.355729       0.01295
   2     792.3        3.5784        0.0347        5.7759        5.8106       2.232121       0.01418
   1     891.5        3.6232        0.0384        5.6232        5.6616       2.038472       0.01648
   0    1013.0        3.6929        0.0427        5.4114        5.4540       1.761107       0.01926



 Wavenumbers:  8050. - 12850. cm-1, ATM      1
 LEVEL PRESSURE   UPWARD FLUX   DIFDOWN FLUX  DIRDOWN FLUX  DOWNWARD FLUX   NET FLUX    HEATING RATE
          mb          W/m2          W/m2          W/m2        W/m2          W/m2       degree/day
  51    .06700       42.5473        0.0000       95.0433       95.0433      52.495949       0.00000
  50    .07753       42.5473        0.0000       95.0433       95.0433      52.495949       0.00000
  49    .09103       42.5473        0.0001       95.0432       95.0433      52.495949      -0.00000
  48    0.1069       42.5473        0.0001       95.0431       95.0432      52.495949       0.00000
  47    0.1255       42.5473        0.0001       95.0431       95.0432      52.495949      -0.00000
  46    0.1487       42.5472        0.0002       95.0430       95.0432      52.495949       0.00000
  45    0.1794       42.5472        0.0003       95.0428       95.0431      52.495949      -0.00000
  44    0.2165       42.5471        0.0004       95.0427       95.0431      52.495949       0.00000
  43    0.2613       42.5470        0.0005       95.0425       95.0430      52.495949       0.00000
  42    0.3336       42.5469        0.0006       95.0422       95.0429      52.495949       0.00000
  41    0.4307       42.5468        0.0009       95.0419       95.0427      52.495949      -0.00000
  40    0.5894       42.5465        0.0012       95.0412       95.0425      52.495949       0.00000
  39     1.339       42.5453        0.0030       95.0383       95.0413      52.495949      -0.00000
  38     1.782       42.5446        0.0041       95.0365       95.0406      52.495949       0.00000
  37     2.292       42.5438        0.0053       95.0345       95.0398      52.495949       0.00000
  36     2.964       42.5428        0.0068       95.0319       95.0387      52.495949      -0.00000
  35     3.853       42.5414        0.0089       95.0284       95.0373      52.495949       0.00000
  34     5.035       42.5395        0.0117       95.0238       95.0355      52.495949       0.00000
  33     6.613       42.5371        0.0155       95.0176       95.0330      52.495949       0.00000
  32     8.786       42.5337        0.0205       95.0092       95.0297      52.495949      -0.00000
  31     11.80       42.5289        0.0277       94.9972       95.0249      52.495949       0.00000
  30     15.07       42.5238        0.0354       94.9843       95.0197      52.495949      -0.00000
  29     18.79       42.5180        0.0441       94.9698       95.0139      52.495949       0.00000
  28     23.16       42.5111        0.0543       94.9528       95.0071      52.495949      -0.00000
  27     28.12       42.5034        0.0660       94.9333       94.9993      52.495949      -0.00000
  26     33.73       42.4946        0.0791       94.9114       94.9906      52.495949      -0.00000
  25     40.54       42.4841        0.0950       94.8850       94.9800      52.495949       0.00000
  24     48.69       42.4713        0.1141       94.8531       94.9673      52.495949       0.00000
  23     57.69       42.4573        0.1351       94.8181       94.9532      52.495949      -0.00000
  22     68.43       42.4405        0.1602       94.7763       94.9365      52.495949       0.00000
  21     81.20       42.4206        0.1902       94.7263       94.9165      52.495949      -0.00000
  20     96.49       42.3967        0.2259       94.6668       94.8927      52.495949       0.00000
  19     114.6       42.3685        0.2684       94.5899       94.8583      52.489856       0.00284
  18     136.5       42.3349        0.3188       94.4984       94.8172      52.482314       0.00290
  17     162.9       42.2948        0.3790       94.3856       94.7646      52.469819       0.00399
  16     196.4       42.2428        0.4572       94.2236       94.6807      52.437956       0.00802
  15     218.7       42.2086        0.5085       94.0795       94.5880      52.379425       0.02222
  14     243.0       42.1716        0.5643       93.8538       94.4181      52.246485       0.04611
  13     269.0       42.1320        0.6245       93.5070       94.1315      51.999498       0.08012
  12     297.5       42.0900        0.6892       93.0333       93.7225      51.632492       0.10885
  11     328.5       42.0457        0.7588       92.4711       93.2299      51.184159       0.12190
  10     361.9       41.9997        0.8333       91.7795       92.6128      50.613080       0.14449
   9     398.1       41.9527        0.9127       90.9110       91.8236      49.870948       0.17290
   8     437.6       41.9061        0.9966       89.8233       90.8200      48.913830       0.20464
   7     480.5       41.8618        1.0850       88.5079       89.5929      47.731073       0.23229
   6     533.0       41.8177        1.1910       86.6887       87.8798      46.062072       0.26849
   5     589.8       41.7889        1.3011       84.4687       85.7698      43.980900       0.30891
   4     651.6       41.7965        1.4125       81.6686       83.0811      41.284575       0.36873
   3     718.7       41.8669        1.5239       78.3644       79.8883      38.021412       0.41009
   2     792.3       42.0571        1.6322       74.4529       76.0850      34.027910       0.45801
   1     891.5       42.6056        1.7596       69.0034       70.7630      28.157480       0.49955
   0    1013.0       43.9547        1.8919       63.0242       64.9161      20.961402       0.49966



 Wavenumbers: 12850. - 16000. cm-1, ATM      1
 LEVEL PRESSURE   UPWARD FLUX   DIFDOWN FLUX  DIRDOWN FLUX  DOWNWARD FLUX   NET FLUX    HEATING RATE
          mb          W/m2          W/m2          W/m2        W/m2          W/m2       degree/day
  51    .06700       40.8311        0.0000       59.5530       59.5530      18.721889       0.00000
  50    .07753       40.8311        0.0001       59.5522       59.5522      18.721109       0.62540
  49    .09103       40.8311        0.0001       59.5511       59.5512      18.720137       0.60734
  48    0.1069       40.8311        0.0002       59.5499       59.5501      18.719032       0.58845
  47    0.1255       40.8310        0.0003       59.5485       59.5488      18.717776       0.56947
  46    0.1487       40.8310        0.0004       59.5468       59.5472      18.716211       0.57045
  45    0.1794       40.8309        0.0006       59.5445       59.5451      18.714115       0.57530
  44    0.2165       40.8309        0.0008       59.5418       59.5426      18.711696       0.55037
  43    0.2613       40.8309        0.0010       59.5387       59.5398      18.708906       0.52581
  42    0.3336       40.8308        0.0014       59.5339       59.5353      18.704480       0.51609
  41    0.4307       40.8308        0.0019       59.5278       59.5298      18.698951       0.48070
  40    0.5894       40.8309        0.0028       59.5187       59.5215      18.690608       0.44365
  39     1.339       40.8326        0.0068       59.4814       59.4881      18.655494       0.39533
  38     1.782       40.8347        0.0091       59.4602       59.4693      18.634567       0.39842
  37     2.292       40.8382        0.0118       59.4341       59.4460      18.607777       0.44371
  36     2.964       40.8442        0.0154       59.3962       59.4116      18.567388       0.50700
  35     3.853       40.8543        0.0201       59.3401       59.3602      18.505851       0.58400
  34     5.035       40.8699        0.0263       59.2595       59.2858      18.415896       0.64260
  33     6.613       40.8917        0.0346       59.1492       59.1838      18.292060       0.66203
  32     8.786       40.9201        0.0458       59.0057       59.0514      18.131356       0.62412
  31     11.80       40.9564        0.0617       58.8162       58.8779      17.921512       0.58750
  30     15.07       40.9906        0.0788       58.6311       58.7099      17.719284       0.52211
  29     18.79       41.0248        0.0980       58.4386       58.5366      17.511818       0.47039
  28     23.16       41.0597        0.1205       58.2327       58.3532      17.293514       0.42213
  27     28.12       41.0937        0.1460       58.0194       58.1654      17.071708       0.37705
  26     33.73       41.1233        0.1746       57.8107       57.9853      16.861967       0.31535
  25     40.54       41.1494        0.2091       57.5931       57.8022      16.652770       0.25953
  24     48.69       41.1713        0.2505       57.3648       57.6154      16.444076       0.21597
  23     57.69       41.1862        0.2960       57.1468       57.4428      16.256609       0.17572
  22     68.43       41.1940        0.3502       56.9214       57.2715      16.077554       0.14076
  21     81.20       41.1896        0.4146       56.6972       57.1118      15.922147       0.10269
  20     96.49       41.1719        0.4914       56.4696       56.9610      15.789099       0.07343
  19     114.6       41.1525        0.5831       56.2149       56.7981      15.645619       0.06699
  18     136.5       41.1235        0.6917       55.9249       56.6166      15.493028       0.05867
  17     162.9       41.0837        0.8206       55.5888       56.4094      15.325742       0.05347
  16     196.4       41.0205        0.9873       55.1763       56.1636      15.143082       0.04598
  15     218.7       40.9749        1.0966       54.9137       56.0102      15.035343       0.04090
  14     243.0       40.9235        1.2150       54.6314       55.8465      14.922984       0.03897
  13     269.0       40.8661        1.3431       54.3287       55.6718      14.805737       0.03803
  12     297.5       40.8026        1.4812       54.0028       55.4840      14.681389       0.03688
  11     328.5       40.7339        1.6301       53.6502       55.2803      14.546425       0.03670
  10     361.9       40.6600        1.7899       53.2685       55.0584      14.398429       0.03744
   9     398.1       40.5812        1.9614       52.8533       54.8147      14.233483       0.03843
   8     437.6       40.4984        2.1449       52.3974       54.5423      14.043887       0.04054
   7     480.5       40.4125        2.3408       51.8959       54.2367      13.824164       0.04315
   6     533.0       40.3124        2.5805       51.2563       53.8368      13.524354       0.04823
   5     589.8       40.2153        2.8369       50.5288       53.3656      13.150314       0.05552
   4     651.6       40.1331        3.1093       49.6722       52.7815      12.648374       0.06864
   3     718.7       40.0735        3.3959       48.6904       52.0864      12.012901       0.07986
   2     792.3       40.0616        3.6933       47.5452       51.2385      11.176920       0.09588
   1     891.5       40.1656        4.0759       45.8534       49.9293       9.763697       0.12026
   0    1013.0       40.5145        4.5073       43.6955       48.2028       7.688348       0.14410



 Wavenumbers: 16000. - 22650. cm-1, ATM      1
 LEVEL PRESSURE   UPWARD FLUX   DIFDOWN FLUX  DIRDOWN FLUX  DOWNWARD FLUX   NET FLUX    HEATING RATE
          mb          W/m2          W/m2          W/m2        W/m2          W/m2       degree/day
  51    .06700       82.4702        0.0000       94.9507       94.9507      12.480498       0.00000
  50    .07753       82.4701        0.0003       94.9501       94.9505      12.480378       0.09628
  49    .09103       82.4700        0.0008       94.9494       94.9502      12.480203       0.10920
  48    0.1069       82.4698        0.0012       94.9485       94.9498      12.479969       0.12452
  47    0.1255       82.4696        0.0018       94.9475       94.9493      12.479656       0.14194
  46    0.1487       82.4695        0.0025       94.9462       94.9487      12.479195       0.16819
  45    0.1794       82.4692        0.0034       94.9443       94.9477      12.478473       0.19803
  44    0.2165       82.4690        0.0046       94.9420       94.9465      12.477495       0.22256
  43    0.2613       82.4688        0.0059       94.9391       94.9450      12.476167       0.25021
  42    0.3336       82.4686        0.0081       94.9341       94.9422      12.473644       0.29424
  41    0.4307       82.4684        0.0111       94.9272       94.9382      12.469840       0.33075
  40    0.5894       82.4684        0.0159       94.9151       94.9310      12.462585       0.38579
  39     1.339       82.4745        0.0386       94.8449       94.8835      12.408999       0.60328
  38     1.782       82.4824        0.0519       94.7939       94.8458      12.363364       0.86881
  37     2.292       82.4957        0.0673       94.7257       94.7930      12.297329       1.09371
  36     2.964       82.5194        0.0876       94.6222       94.7098      12.190405       1.34223
  35     3.853       82.5595        0.1143       94.4661       94.5804      12.020869       1.60892
  34     5.035       82.6215        0.1497       94.2400       94.3897      11.768222       1.80481
  33     6.613       82.7088        0.1969       93.9296       94.1265      11.417678       1.87401
  32     8.786       82.8220        0.2603       93.5242       93.7845      10.962516       1.76768
  31     11.80       82.9669        0.3508       92.9864       93.3372      10.370315       1.65798
  30     15.07       83.1027        0.4476       92.4575       92.9051       9.802429       1.46617
  29     18.79       83.2382        0.5565       91.9039       92.4605       9.222240       1.31547
  28     23.16       83.3760        0.6833       91.3074       91.9907       8.614641       1.17490
  27     28.12       83.5097        0.8277       90.6826       91.5103       8.000587       1.04385
  26     33.73       83.6248        0.9887       90.0619       91.0506       7.425826       0.86417
  25     40.54       83.7241        1.1826       89.4012       90.5838       6.859751       0.70228
  24     48.69       83.8052        1.4154       88.6912       90.1066       6.301375       0.57783
  23     57.69       83.8572        1.6700       87.9939       89.6639       5.806727       0.46366
  22     68.43       83.8791        1.9719       87.2512       89.2232       5.344049       0.36373
  21     81.20       83.8505        2.3302       86.4830       88.8132       4.962678       0.25200
  20     96.49       83.7660        2.7551       85.6753       88.4304       4.664449       0.16460
  19     114.6       83.6409        3.2560       84.7768       88.0327       4.391807       0.12730
  18     136.5       83.4768        3.8446       83.7568       87.6014       4.124643       0.10273
  17     162.9       83.2676        4.5384       82.5874       87.1258       3.858199       0.08517
  16     196.4       82.9655        5.4274       81.1579       86.5853       3.619793       0.06001
  15     218.7       82.7567        6.0048       80.2548       86.2596       3.502876       0.04439
  14     243.0       82.5261        6.6266       79.2942       85.9207       3.394678       0.03753
  13     269.0       82.2724        7.2937       78.2757       85.5694       3.296985       0.03169
  12     297.5       81.9953        8.0070       77.1984       85.2054       3.210024       0.02579
  11     328.5       81.6964        8.7688       76.0534       84.8222       3.125765       0.02291
  10     361.9       81.3758        9.5788       74.8413       84.4201       3.044317       0.02061
   9     398.1       81.0327       10.4389       73.5588       83.9977       2.965026       0.01847
   8     437.6       80.6678       11.3495       72.2039       83.5534       2.885593       0.01698
   7     480.5       80.2808       12.3106       70.7761       83.0867       2.805861       0.01566
   6     533.0       79.8116       13.4731       69.0501       82.5232       2.711563       0.01517
   5     589.8       79.3163       14.7011       67.2233       81.9245       2.608197       0.01534
   4     651.6       78.7986       15.9931       65.2904       81.2835       2.484842       0.01687
   3     718.7       78.2624       17.3470       63.2479       80.5949       2.332491       0.01915
   2     792.3       77.7173       18.7577       61.0882       79.8460       2.128727       0.02337
   1     891.5       77.0415       20.5970       58.2063       78.8033       1.761772       0.03123
   0    1013.0       76.3248       22.7076       54.8188       77.5265       1.201660       0.03889



 Wavenumbers: 22650. - 29000. cm-1, ATM      1
 LEVEL PRESSURE   UPWARD FLUX   DIFDOWN FLUX  DIRDOWN FLUX  DOWNWARD FLUX   NET FLUX    HEATING RATE
          mb          W/m2          W/m2          W/m2        W/m2          W/m2       degree/day
  51    .06700       35.3970        0.0000       35.8309       35.8309       0.433900       0.00000
  50    .07753       35.3969        0.0004       35.8304       35.8308       0.433900       0.00000
  49    .09103       35.3967        0.0009       35.8297       35.8306       0.433900       0.00000
  48    0.1069       35.3964        0.0014       35.8289       35.8303       0.433900       0.00000
  47    0.1255       35.3962        0.0021       35.8280       35.8301       0.433900       0.00000
  46    0.1487       35.3958        0.0029       35.8268       35.8297       0.433900      -0.00000
  45    0.1794       35.3954        0.0040       35.8252       35.8293       0.433900       0.00000
  44    0.2165       35.3948        0.0053       35.8234       35.8287       0.433900       0.00000
  43    0.2613       35.3941        0.0069       35.8212       35.8280       0.433900       0.00000
  42    0.3336       35.3931        0.0095       35.8175       35.8270       0.433900       0.00000
  41    0.4307       35.3916        0.0129       35.8126       35.8255       0.433900       0.00000
  40    0.5894       35.3893        0.0185       35.8047       35.8232       0.433900       0.00000
  39     1.339       35.3782        0.0449       35.7671       35.8121       0.433900       0.00000
  38     1.782       35.3716        0.0605       35.7451       35.8055       0.433900       0.00000
  37     2.292       35.3641        0.0784       35.7196       35.7980       0.433900      -0.00000
  36     2.964       35.3542        0.1020       35.6861       35.7881       0.433900       0.00000
  35     3.853       35.3411        0.1331       35.6419       35.7750       0.433900       0.00000
  34     5.035       35.3238        0.1744       35.5833       35.7577       0.433900       0.00000
  33     6.613       35.3007        0.2295       35.5051       35.7346       0.433900      -0.00000
  32     8.786       35.2695        0.3036       35.3999       35.7034       0.433900       0.00000
  31     11.80       35.2252        0.4093       35.2498       35.6591       0.433900       0.00000
  30     15.07       35.1777        0.5223       35.0893       35.6116       0.433900      -0.00000
  29     18.79       35.1243        0.6495       34.9087       35.5582       0.433900      -0.00000
  28     23.16       35.0622        0.7973       34.6988       35.4961       0.433900       0.00000
  27     28.12       34.9915        0.9654       34.4601       35.4254       0.433900       0.00000
  26     33.73       34.9130        1.1522       34.1947       35.3469       0.433900       0.00000
  25     40.54       34.8189        1.3762       33.8766       35.2528       0.433900       0.00000
  24     48.69       34.7065        1.6437       33.4967       35.1404       0.433900       0.00000
  23     57.69       34.5844        1.9342       33.0841       35.0183       0.433900       0.00000
  22     68.43       34.4408        2.2757       32.5989       34.8747       0.433900      -0.00000
  21     81.20       34.2723        2.6763       32.0299       34.7062       0.433900       0.00000
  20     96.49       34.0753        3.1447       31.3645       34.5092       0.433900       0.00000
  19     114.6       33.8465        3.6883       30.5921       34.2804       0.433900       0.00000
  18     136.5       33.5825        4.3155       29.7009       34.0164       0.433900       0.00000
  17     162.9       33.2779        5.0386       28.6733       33.7118       0.433900      -0.00000
  16     196.4       32.8985        5.9388       27.3935       33.3324       0.433900       0.00000
  15     218.7       32.6583        6.5084       26.5838       33.0922       0.433900       0.00000
  14     243.0       32.4050        7.1085       25.7305       32.8389       0.433900       0.00000
  13     269.0       32.1396        7.7371       24.8364       32.5735       0.433900      -0.00000
  12     297.5       31.8628        8.3922       23.9045       32.2967       0.433900      -0.00000
  11     328.5       31.5750        9.0727       22.9362       32.0089       0.433900       0.00000
  10     361.9       31.2777        9.7751       21.9365       31.7116       0.433900      -0.00000
   9     398.1       30.9715       10.4978       20.9076       31.4054       0.433900       0.00000
   8     437.6       30.6581       11.2366       19.8554       31.0920       0.433900       0.00000
   7     480.5       30.3390       11.9878       18.7851       30.7729       0.433900      -0.00000
   6     533.0       29.9683       12.8592       17.5431       30.4022       0.433900       0.00000
   5     589.8       29.5942       13.7368       16.2913       30.0281       0.433900      -0.00000
   4     651.6       29.2201       14.6126       15.0414       29.6540       0.433900       0.00000
   3     718.7       28.8482       15.4805       13.8016       29.2821       0.433900      -0.00000
   2     792.3       28.4816       16.3335       12.5821       28.9155       0.433900       0.00000
   1     891.5       28.0337       17.3711       11.0965       28.4676       0.433900       0.00000
   0    1013.0       27.5597       18.4625        9.5311       27.9936       0.433900       0.00000



 Wavenumbers: 29000. - 38000. cm-1, ATM      1
 LEVEL PRESSURE   UPWARD FLUX   DIFDOWN FLUX  DIRDOWN FLUX  DOWNWARD FLUX   NET FLUX    HEATING RATE
          mb          W/m2          W/m2          W/m2        W/m2          W/m2       degree/day
  51    .06700        5.0209        0.0000       12.6355       12.6355       7.614533       0.00000
  50    .07753        5.0207        0.0003       12.6312       12.6315       7.610736       3.04407
  49    .09103        5.0205        0.0007       12.6250       12.6257       7.605218       3.44880
  48    0.1069        5.0202        0.0011       12.6169       12.6180       7.597844       3.92498
  47    0.1255        5.0198        0.0016       12.6062       12.6078       7.588006       4.45994
  46    0.1487        5.0194        0.0022       12.5908       12.5930       7.573580       5.25856
  45    0.1794        5.0188        0.0030       12.5670       12.5700       7.551218       6.13892
  44    0.2165        5.0181        0.0040       12.5354       12.5394       7.521274       6.81168
  43    0.2613        5.0174        0.0052       12.4936       12.4987       7.481364       7.52291
  42    0.3336        5.0162        0.0071       12.4169       12.4240       7.407820       8.57450
  41    0.4307        5.0146        0.0095       12.3074       12.3169       7.302270       9.17734
  40    0.5894        5.0122        0.0134       12.1166       12.1300       7.117733       9.81344
  39     1.339        5.0039        0.0297       11.1819       11.2115       6.207674      10.24561
  38     1.782        5.0006        0.0380       10.7276       10.7655       5.764916       8.42939
  37     2.292        4.9982        0.0469       10.2900       10.3369       5.338721       7.05890
  36     2.964        4.9968        0.0578        9.8130        9.8708       4.873964       5.83411
  35     3.853        4.9975        0.0712        9.3032        9.3745       4.376947       4.71678
  34     5.035        5.0010        0.0881        8.7876        8.8757       3.874679       3.58800
  33     6.613        5.0075        0.1094        8.2878        8.3972       3.389714       2.59262
  32     8.786        5.0164        0.1368        7.8152        7.9521       2.935686       1.76328
  31     11.80        5.0274        0.1745        7.3499        7.5244       2.497088       1.22794
  30     15.07        5.0369        0.2134        6.9885        7.2019       2.164995       0.85740
  29     18.79        5.0459        0.2557        6.6702        6.9259       1.879995       0.64618
  28     23.16        5.0543        0.3032        6.3730        6.6762       1.621983       0.49891
  27     28.12        5.0613        0.3558        6.0976        6.4534       1.392106       0.39078
  26     33.73        5.0645        0.4131        5.8505        6.2636       1.199081       0.29022
  25     40.54        5.0629        0.4805        5.6085        6.0891       1.026139       0.21455
  24     48.69        5.0560        0.5595        5.3660        5.9255       0.869488       0.16211
  23     57.69        5.0437        0.6438        5.1406        5.7844       0.740680       0.12074
  22     68.43        5.0239        0.7413        4.9103        5.6516       0.627666       0.08884
  21     81.20        4.9926        0.8542        4.6780        5.5323       0.539665       0.05815
  20     96.49        4.9488        0.9844        4.4386        5.4230       0.474188       0.03614
  19     114.6        4.8957        1.1316        4.1813        5.3129       0.417198       0.02661
  18     136.5        4.8345        1.2961        3.9022        5.1983       0.363738       0.02056
  17     162.9        4.7653        1.4784        3.5996        5.0780       0.312736       0.01630
  16     196.4        4.6785        1.6963        3.2513        4.9476       0.269122       0.01098
  15     218.7        4.6243        1.8287        3.0439        4.8726       0.248331       0.00789
  14     243.0        4.5686        1.9636        2.8344        4.7980       0.229448       0.00655
  13     269.0        4.5117        2.0999        2.6246        4.7244       0.212786       0.00541
  12     297.5        4.4538        2.2366        2.4156        4.6522       0.198331       0.00429
  11     328.5        4.3961        2.3724        2.2085        4.5809       0.184728       0.00370
  10     361.9        4.3391        2.5058        2.0053        4.5111       0.172005       0.00322
   9     398.1        4.2831        2.6360        1.8072        4.4433       0.160136       0.00277
   8     437.6        4.2288        2.7618        1.6159        4.3777       0.148872       0.00241
   7     480.5        4.1765        2.8823        1.4325        4.3148       0.138335       0.00207
   6     533.0        4.1197        3.0123        1.2344        4.2467       0.127020       0.00182
   5     589.8        4.0669        3.1325        1.0506        4.1831       0.116223       0.00160
   4     651.6        4.0185        3.2420        0.8823        4.1243       0.105792       0.00143
   3     718.7        3.9748        3.3402        0.7303        4.0705       0.095688       0.00127
   2     792.3        3.9361        3.4265        0.5954        4.0220       0.085889       0.00112
   1     891.5        3.8947        3.5182        0.4504        3.9686       0.073891       0.00102
   0    1013.0        3.8583        3.5987        0.3204        3.9190       0.060745       0.00091



 Wavenumbers: 38000. - 50000. cm-1, ATM      1
 LEVEL PRESSURE   UPWARD FLUX   DIFDOWN FLUX  DIRDOWN FLUX  DOWNWARD FLUX   NET FLUX    HEATING RATE
          mb          W/m2          W/m2          W/m2        W/m2          W/m2       degree/day
  51    .06700        0.0050        0.0000        0.7793        0.7793       0.774343       0.00000
  50    .07753        0.0049        0.0001        0.7769        0.7770       0.772011       1.86903
  49    .09103        0.0049        0.0002        0.7734        0.7736       0.768690       2.07617
  48    0.1069        0.0048        0.0002        0.7689        0.7691       0.764335       2.31806
  47    0.1255        0.0047        0.0004        0.7630        0.7633       0.758629       2.58687
  46    0.1487        0.0046        0.0005        0.7545        0.7550       0.750410       2.99580
  45    0.1794        0.0044        0.0007        0.7416        0.7423       0.737892       3.43662
  44    0.2165        0.0042        0.0009        0.7248        0.7257       0.721456       3.73875
  43    0.2613        0.0040        0.0011        0.7030        0.7041       0.700037       4.03749
  42    0.3336        0.0037        0.0015        0.6640        0.6654       0.661723       4.46697
  41    0.4307        0.0033        0.0019        0.6106        0.6125       0.609121       4.57369
  40    0.5894        0.0028        0.0024        0.5240        0.5264       0.523571       4.54940
  39     1.339        0.0014        0.0029        0.2158        0.2188       0.217390       3.44704
  38     1.782        0.0009        0.0026        0.1319        0.1344       0.133499       1.59716
  37     2.292        0.0007        0.0021        0.0812        0.0833       0.082647       0.84223
  36     2.964        0.0004        0.0017        0.0469        0.0486       0.048146       0.43309
  35     3.853        0.0003        0.0013        0.0253        0.0266       0.026346       0.20689
  34     5.035        0.0002        0.0009        0.0130        0.0139       0.013782       0.08975
  33     6.613        0.0001        0.0007        0.0060        0.0066       0.006565       0.03858
  32     8.786        0.0000        0.0004        0.0023        0.0028       0.002724       0.01492
  31     11.80        0.0000        0.0002        0.0007        0.0009       0.000935       0.00501
  30     15.07        0.0000        0.0001        0.0002        0.0004       0.000355       0.00150
  29     18.79        0.0000        0.0001        0.0001        0.0001       0.000139       0.00049
  28     23.16        0.0000        0.0000        0.0000        0.0001       0.000055       0.00016
  27     28.12        0.0000        0.0000        0.0000        0.0000       0.000022       0.00006
  26     33.73        0.0000        0.0000        0.0000        0.0000       0.000009       0.00002
  25     40.54        0.0000        0.0000        0.0000        0.0000       0.000004       0.00001
  24     48.69        0.0000        0.0000        0.0000        0.0000       0.000001       0.00000
  23     57.69        0.0000        0.0000        0.0000        0.0000       0.000001       0.00000
  22     68.43        0.0000        0.0000        0.0000        0.0000       0.000000       0.00000
  21     81.20        0.0000        0.0000        0.0000        0.0000       0.000000       0.00000
  20     96.49        0.0000        0.0000        0.0000        0.0000       0.000000       0.00000
  19     114.6        0.0000        0.0000        0.0000        0.0000       0.000000       0.00000
  18     136.5        0.0000        0.0000        0.0000        0.0000       0.000000       0.00000
  17     162.9        0.0000        0.0000        0.0000        0.0000       0.000000       0.00000
  16     196.4        0.0000        0.0000        0.0000        0.0000       0.000000       0.00000
  15     218.7        0.0000        0.0000        0.0000        0.0000       0.000000       0.00000
  14     243.0        0.0000        0.0000        0.0000        0.0000       0.000000       0.00000
  13     269.0        0.0000        0.0000        0.0000        0.0000       0.000000       0.00000
  12     297.5        0.0000        0.0000        0.0000        0.0000       0.000000       0.00000
  11     328.5        0.0000        0.0000        0.0000        0.0000       0.000000       0.00000
  10     361.9        0.0000        0.0000        0.0000        0.0000       0.000000       0.00000
   9     398.1        0.0000        0.0000        0.0000        0.0000       0.000000       0.00000
   8     437.6        0.0000        0.0000        0.0000        0.0000       0.000000       0.00000
   7     480.5        0.0000        0.0000        0.0000        0.0000       0.000000       0.00000
   6     533.0        0.0000        0.0000        0.0000        0.0000       0.000000       0.00000
   5     589.8        0.0000        0.0000        0.0000        0.0000       0.000000       0.00000
   4     651.6        0.0000        0.0000        0.0000        0.0000       0.000000       0.00000
   3     718.7        0.0000        0.0000        0.0000        0.0000       0.000000       0.00000
   2     792.3        0.0000        0.0000        0.0000        0.0000       0.000000       0.00000
   1     891.5        0.0000        0.0000        0.0000        0.0000       0.000000       0.00000
   0    1013.0        0.0000        0.0000        0.0000        0.0000       0.000000       0.00000



 Wavenumbers:   820. -  2600. cm-1, ATM      1
 LEVEL PRESSURE   UPWARD FLUX   DIFDOWN FLUX  DIRDOWN FLUX  DOWNWARD FLUX   NET FLUX    HEATING RATE
          mb          W/m2          W/m2          W/m2        W/m2          W/m2       degree/day
  51    .06700        0.3495        0.0000        3.6457        3.6457       3.296222       0.00000
  50    .07753        0.3495        0.0000        3.6431        3.6431       3.293615       2.08950
  49    .09103        0.3495        0.0000        3.6423        3.6423       3.292800       0.50934
  48    0.1069        0.3495        0.0000        3.6414        3.6414       3.291908       0.47444
  47    0.1255        0.3495        0.0000        3.6404        3.6404       3.290952       0.43350
  46    0.1487        0.3495        0.0000        3.6393        3.6393       3.289853       0.40067
  45    0.1794        0.3495        0.0000        3.6380        3.6380       3.288535       0.36173
  44    0.2165        0.3495        0.0000        3.6366        3.6366       3.287172       0.31016
  43    0.2613        0.3495        0.0000        3.6352        3.6352       3.285717       0.27427
  42    0.3336        0.3495        0.0000        3.6329        3.6329       3.283465       0.26260
  41    0.4307        0.3495        0.0000        3.6300        3.6300       3.280536       0.25463
  40    0.5894        0.3495        0.0000        3.6252        3.6252       3.275732       0.25547
  39     1.339        0.3495        0.0000        3.6036        3.6036       3.254146       0.24302
  38     1.782        0.3495        0.0000        3.5917        3.5917       3.242274       0.22601
  37     2.292        0.3495        0.0000        3.5787        3.5787       3.229274       0.21532
  36     2.964        0.3495        0.0000        3.5629        3.5629       3.213401       0.19925
  35     3.853        0.3495        0.0000        3.5436        3.5436       3.194087       0.18330
  34     5.035        0.3495        0.0000        3.5197        3.5197       3.170269       0.17014
  33     6.613        0.3495        0.0000        3.4905        3.4905       3.140996       0.15650
  32     8.786        0.3495        0.0000        3.4561        3.4561       3.106586       0.13364
  31     11.80        0.3495        0.0000        3.4184        3.4184       3.068968       0.10532
  30     15.07        0.3495        0.0000        3.3908        3.3908       3.041282       0.07148
  29     18.79        0.3495        0.0000        3.3691        3.3691       3.019598       0.04916
  28     23.16        0.3495        0.0000        3.3495        3.3495       3.000017       0.03786
  27     28.12        0.3495        0.0000        3.3295        3.3296       2.980070       0.03391
  26     33.73        0.3495        0.0000        3.3084        3.3084       2.958881       0.03186
  25     40.54        0.3495        0.0000        3.2838        3.2838       2.934355       0.03043
  24     48.69        0.3495        0.0000        3.2557        3.2558       2.906258       0.02908
  23     57.69        0.3495        0.0000        3.2263        3.2263       2.876755       0.02766
  22     68.43        0.3495        0.0000        3.1930        3.1930       2.843448       0.02618
  21     81.20        0.3495        0.0000        3.1559        3.1559       2.806425       0.02446
  20     96.49        0.3495        0.0000        3.1151        3.1151       2.765588       0.02254
  19     114.6        0.3495        0.0000        3.0701        3.0701       2.720527       0.02104
  18     136.5        0.3496        0.0000        3.0215        3.0215       2.671950       0.01868
  17     162.9        0.3496        0.0000        2.9653        2.9653       2.615746       0.01797
  16     196.4        0.3496        0.0000        2.8882        2.8882       2.538547       0.01943
  15     218.7        0.3497        0.0000        2.8251        2.8251       2.475459       0.02395
  14     243.0        0.3498        0.0000        2.7419        2.7419       2.392199       0.02888
  13     269.0        0.3499        0.0000        2.6401        2.6401       2.290282       0.03306
  12     297.5        0.3501        0.0000        2.4999        2.5000       2.149900       0.04164
  11     328.5        0.3503        0.0000        2.3346        2.3346       1.984262       0.04504
  10     361.9        0.3507        0.0000        2.1625        2.1626       1.811880       0.04361
   9     398.1        0.3512        0.0000        2.0113        2.0113       1.660097       0.03536
   8     437.6        0.3519        0.0000        1.8958        1.8959       1.544011       0.02482
   7     480.5        0.3527        0.0000        1.8115        1.8115       1.458796       0.01674
   6     533.0        0.3540        0.0000        1.7211        1.7212       1.367143       0.01474
   5     589.8        0.3560        0.0000        1.6174        1.6174       1.261371       0.01570
   4     651.6        0.3598        0.0000        1.4929        1.4929       1.133174       0.01753
   3     718.7        0.3664        0.0000        1.3622        1.3622       0.995857       0.01726
   2     792.3        0.3786        0.0000        1.2214        1.2215       0.842845       0.01755
   1     891.5        0.4097        0.0000        1.0060        1.0061       0.596355       0.02098
   0    1013.0        0.4850        0.0000        0.7162        0.7163       0.231286       0.02535

  Modules and versions used in this calculation:

       rrtmg_sw.1col.f90:  $Revision$                    rrtmg_sw_init.f90:  $Revision$        
     rrtmgsw_cldprop.f90:  $Revision$                  rrtmgsw_cldprmc.f90:  NOT USED          
     rrtmg_sw_reftra.f90:  $Revision$                  rrtmg_sw_spcvrt.f90:  NOT USED          
     rrtmg_sw_spcvmc.f90:  NOT USED                    rrtmgsw_setcoef.f90:  NOT USED          
     rrtmg_sw_taumol.f90:  $Revision$                  rrtmg_sw_vrtqdr.f90:  NOT USED          
                rrtatm.f:  NOT USED                             util_xxx.f:  NOT USED          
                 extra.f:  NOT USED                       rrtmg_sw_k_g.f90:  $Revision$        

