

 Wavenumbers:   820. - 50000. cm-1, ATM      1
 LEVEL PRESSURE   UPWARD FLUX   DIFDOWN FLUX  DIRDOWN FLUX  DOWNWARD FLUX   NET FLUX    HEATING RATE
          mb          W/m2          W/m2          W/m2        W/m2          W/m2       degree/day
  51    .06700      339.2069        0.0000      553.5072      553.5072     214.300345       0.00000
  50    .07753      339.2064        0.0013      553.4898      553.4911     214.284692      12.54621
  49    .09103      339.2059        0.0029      553.4731      553.4761     214.270177       9.07240
  48    0.1069      339.2053        0.0048      553.4537      553.4585     214.253161       9.05780
  47    0.1255      339.2047        0.0070      553.4298      553.4367     214.232044       9.57329
  46    0.1487      339.2040        0.0097      553.3969      553.4066     214.202651      10.71421
  45    0.1794      339.2030        0.0134      553.3485      553.3619     214.158879      12.01628
  44    0.2165      339.2020        0.0178      553.2864      553.3042     214.102202      12.89304
  43    0.2613      339.2010        0.0229      553.2066      553.2295     214.028585      13.87654
  42    0.3336      339.1995        0.0314      553.0634      553.0948     213.895313      15.53818
  41    0.4307      339.1979        0.0426      552.8609      552.9036     213.705624      16.49302
  40    0.5894      339.1963        0.0607      552.5092      552.5699     213.373611      17.65607
  39     1.339      339.2047        0.1421      550.7386      550.8807     211.675982      19.11222
  38     1.782      339.2209        0.1878      549.8370      550.0249     210.803947      16.60214
  37     2.292      339.2497        0.2399      548.9590      549.1989     209.949139      14.15785
  36     2.964      339.3028        0.3076      547.9969      548.3045     209.001730      11.89285
  35     3.853      339.3940        0.3962      546.9249      547.3212     207.927184      10.19764
  34     5.035      339.5360        0.5131      545.7373      546.2504     206.714449       8.66328
  33     6.613      339.7367        0.6682      544.4287      545.0969     205.360178       7.23994
  32     8.786      339.9978        0.8762      542.9803      543.8565     203.858628       5.83148
  31     11.80      340.3338        1.1720      541.2786      542.4506     202.116807       4.87655
  30     15.07      340.6507        1.4877      539.7336      541.2213     200.570584       3.99205
  29     18.79      340.9696        1.8424      538.1949      540.0373     199.067619       3.40768
  28     23.16      341.2971        2.2544      536.5871      538.8414     197.544375       2.94546
  27     28.12      341.6187        2.7229      534.9299      537.6529     196.034108       2.56735
  26     33.73      341.9016        3.2450      533.2806      536.5256     194.624018       2.12011
  25     40.54      342.1537        3.8730      531.5030      535.3761     193.222403       1.73886
  24     48.69      342.3707        4.6259      529.5641      534.1900     191.819317       1.45197
  23     57.69      342.5251        5.4481      527.6189      533.0670     190.541904       1.19738
  22     68.43      342.6180        6.4212      525.4904      531.9116     189.293671       0.98128
  21     81.20      342.6024        7.5735      523.1926      530.7661     188.163690       0.74667
  20     96.49      342.4673        8.9360      520.6785      529.6145     187.147143       0.56106
  19     114.6      342.2636       10.5367      517.8239      528.3606     186.096996       0.49034
  18     136.5      341.9849       12.4079      514.5740      526.9819     184.997032       0.42296
  17     162.9      341.6222       14.6000      510.8062      525.4062     183.783970       0.38774
  16     196.4      341.0792       17.3890      505.9838      523.3728     182.293613       0.37514
  15     218.7      340.6993       19.1882      502.5732      521.7613     181.062048       0.46758
  14     243.0      340.2795       21.1147      498.4256      519.5403     179.260811       0.62473
  13     269.0      339.8188       23.1693      493.2878      516.4572     176.638391       0.85070
  12     297.5      339.3184       25.3519      487.1896      512.5415     173.223133       1.01293
  11     328.5      338.7848       27.6669      480.6245      508.2914     169.506546       1.01053
  10     361.9      338.2208       30.1112      473.5254      503.6366     165.415779       1.03500
   9     398.1      337.6291       32.6881      465.7439      498.4320     160.802920       1.07469
   8     437.6      337.0174       35.3948      457.2253      492.6201     155.602741       1.11183
   7     480.5      336.3929       38.2282      448.1452      486.3734     149.980444       1.10420
   6     533.0      335.6783       41.6252      437.0724      478.6977     143.019350       1.11982
   5     589.8      334.9988       45.1784      425.1073      470.2858     135.286945       1.14774
   4     651.6      334.4365       48.8763      411.7417      460.6180     126.181539       1.24519
   3     718.7      334.0786       52.7088      397.4244      450.1332     116.054675       1.27267
   2     792.3      334.1342       56.6538      381.9375      438.5913     104.457152       1.33011
   1     891.5      335.2967       61.7270      361.1064      422.8334      87.536700       1.43985
   0    1013.0      339.2438       67.4673      337.6958      405.1631      65.919272       1.50101



 Wavenumbers:  2600. -  3250. cm-1, ATM      1
 LEVEL PRESSURE   UPWARD FLUX   DIFDOWN FLUX  DIRDOWN FLUX  DOWNWARD FLUX   NET FLUX    HEATING RATE
          mb          W/m2          W/m2          W/m2        W/m2          W/m2       degree/day
  51    .06700        0.0218        0.0000        4.8783        4.8783       4.856435       0.00000
  50    .07753        0.0218        0.0000        4.8783        4.8783       4.856427       0.00640
  49    .09103        0.0218        0.0000        4.8783        4.8783       4.856417       0.00627
  48    0.1069        0.0218        0.0000        4.8783        4.8783       4.856406       0.00613
  47    0.1255        0.0218        0.0000        4.8782        4.8782       4.856392       0.00599
  46    0.1487        0.0218        0.0000        4.8782        4.8782       4.856376       0.00608
  45    0.1794        0.0218        0.0000        4.8782        4.8782       4.856353       0.00624
  44    0.2165        0.0218        0.0000        4.8782        4.8782       4.856326       0.00612
  43    0.2613        0.0218        0.0000        4.8781        4.8781       4.856294       0.00599
  42    0.3336        0.0218        0.0000        4.8781        4.8781       4.856241       0.00616
  41    0.4307        0.0218        0.0000        4.8780        4.8780       4.856170       0.00620
  40    0.5894        0.0218        0.0000        4.8779        4.8779       4.856051       0.00636
  39     1.339        0.0218        0.0000        4.8772        4.8772       4.855345       0.00795
  38     1.782        0.0218        0.0000        4.8767        4.8767       4.854805       0.01029
  37     2.292        0.0218        0.0000        4.8759        4.8759       4.854094       0.01178
  36     2.964        0.0218        0.0000        4.8749        4.8749       4.853066       0.01290
  35     3.853        0.0218        0.0000        4.8735        4.8735       4.851608       0.01383
  34     5.035        0.0218        0.0000        4.8714        4.8714       4.849598       0.01436
  33     6.613        0.0218        0.0000        4.8687        4.8688       4.846905       0.01440
  32     8.786        0.0218        0.0000        4.8653        4.8653       4.843425       0.01351
  31     11.80        0.0218        0.0000        4.8608        4.8608       4.838925       0.01260
  30     15.07        0.0218        0.0000        4.8566        4.8566       4.834738       0.01081
  29     18.79        0.0218        0.0000        4.8525        4.8525       4.830701       0.00915
  28     23.16        0.0218        0.0000        4.8484        4.8484       4.826596       0.00794
  27     28.12        0.0218        0.0000        4.8441        4.8441       4.822284       0.00733
  26     33.73        0.0218        0.0000        4.8391        4.8392       4.817313       0.00747
  25     40.54        0.0218        0.0000        4.8324        4.8324       4.810588       0.00834
  24     48.69        0.0218        0.0000        4.8231        4.8231       4.801288       0.00962
  23     57.69        0.0218        0.0000        4.8115        4.8115       4.789685       0.01088
  22     68.43        0.0218        0.0000        4.7963        4.7963       4.774477       0.01196
  21     81.20        0.0218        0.0000        4.7769        4.7769       4.755125       0.01279
  20     96.49        0.0218        0.0000        4.7531        4.7532       4.731351       0.01312
  19     114.6        0.0218        0.0000        4.7243        4.7243       4.702484       0.01348
  18     136.5        0.0218        0.0000        4.6912        4.6913       4.669479       0.01269
  17     162.9        0.0218        0.0001        4.6546        4.6547       4.632866       0.01170
  16     196.4        0.0218        0.0001        4.6116        4.6116       4.589856       0.01083
  15     218.7        0.0218        0.0001        4.5835        4.5836       4.561807       0.01065
  14     243.0        0.0218        0.0001        4.5500        4.5501       4.528321       0.01161
  13     269.0        0.0218        0.0001        4.5089        4.5090       4.487223       0.01333
  12     297.5        0.0218        0.0001        4.4577        4.4578       4.436018       0.01519
  11     328.5        0.0218        0.0001        4.3963        4.3964       4.374588       0.01670
  10     361.9        0.0218        0.0001        4.3203        4.3204       4.298607       0.01922
   9     398.1        0.0219        0.0001        4.2233        4.2234       4.201555       0.02261
   8     437.6        0.0219        0.0001        4.0994        4.0995       4.077609       0.02650
   7     480.5        0.0220        0.0001        3.9476        3.9477       3.925768       0.02982
   6     533.0        0.0221        0.0002        3.7449        3.7450       3.722930       0.03263
   5     589.8        0.0222        0.0002        3.5142        3.5144       3.492110       0.03426
   4     651.6        0.0225        0.0002        3.2532        3.2534       3.230879       0.03572
   3     718.7        0.0229        0.0002        2.9726        2.9728       2.949830       0.03532
   2     792.3        0.0236        0.0002        2.6548        2.6549       2.631309       0.03653
   1     891.5        0.0252        0.0002        2.2258        2.2260       2.200743       0.03664
   0    1013.0        0.0289        0.0001        1.7827        1.7828       1.753966       0.03102



 Wavenumbers:  3250. -  4000. cm-1, ATM      1
 LEVEL PRESSURE   UPWARD FLUX   DIFDOWN FLUX  DIRDOWN FLUX  DOWNWARD FLUX   NET FLUX    HEATING RATE
          mb          W/m2          W/m2          W/m2        W/m2          W/m2       degree/day
  51    .06700        0.0005        0.0000        8.2241        8.2241       8.223614       0.00000
  50    .07753        0.0005        0.0000        8.2194        8.2194       8.218920       3.76241
  49    .09103        0.0005        0.0000        8.2162        8.2162       8.215782       1.96131
  48    0.1069        0.0005        0.0000        8.2139        8.2139       8.213445       1.24417
  47    0.1255        0.0005        0.0000        8.2118        8.2118       8.211322       0.96227
  46    0.1487        0.0005        0.0000        8.2095        8.2095       8.209019       0.83964
  45    0.1794        0.0005        0.0000        8.2068        8.2068       8.206320       0.74088
  44    0.2165        0.0005        0.0000        8.2041        8.2041       8.203607       0.61706
  43    0.2613        0.0005        0.0000        8.2013        8.2013       8.200856       0.51868
  42    0.3336        0.0005        0.0000        8.1974        8.1974       8.196966       0.45353
  41    0.4307        0.0005        0.0000        8.1929        8.1929       8.192464       0.39142
  40    0.5894        0.0005        0.0000        8.1862        8.1862       8.185750       0.35705
  39     1.339        0.0005        0.0000        8.1610        8.1610       8.160575       0.28342
  38     1.782        0.0005        0.0000        8.1503        8.1503       8.149830       0.20456
  37     2.292        0.0005        0.0000        8.1400        8.1400       8.139585       0.16970
  36     2.964        0.0005        0.0000        8.1284        8.1285       8.127996       0.14547
  35     3.853        0.0005        0.0000        8.1145        8.1145       8.114020       0.13263
  34     5.035        0.0005        0.0000        8.0965        8.0965       8.096080       0.12816
  33     6.613        0.0005        0.0000        8.0724        8.0724       8.071969       0.12890
  32     8.786        0.0004        0.0000        8.0388        8.0388       8.038372       0.13048
  31     11.80        0.0004        0.0000        7.9891        7.9892       7.988707       0.13905
  30     15.07        0.0004        0.0000        7.9347        7.9347       7.934287       0.14050
  29     18.79        0.0004        0.0000        7.8731        7.8732       7.872742       0.13954
  28     23.16        0.0004        0.0000        7.8032        7.8032       7.802821       0.13521
  27     28.12        0.0004        0.0000        7.7280        7.7281       7.727629       0.12782
  26     33.73        0.0004        0.0000        7.6515        7.6516       7.651146       0.11499
  25     40.54        0.0004        0.0001        7.5688        7.5689       7.568457       0.10258
  24     48.69        0.0004        0.0001        7.4798        7.4799       7.479470       0.09209
  23     57.69        0.0004        0.0001        7.3890        7.3891       7.388726       0.08506
  22     68.43        0.0004        0.0001        7.2847        7.2848       7.284388       0.08202
  21     81.20        0.0004        0.0001        7.1626        7.1627       7.162345       0.08064
  20     96.49        0.0003        0.0001        7.0212        7.0213       7.021007       0.07801
  19     114.6        0.0003        0.0001        6.8551        6.8552       6.854901       0.07756
  18     136.5        0.0003        0.0002        6.6737        6.6738       6.673557       0.06973
  17     162.9        0.0003        0.0002        6.4648        6.4650       6.464738       0.06675
  16     196.4        0.0002        0.0002        6.1670        6.1672       6.166972       0.07495
  15     218.7        0.0002        0.0002        5.8929        5.8931       5.892920       0.10405
  14     243.0        0.0002        0.0002        5.5297        5.5300       5.529811       0.12594
  13     269.0        0.0002        0.0003        5.0754        5.0756       5.075482       0.14738
  12     297.5        0.0001        0.0003        4.5409        4.5412       4.541015       0.15852
  11     328.5        0.0001        0.0002        3.9965        3.9968       3.996642       0.14801
  10     361.9        0.0001        0.0002        3.4791        3.4793       3.479196       0.13092
   9     398.1        0.0001        0.0002        3.0055        3.0057       3.005649       0.11033
   8     437.6        0.0001        0.0002        2.5710        2.5712       2.571109       0.09291
   7     480.5        0.0000        0.0002        2.1780        2.1782       2.178197       0.07717
   6     533.0        0.0000        0.0002        1.7623        1.7625       1.762443       0.06688
   5     589.8        0.0000        0.0002        1.3663        1.3664       1.366390       0.05879
   4     651.6        0.0000        0.0001        0.9598        0.9599       0.959932       0.05558
   3     718.7        0.0000        0.0001        0.5980        0.5981       0.598084       0.04547
   2     792.3        0.0000        0.0001        0.3075        0.3075       0.307501       0.03333
   1     891.5        0.0000        0.0000        0.0766        0.0766       0.076606       0.01965
   0    1013.0        0.0001        0.0000        0.0047        0.0047       0.004607       0.00500



 Wavenumbers:  4000. -  4650. cm-1, ATM      1
 LEVEL PRESSURE   UPWARD FLUX   DIFDOWN FLUX  DIRDOWN FLUX  DOWNWARD FLUX   NET FLUX    HEATING RATE
          mb          W/m2          W/m2          W/m2        W/m2          W/m2       degree/day
  51    .06700        0.5249        0.0000        9.6575        9.6575       9.132673       0.00000
  50    .07753        0.5249        0.0000        9.6575        9.6575       9.132672       0.00080
  49    .09103        0.5249        0.0000        9.6575        9.6575       9.132671       0.00078
  48    0.1069        0.5249        0.0000        9.6575        9.6575       9.132670       0.00076
  47    0.1255        0.5249        0.0000        9.6575        9.6575       9.132668       0.00075
  46    0.1487        0.5249        0.0000        9.6575        9.6575       9.132666       0.00076
  45    0.1794        0.5249        0.0000        9.6575        9.6575       9.132663       0.00078
  44    0.2165        0.5249        0.0000        9.6575        9.6575       9.132660       0.00076
  43    0.2613        0.5249        0.0000        9.6575        9.6575       9.132656       0.00075
  42    0.3336        0.5249        0.0000        9.6575        9.6575       9.132649       0.00077
  41    0.4307        0.5249        0.0000        9.6575        9.6575       9.132640       0.00077
  40    0.5894        0.5249        0.0000        9.6575        9.6575       9.132625       0.00080
  39     1.339        0.5249        0.0000        9.6574        9.6574       9.132536       0.00101
  38     1.782        0.5249        0.0000        9.6573        9.6573       9.132466       0.00133
  37     2.292        0.5249        0.0000        9.6572        9.6572       9.132372       0.00156
  36     2.964        0.5249        0.0000        9.6571        9.6571       9.132232       0.00176
  35     3.853        0.5249        0.0000        9.6569        9.6569       9.132024       0.00197
  34     5.035        0.5249        0.0000        9.6566        9.6566       9.131718       0.00219
  33     6.613        0.5249        0.0000        9.6561        9.6561       9.131267       0.00241
  32     8.786        0.5248        0.0000        9.6554        9.6554       9.130601       0.00258
  31     11.80        0.5248        0.0000        9.6543        9.6544       9.129557       0.00292
  30     15.07        0.5248        0.0001        9.6531        9.6532       9.128333       0.00316
  29     18.79        0.5248        0.0001        9.6516        9.6517       9.126854       0.00335
  28     23.16        0.5248        0.0001        9.6497        9.6498       9.125021       0.00355
  27     28.12        0.5248        0.0001        9.6475        9.6476       9.122804       0.00377
  26     33.73        0.5248        0.0001        9.6447        9.6448       9.120076       0.00410
  25     40.54        0.5247        0.0001        9.6410        9.6411       9.116382       0.00458
  24     48.69        0.5247        0.0002        9.6360        9.6362       9.111473       0.00508
  23     57.69        0.5247        0.0002        9.6302        9.6304       9.105667       0.00544
  22     68.43        0.5247        0.0002        9.6228        9.6231       9.098413       0.00570
  21     81.20        0.5246        0.0003        9.6138        9.6141       9.089501       0.00589
  20     96.49        0.5246        0.0003        9.6029        9.6033       9.078698       0.00596
  19     114.6        0.5246        0.0004        9.5894        9.5898       9.065249       0.00628
  18     136.5        0.5245        0.0005        9.5731        9.5736       9.049098       0.00621
  17     162.9        0.5245        0.0006        9.5533        9.5539       9.029391       0.00630
  16     196.4        0.5244        0.0007        9.5261        9.5268       9.002385       0.00680
  15     218.7        0.5244        0.0008        9.5057        9.5064       8.982001       0.00774
  14     243.0        0.5245        0.0009        9.4790        9.4799       8.955386       0.00923
  13     269.0        0.5246        0.0010        9.4433        9.4443       8.919699       0.01158
  12     297.5        0.5247        0.0011        9.3959        9.3970       8.872251       0.01407
  11     328.5        0.5250        0.0012        9.3357        9.3369       8.811928       0.01640
  10     361.9        0.5253        0.0013        9.2584        9.2597       8.734410       0.01961
   9     398.1        0.5257        0.0014        9.1601        9.1615       8.635763       0.02298
   8     437.6        0.5263        0.0015        9.0382        9.0397       8.513348       0.02617
   7     480.5        0.5270        0.0016        8.8970        8.8986       8.371556       0.02785
   6     533.0        0.5281        0.0018        8.7178        8.7195       8.191394       0.02898
   5     589.8        0.5297        0.0019        8.5146        8.5165       7.986770       0.03037
   4     651.6        0.5322        0.0021        8.2498        8.2519       7.719724       0.03652
   3     718.7        0.5361        0.0022        7.9008        7.9030       7.366956       0.04433
   2     792.3        0.5425        0.0023        7.4629        7.4652       6.922654       0.05096
   1     891.5        0.5574        0.0024        6.8664        6.8688       6.311369       0.05202
   0    1013.0        0.5918        0.0025        6.2140        6.2164       5.624618       0.04768



 Wavenumbers:  4650. -  5150. cm-1, ATM      1
 LEVEL PRESSURE   UPWARD FLUX   DIFDOWN FLUX  DIRDOWN FLUX  DOWNWARD FLUX   NET FLUX    HEATING RATE
          mb          W/m2          W/m2          W/m2        W/m2          W/m2       degree/day
  51    .06700        0.1033        0.0000        9.1413        9.1413       9.037995       0.00000
  50    .07753        0.1033        0.0000        9.1411        9.1411       9.037759       0.18896
  49    .09103        0.1033        0.0000        9.1408        9.1408       9.037465       0.18412
  48    0.1069        0.1033        0.0000        9.1405        9.1405       9.037128       0.17902
  47    0.1255        0.1033        0.0000        9.1401        9.1401       9.036745       0.17384
  46    0.1487        0.1033        0.0000        9.1396        9.1396       9.036265       0.17477
  45    0.1794        0.1033        0.0000        9.1389        9.1389       9.035618       0.17768
  44    0.2165        0.1033        0.0000        9.1382        9.1382       9.034863       0.17171
  43    0.2613        0.1033        0.0000        9.1373        9.1373       9.033985       0.16557
  42    0.3336        0.1033        0.0000        9.1359        9.1359       9.032568       0.16526
  41    0.4307        0.1033        0.0000        9.1341        9.1341       9.030753       0.15776
  40    0.5894        0.1033        0.0000        9.1313        9.1313       9.027943       0.14942
  39     1.339        0.1033        0.0000        9.1201        9.1201       9.016761       0.12589
  38     1.782        0.1033        0.0000        9.1149        9.1149       9.011542       0.09936
  37     2.292        0.1033        0.0000        9.1098        9.1098       9.006478       0.08388
  36     2.964        0.1033        0.0000        9.1044        9.1044       9.001073       0.06785
  35     3.853        0.1033        0.0000        9.0988        9.0988       8.995493       0.05296
  34     5.035        0.1033        0.0000        9.0931        9.0932       8.989859       0.04025
  33     6.613        0.1033        0.0000        9.0873        9.0874       8.984082       0.03089
  32     8.786        0.1033        0.0000        9.0809        9.0809       8.977625       0.02508
  31     11.80        0.1033        0.0001        9.0722        9.0722       8.968967       0.02424
  30     15.07        0.1032        0.0001        9.0624        9.0625       8.959280       0.02501
  29     18.79        0.1032        0.0001        9.0505        9.0506       8.947421       0.02689
  28     23.16        0.1032        0.0001        9.0354        9.0355       8.932302       0.02924
  27     28.12        0.1032        0.0002        9.0165        9.0167       8.913484       0.03199
  26     33.73        0.1032        0.0002        8.9938        8.9940       8.890805       0.03410
  25     40.54        0.1031        0.0002        8.9644        8.9646       8.861502       0.03635
  24     48.69        0.1031        0.0003        8.9273        8.9276       8.824492       0.03830
  23     57.69        0.1030        0.0003        8.8852        8.8856       8.782510       0.03935
  22     68.43        0.1030        0.0004        8.8347        8.8351       8.732089       0.03964
  21     81.20        0.1029        0.0004        8.7756        8.7760       8.673053       0.03901
  20     96.49        0.1029        0.0005        8.7083        8.7088       8.605965       0.03703
  19     114.6        0.1028        0.0006        8.6345        8.6351       8.532286       0.03440
  18     136.5        0.1027        0.0007        8.5557        8.5564       8.453697       0.03022
  17     162.9        0.1026        0.0008        8.4723        8.4731       8.370507       0.02659
  16     196.4        0.1025        0.0010        8.3757        8.3767       8.274219       0.02424
  15     218.7        0.1024        0.0011        8.3153        8.3164       8.214008       0.02286
  14     243.0        0.1024        0.0012        8.2489        8.2502       8.147805       0.02296
  13     269.0        0.1023        0.0013        8.1728        8.1742       8.071870       0.02463
  12     297.5        0.1023        0.0015        8.0815        8.0830       7.980728       0.02703
  11     328.5        0.1022        0.0016        7.9745        7.9761       7.873842       0.02906
  10     361.9        0.1022        0.0017        7.8494        7.8511       7.748862       0.03162
   9     398.1        0.1023        0.0019        7.7024        7.7043       7.601980       0.03422
   8     437.6        0.1024        0.0020        7.5309        7.5330       7.430596       0.03664
   7     480.5        0.1025        0.0022        7.3336        7.3358       7.233248       0.03876
   6     533.0        0.1028        0.0023        7.0759        7.0782       6.975429       0.04147
   5     589.8        0.1032        0.0025        6.7838        6.7863       6.683057       0.04340
   4     651.6        0.1040        0.0026        6.4491        6.4517       6.347715       0.04586
   3     718.7        0.1051        0.0027        6.0836        6.0863       5.981190       0.04606
   2     792.3        0.1070        0.0028        5.6932        5.6961       5.589083       0.04497
   1     891.5        0.1110        0.0029        5.1763        5.1792       5.068155       0.04433
   0    1013.0        0.1193        0.0030        4.6040        4.6070       4.487641       0.04031



 Wavenumbers:  5150. -  6150. cm-1, ATM      1
 LEVEL PRESSURE   UPWARD FLUX   DIFDOWN FLUX  DIRDOWN FLUX  DOWNWARD FLUX   NET FLUX    HEATING RATE
          mb          W/m2          W/m2          W/m2        W/m2          W/m2       degree/day
  51    .06700        1.1966        0.0000       22.9173       22.9173      21.720684       0.00000
  50    .07753        1.1966        0.0000       22.9173       22.9173      21.720644       0.03156
  49    .09103        1.1966        0.0000       22.9172       22.9172      21.720593       0.03204
  48    0.1069        1.1966        0.0000       22.9172       22.9172      21.720532       0.03255
  47    0.1255        1.1966        0.0000       22.9171       22.9171      21.720459       0.03305
  46    0.1487        1.1966        0.0000       22.9170       22.9170      21.720363       0.03482
  45    0.1794        1.1966        0.0000       22.9169       22.9169      21.720228       0.03706
  44    0.2165        1.1966        0.0000       22.9167       22.9167      21.720063       0.03762
  43    0.2613        1.1966        0.0000       22.9165       22.9165      21.719860       0.03820
  42    0.3336        1.1966        0.0000       22.9161       22.9162      21.719514       0.04035
  41    0.4307        1.1966        0.0000       22.9157       22.9157      21.719044       0.04089
  40    0.5894        1.1966        0.0000       22.9149       22.9149      21.718256       0.04189
  39     1.339        1.1966        0.0000       22.9111       22.9111      21.714466       0.04267
  38     1.782        1.1966        0.0000       22.9088       22.9089      21.712264       0.04194
  37     2.292        1.1966        0.0001       22.9063       22.9064      21.709774       0.04124
  36     2.964        1.1966        0.0001       22.9031       22.9032      21.706615       0.03965
  35     3.853        1.1966        0.0001       22.8991       22.8992      21.702609       0.03802
  34     5.035        1.1965        0.0001       22.8939       22.8940      21.697461       0.03677
  33     6.613        1.1965        0.0002       22.8871       22.8873      21.690803       0.03559
  32     8.786        1.1965        0.0002       22.8784       22.8787      21.682209       0.03338
  31     11.80        1.1964        0.0003       22.8667       22.8670      21.670645       0.03237
  30     15.07        1.1963        0.0004       22.8551       22.8554      21.659118       0.02976
  29     18.79        1.1962        0.0005       22.8429       22.8434      21.647129       0.02718
  28     23.16        1.1961        0.0006       22.8299       22.8305      21.634322       0.02477
  27     28.12        1.1960        0.0007       22.8162       22.8170      21.620910       0.02280
  26     33.73        1.1959        0.0009       22.8025       22.8033      21.607381       0.02034
  25     40.54        1.1958        0.0010       22.7875       22.7886      21.592758       0.01814
  24     48.69        1.1956        0.0012       22.7716       22.7729      21.577213       0.01609
  23     57.69        1.1955        0.0015       22.7559       22.7574      21.561888       0.01437
  22     68.43        1.1953        0.0017       22.7389       22.7406      21.545341       0.01301
  21     81.20        1.1950        0.0021       22.7202       22.7223      21.527253       0.01195
  20     96.49        1.1948        0.0024       22.6993       22.7017      21.506988       0.01118
  19     114.6        1.1944        0.0029       22.6754       22.6783      21.483838       0.01081
  18     136.5        1.1940        0.0035       22.6475       22.6509      21.456896       0.01036
  17     162.9        1.1936        0.0041       22.6064       22.6105      21.416941       0.01277
  16     196.4        1.1930        0.0049       22.5193       22.5242      21.331227       0.02158
  15     218.7        1.1926        0.0055       22.3816       22.3870      21.194396       0.05195
  14     243.0        1.1923        0.0060       22.0834       22.0894      20.897156       0.10309
  13     269.0        1.1919        0.0065       21.5644       21.5709      20.379052       0.16807
  12     297.5        1.1915        0.0070       20.9111       20.9181      19.726556       0.19352
  11     328.5        1.1912        0.0075       20.2411       20.2486      19.057413       0.18194
  10     361.9        1.1909        0.0080       19.4760       19.4840      18.293075       0.19339
   9     398.1        1.1907        0.0084       18.6160       18.6245      17.433796       0.20019
   8     437.6        1.1905        0.0089       17.6917       17.7006      16.510022       0.19751
   7     480.5        1.1905        0.0092       16.7532       16.7624      15.571864       0.18425
   6     533.0        1.1908        0.0096       15.7073       15.7169      14.526141       0.16822
   5     589.8        1.1915        0.0100       14.7330       14.7430      13.551548       0.14466
   4     651.6        1.1931        0.0104       13.8321       13.8426      12.649428       0.12337
   3     718.7        1.1964        0.0109       13.0890       13.0999      11.903442       0.09375
   2     792.3        1.2029        0.0114       12.4293       12.4407      11.237821       0.07634
   1     891.5        1.2198        0.0120       11.5613       11.5733      10.353487       0.07525
   0    1013.0        1.2670        0.0126       10.6343       10.6469       9.379934       0.06760



 Wavenumbers:  6150. -  7700. cm-1, ATM      1
 LEVEL PRESSURE   UPWARD FLUX   DIFDOWN FLUX  DIRDOWN FLUX  DOWNWARD FLUX   NET FLUX    HEATING RATE
          mb          W/m2          W/m2          W/m2        W/m2          W/m2       degree/day
  51    .06700        2.2529        0.0000       42.3865       42.3865      40.133611       0.00000
  50    .07753        2.2529        0.0000       42.3864       42.3864      40.133555       0.04553
  49    .09103        2.2529        0.0000       42.3863       42.3863      40.133481       0.04583
  48    0.1069        2.2529        0.0000       42.3863       42.3863      40.133395       0.04614
  47    0.1255        2.2529        0.0000       42.3862       42.3862      40.133292       0.04644
  46    0.1487        2.2529        0.0000       42.3860       42.3860      40.133159       0.04852
  45    0.1794        2.2529        0.0000       42.3858       42.3858      40.132972       0.05126
  44    0.2165        2.2529        0.0000       42.3856       42.3856      40.132745       0.05166
  43    0.2613        2.2529        0.0000       42.3853       42.3853      40.132469       0.05209
  42    0.3336        2.2528        0.0000       42.3848       42.3848      40.132000       0.05469
  41    0.4307        2.2528        0.0000       42.3842       42.3842      40.131365       0.05519
  40    0.5894        2.2528        0.0001       42.3831       42.3831      40.130306       0.05630
  39     1.339        2.2527        0.0001       42.3778       42.3780      40.125220       0.05726
  38     1.782        2.2527        0.0002       42.3748       42.3750      40.122256       0.05644
  37     2.292        2.2526        0.0002       42.3713       42.3715      40.118889       0.05577
  36     2.964        2.2526        0.0003       42.3668       42.3672      40.114585       0.05403
  35     3.853        2.2525        0.0004       42.3611       42.3616      40.109074       0.05230
  34     5.035        2.2524        0.0005       42.3538       42.3543      40.101934       0.05101
  33     6.613        2.2522        0.0007       42.3441       42.3448      40.092614       0.04982
  32     8.786        2.2520        0.0009       42.3315       42.3324      40.080430       0.04732
  31     11.80        2.2517        0.0013       42.3141       42.3154      40.063735       0.04674
  30     15.07        2.2514        0.0016       42.2964       42.2981      40.046718       0.04393
  29     18.79        2.2510        0.0020       42.2775       42.2796      40.028593       0.04110
  28     23.16        2.2505        0.0025       42.2567       42.2592      40.008670       0.03852
  27     28.12        2.2500        0.0030       42.2343       42.2373      39.987268       0.03638
  26     33.73        2.2495        0.0036       42.2109       42.2145      39.965056       0.03340
  25     40.54        2.2488        0.0044       42.1848       42.1892      39.940350       0.03065
  24     48.69        2.2480        0.0052       42.1560       42.1612      39.913238       0.02806
  23     57.69        2.2471        0.0062       42.1268       42.1330      39.885866       0.02566
  22     68.43        2.2460        0.0074       42.0944       42.1017      39.855710       0.02371
  21     81.20        2.2447        0.0087       42.0581       42.0668      39.822038       0.02225
  20     96.49        2.2432        0.0104       42.0167       42.0270      39.783836       0.02108
  19     114.6        2.2414        0.0123       41.9689       41.9812      39.739819       0.02055
  18     136.5        2.2392        0.0146       41.9131       41.9277      39.688412       0.01977
  17     162.9        2.2367        0.0173       41.8339       41.8512      39.614526       0.02362
  16     196.4        2.2334        0.0209       41.6777       41.6986      39.465245       0.03758
  15     218.7        2.2312        0.0231       41.4681       41.4912      39.259973       0.07793
  14     243.0        2.2289        0.0255       41.0685       41.0940      38.865087       0.13696
  13     269.0        2.2265        0.0278       40.3361       40.3639      38.137363       0.23607
  12     297.5        2.2241        0.0300       39.2421       39.2722      37.048035       0.32308
  11     328.5        2.2217        0.0322       38.0508       38.0830      35.861304       0.32267
  10     361.9        2.2193        0.0344       36.7757       36.8102      34.590866       0.32143
   9     398.1        2.2171        0.0366       35.3169       35.3535      33.136421       0.33885
   8     437.6        2.2151        0.0384       33.6495       33.6879      31.472863       0.35568
   7     480.5        2.2135        0.0401       31.8857       31.9258      29.712280       0.34577
   6     533.0        2.2126        0.0418       29.8079       29.8497      27.637134       0.33382
   5     589.8        2.2133        0.0432       27.6752       27.7184      25.505076       0.31647
   4     651.6        2.2177        0.0441       25.4173       25.4614      23.243672       0.30925
   3     718.7        2.2282        0.0447       23.2147       23.2594      21.031230       0.27804
   2     792.3        2.2501        0.0450       21.0757       21.1207      18.870564       0.24780
   1     891.5        2.3090        0.0452       18.6186       18.6638      16.354780       0.21408
   0    1013.0        2.4667        0.0454       16.3012       16.3466      13.879869       0.17185



 Wavenumbers:  7700. -  8050. cm-1, ATM      1
 LEVEL PRESSURE   UPWARD FLUX   DIFDOWN FLUX  DIRDOWN FLUX  DOWNWARD FLUX   NET FLUX    HEATING RATE
          mb          W/m2          W/m2          W/m2        W/m2          W/m2       degree/day
  51    .06700        3.9448        0.0000       10.0172       10.0172       6.072417       0.00000
  50    .07753        3.9448        0.0000       10.0172       10.0172       6.072397       0.01627
  49    .09103        3.9448        0.0000       10.0171       10.0171       6.072372       0.01595
  48    0.1069        3.9448        0.0000       10.0171       10.0171       6.072342       0.01561
  47    0.1255        3.9448        0.0000       10.0171       10.0171       6.072309       0.01528
  46    0.1487        3.9448        0.0000       10.0170       10.0171       6.072266       0.01550
  45    0.1794        3.9448        0.0000       10.0170       10.0170       6.072208       0.01595
  44    0.2165        3.9448        0.0000       10.0169       10.0169       6.072139       0.01565
  43    0.2613        3.9448        0.0000       10.0169       10.0169       6.072058       0.01535
  42    0.3336        3.9448        0.0000       10.0167       10.0167       6.071923       0.01571
  41    0.4307        3.9448        0.0000       10.0166       10.0166       6.071744       0.01554
  40    0.5894        3.9449        0.0000       10.0163       10.0163       6.071452       0.01552
  39     1.339        3.9450        0.0001       10.0150       10.0151       6.070072       0.01554
  38     1.782        3.9451        0.0001       10.0143       10.0144       6.069261       0.01544
  37     2.292        3.9452        0.0001       10.0134       10.0135       6.068322       0.01555
  36     2.964        3.9454        0.0001       10.0123       10.0124       6.067090       0.01547
  35     3.853        3.9455        0.0002       10.0108       10.0110       6.065462       0.01545
  34     5.035        3.9458        0.0003       10.0088       10.0091       6.063301       0.01544
  33     6.613        3.9461        0.0003       10.0062       10.0065       6.060414       0.01543
  32     8.786        3.9465        0.0004       10.0026       10.0031       6.056527       0.01510
  31     11.80        3.9472        0.0006        9.9975        9.9981       6.050973       0.01555
  30     15.07        3.9478        0.0008        9.9921        9.9928       6.045017       0.01538
  29     18.79        3.9486        0.0009        9.9859        9.9869       6.038300       0.01523
  28     23.16        3.9495        0.0012        9.9788        9.9799       6.030470       0.01514
  27     28.12        3.9505        0.0014        9.9706        9.9720       6.021538       0.01518
  26     33.73        3.9516        0.0017        9.9615        9.9632       6.011569       0.01499
  25     40.54        3.9530        0.0020        9.9506        9.9526       5.999567       0.01489
  24     48.69        3.9547        0.0024        9.9374        9.9399       5.985156       0.01491
  23     57.69        3.9566        0.0029        9.9231        9.9260       5.969404       0.01477
  22     68.43        3.9588        0.0034        9.9061        9.9095       5.950749       0.01467
  21     81.20        3.9615        0.0040        9.8861        9.8901       5.928673       0.01459
  20     96.49        3.9647        0.0048        9.8625        9.8673       5.902578       0.01440
  19     114.6        3.9685        0.0057        9.8347        9.8404       5.871886       0.01433
  18     136.5        3.9732        0.0067        9.8023        9.8091       5.835906       0.01384
  17     162.9        3.9788        0.0080        9.7644        9.7724       5.793596       0.01352
  16     196.4        3.9862        0.0096        9.7161        9.7257       5.739545       0.01361
  15     218.7        3.9911        0.0107        9.6849        9.6956       5.704494       0.01331
  14     243.0        3.9965        0.0118        9.6514        9.6633       5.666732       0.01310
  13     269.0        4.0026        0.0131        9.6156        9.6287       5.626126       0.01317
  12     297.5        4.0092        0.0144        9.5773        9.5917       5.582490       0.01294
  11     328.5        4.0166        0.0159        9.5363        9.5521       5.535562       0.01276
  10     361.9        4.0248        0.0175        9.4925        9.5099       5.485156       0.01275
   9     398.1        4.0339        0.0191        9.4456        9.4647       5.430847       0.01265
   8     437.6        4.0441        0.0209        9.3953        9.4162       5.372100       0.01256
   7     480.5        4.0557        0.0229        9.3412        9.3640       5.308375       0.01252
   6     533.0        4.0707        0.0252        9.2740        9.2992       5.228502       0.01285
   5     589.8        4.0883        0.0277        9.1999        9.2277       5.139355       0.01323
   4     651.6        4.1095        0.0304        9.1162        9.1466       5.037097       0.01398
   3     718.7        4.1355        0.0333        9.0198        9.0532       4.917633       0.01501
   2     792.3        4.1686        0.0364        8.9061        8.9424       4.773848       0.01649
   1     891.5        4.2242        0.0403        8.7314        8.7717       4.547517       0.01926
   0    1013.0        4.3120        0.0449        8.4887        8.5336       4.221548       0.02263



 Wavenumbers:  8050. - 12850. cm-1, ATM      1
 LEVEL PRESSURE   UPWARD FLUX   DIFDOWN FLUX  DIRDOWN FLUX  DOWNWARD FLUX   NET FLUX    HEATING RATE
          mb          W/m2          W/m2          W/m2        W/m2          W/m2       degree/day
  51    .06700       76.8704        0.0000      140.2480      140.2480      63.377641       0.00000
  50    .07753       76.8704        0.0000      140.2480      140.2480      63.377641       0.00000
  49    .09103       76.8703        0.0001      140.2479      140.2480      63.377641       0.00000
  48    0.1069       76.8703        0.0001      140.2479      140.2480      63.377641       0.00000
  47    0.1255       76.8703        0.0002      140.2478      140.2479      63.377641       0.00000
  46    0.1487       76.8703        0.0002      140.2477      140.2479      63.377641      -0.00000
  45    0.1794       76.8702        0.0003      140.2476      140.2479      63.377641       0.00000
  44    0.2165       76.8702        0.0004      140.2474      140.2478      63.377641       0.00000
  43    0.2613       76.8701        0.0005      140.2472      140.2478      63.377641       0.00000
  42    0.3336       76.8700        0.0007      140.2470      140.2477      63.377641      -0.00000
  41    0.4307       76.8699        0.0010      140.2466      140.2476      63.377641       0.00000
  40    0.5894       76.8697        0.0014      140.2459      140.2474      63.377641       0.00000
  39     1.339       76.8688        0.0034      140.2430      140.2464      63.377641       0.00000
  38     1.782       76.8682        0.0046      140.2413      140.2459      63.377641       0.00000
  37     2.292       76.8676        0.0060      140.2392      140.2452      63.377641      -0.00000
  36     2.964       76.8667        0.0078      140.2366      140.2444      63.377641      -0.00000
  35     3.853       76.8656        0.0101      140.2331      140.2433      63.377641       0.00000
  34     5.035       76.8641        0.0133      140.2285      140.2418      63.377641       0.00000
  33     6.613       76.8621        0.0175      140.2223      140.2398      63.377641      -0.00000
  32     8.786       76.8595        0.0232      140.2139      140.2371      63.377641      -0.00000
  31     11.80       76.8556        0.0314      140.2019      140.2333      63.377641      -0.00000
  30     15.07       76.8515        0.0401      140.1890      140.2292      63.377641       0.00000
  29     18.79       76.8469        0.0500      140.1745      140.2245      63.377641      -0.00000
  28     23.16       76.8414        0.0616      140.1575      140.2191      63.377641       0.00000
  27     28.12       76.8352        0.0749      140.1380      140.2128      63.377641      -0.00000
  26     33.73       76.8282        0.0897      140.1161      140.2059      63.377641       0.00000
  25     40.54       76.8198        0.1077      140.0897      140.1974      63.377641      -0.00000
  24     48.69       76.8096        0.1294      140.0578      140.1872      63.377641      -0.00000
  23     57.69       76.7984        0.1533      140.0227      140.1760      63.377641       0.00000
  22     68.43       76.7850        0.1818      139.9808      140.1626      63.377641       0.00000
  21     81.20       76.7690        0.2158      139.9309      140.1466      63.377641       0.00000
  20     96.49       76.7499        0.2563      139.8713      140.1276      63.377641       0.00000
  19     114.6       76.7274        0.3046      139.7943      140.0989      63.371467       0.00288
  18     136.5       76.7006        0.3619      139.7025      140.0644      63.363809       0.00294
  17     162.9       76.6687        0.4302      139.5895      140.0197      63.351099       0.00406
  16     196.4       76.6272        0.5191      139.4266      139.9457      63.318529       0.00820
  15     218.7       76.6000        0.5776      139.2803      139.8578      63.257803       0.02306
  14     243.0       76.5709        0.6411      139.0457      139.6868      63.115894       0.04922
  13     269.0       76.5401        0.7098      138.6681      139.3779      62.837703       0.09024
  12     297.5       76.5087        0.7837      138.1256      138.9093      62.400576       0.12965
  11     328.5       76.4770        0.8633      137.4788      138.3421      61.865107       0.14559
  10     361.9       76.4462        0.9487      136.7014      137.6501      61.203938       0.16728
   9     398.1       76.4181        1.0400      135.7239      136.7639      60.345826       0.19992
   8     437.6       76.3961        1.1369      134.4747      135.6116      59.215543       0.24166
   7     480.5       76.3841        1.2394      132.9379      134.1772      57.793070       0.27937
   6     533.0       76.3913        1.3631      130.7757      132.1388      55.747454       0.32907
   5     589.8       76.4389        1.4924      128.0571      129.5495      53.110541       0.39140
   4     651.6       76.5732        1.6246      124.5088      126.1334      49.560229       0.48551
   3     718.7       76.8535        1.7586      120.2530      122.0115      45.158060       0.55323
   2     792.3       77.4097        1.8908      115.1786      117.0695      39.659788       0.63059
   1     891.5       78.8349        2.0504      107.8387      109.8891      31.054185       0.73230
   0    1013.0       82.2873        2.2204       99.4693      101.6897      19.402393       0.80904



 Wavenumbers: 12850. - 16000. cm-1, ATM      1
 LEVEL PRESSURE   UPWARD FLUX   DIFDOWN FLUX  DIRDOWN FLUX  DOWNWARD FLUX   NET FLUX    HEATING RATE
          mb          W/m2          W/m2          W/m2        W/m2          W/m2       degree/day
  51    .06700       69.6748        0.0000       87.8778       87.8778      18.202999       0.00000
  50    .07753       69.6748        0.0001       87.8769       87.8770      18.202210       0.63232
  49    .09103       69.6748        0.0002       87.8758       87.8760      18.201221       0.61827
  48    0.1069       69.6748        0.0002       87.8746       87.8748      18.200087       0.60385
  47    0.1255       69.6748        0.0004       87.8732       87.8735      18.198786       0.58963
  46    0.1487       69.6748        0.0005       87.8714       87.8719      18.197149       0.59684
  45    0.1794       69.6748        0.0007       87.8690       87.8697      18.194928       0.60966
  44    0.2165       69.6748        0.0009       87.8662       87.8672      18.192325       0.59216
  43    0.2613       69.6749        0.0012       87.8630       87.8642      18.189276       0.57475
  42    0.3336       69.6751        0.0016       87.8577       87.8594      18.184318       0.57800
  41    0.4307       69.6754        0.0022       87.8511       87.8533      18.177962       0.55266
  40    0.5894       69.6760        0.0032       87.8408       87.8440      18.168031       0.52811
  39     1.339       69.6813        0.0078       87.7973       87.8051      18.123792       0.49805
  38     1.782       69.6863        0.0105       87.7732       87.7837      18.097403       0.50241
  37     2.292       69.6938        0.0136       87.7446       87.7583      18.064437       0.54601
  36     2.964       69.7064        0.0177       87.7046       87.7223      18.015948       0.60868
  35     3.853       69.7267        0.0232       87.6469       87.6700      17.943342       0.68905
  34     5.035       69.7574        0.0303       87.5651       87.5954      17.838075       0.75198
  33     6.613       69.8002        0.0399       87.4537       87.4936      17.693433       0.77326
  32     8.786       69.8560        0.0529       87.3086       87.3615      17.505497       0.72988
  31     11.80       69.9284        0.0713       87.1164       87.1877      17.259295       0.68929
  30     15.07       69.9977        0.0911       86.9276       87.0188      17.021044       0.61512
  29     18.79       70.0683        0.1135       86.7304       86.8439      16.775530       0.55666
  28     23.16       70.1420        0.1395       86.5184       86.6580      16.515924       0.50199
  27     28.12       70.2160        0.1693       86.2973       86.4666      16.250602       0.45103
  26     33.73       70.2840        0.2026       86.0793       86.2819      15.997917       0.37992
  25     40.54       70.3492        0.2429       85.8501       86.0930      15.743846       0.31520
  24     48.69       70.4111        0.2914       85.6079       85.8993      15.488192       0.26456
  23     57.69       70.4630        0.3446       85.3750       85.7197      15.256664       0.21702
  22     68.43       70.5074        0.4081       85.1335       85.5416      15.034174       0.17491
  21     81.20       70.5365        0.4838       84.8929       85.3767      14.840163       0.12820
  20     96.49       70.5490        0.5740       84.6496       85.2236      14.674591       0.09138
  19     114.6       70.5655        0.6823       84.3807       85.0630      14.497502       0.08269
  18     136.5       70.5749        0.8106       84.0767       84.8873      14.312424       0.07117
  17     162.9       70.5766        0.9633       83.7249       84.6882      14.111556       0.06421
  16     196.4       70.5590        1.1612       83.2900       84.4513      13.892288       0.05519
  15     218.7       70.5402        1.2912       83.0109       84.3021      13.761903       0.04950
  14     243.0       70.5166        1.4324       82.7087       84.1411      13.624426       0.04768
  13     269.0       70.4881        1.5853       82.3820       83.9673      13.479213       0.04711
  12     297.5       70.4550        1.7505       82.0280       83.7785      13.323458       0.04620
  11     328.5       70.4189        1.9290       81.6428       83.5718      13.152866       0.04638
  10     361.9       70.3804        2.1210       81.2240       83.3451      12.964711       0.04760
   9     398.1       70.3404        2.3276       80.7673       83.0949      12.754543       0.04896
   8     437.6       70.3010        2.5492       80.2651       82.8144      12.513356       0.05157
   7     480.5       70.2644        2.7865       79.7115       82.4980      12.233618       0.05494
   6     533.0       70.2303        3.0781       79.0013       82.0794      11.849100       0.06186
   5     589.8       70.2148        3.3914       78.1863       81.5777      11.362875       0.07217
   4     651.6       70.2420        3.7259       77.2124       80.9383      10.696294       0.09116
   3     718.7       70.3276        4.0801       76.0734       80.1534       9.825865       0.10939
   2     792.3       70.5225        4.4502       74.7134       79.1636       8.641107       0.13588
   1     891.5       71.0291        4.9316       72.6565       77.5880       6.558949       0.17718
   0    1013.0       72.1170        5.4818       69.9938       75.4756       3.358665       0.22221



 Wavenumbers: 16000. - 22650. cm-1, ATM      1
 LEVEL PRESSURE   UPWARD FLUX   DIFDOWN FLUX  DIRDOWN FLUX  DOWNWARD FLUX   NET FLUX    HEATING RATE
          mb          W/m2          W/m2          W/m2        W/m2          W/m2       degree/day
  51    .06700      124.4776        0.0000      140.1114      140.1114      15.633784       0.00000
  50    .07753      124.4775        0.0004      140.1108      140.1112      15.633644       0.11199
  49    .09103      124.4775        0.0009      140.1101      140.1109      15.633441       0.12702
  48    0.1069      124.4774        0.0014      140.1092      140.1106      15.633169       0.14485
  47    0.1255      124.4774        0.0020      140.1082      140.1102      15.632805       0.16511
  46    0.1487      124.4774        0.0028      140.1069      140.1097      15.632268       0.19565
  45    0.1794      124.4774        0.0039      140.1050      140.1089      15.631429       0.23036
  44    0.2165      124.4775        0.0052      140.1026      140.1078      15.630291       0.25890
  43    0.2613      124.4777        0.0067      140.0998      140.1065      15.628747       0.29107
  42    0.3336      124.4782        0.0092      140.0948      140.1040      15.625811       0.34229
  41    0.4307      124.4790        0.0126      140.0879      140.1004      15.621386       0.38477
  40    0.5894      124.4809        0.0180      140.0758      140.0938      15.612946       0.44881
  39     1.339      124.4988        0.0438      140.0056      140.0494      15.550595       0.70196
  38     1.782      124.5160        0.0589      139.9545      140.0134      15.497483       1.01117
  37     2.292      124.5421        0.0765      139.8863      139.9627      15.420607       1.27326
  36     2.964      124.5861        0.0995      139.7827      139.8821      15.296079       1.56321
  35     3.853      124.6576        0.1298      139.6263      139.7561      15.098511       1.87496
  34     5.035      124.7660        0.1701      139.3997      139.5698      14.803817       2.10517
  33     6.613      124.9176        0.2238      139.0882      139.3120      14.394403       2.18873
  32     8.786      125.1150        0.2961      138.6807      138.9769      13.861875       2.06814
  31     11.80      125.3711        0.3994      138.1391      138.5385      13.167432       1.94422
  30     15.07      125.6156        0.5100      137.6053      138.1154      12.499795       1.72371
  29     18.79      125.8643        0.6348      137.0454      137.6803      11.815937       1.55052
  28     23.16      126.1231        0.7803      136.4407      137.2210      11.097829       1.38859
  27     28.12      126.3821        0.9463      135.8059      136.7521      10.370026       1.23722
  26     33.73      126.6187        1.1317      135.1738      136.3056       9.686851       1.02717
  25     40.54      126.8431        1.3556      134.4996      135.8552       9.012076       0.83714
  24     48.69      127.0538        1.6249      133.7734      135.3983       8.344496       0.69084
  23     57.69      127.2275        1.9203      133.0586      134.9789       7.751357       0.55598
  22     68.43      127.3722        2.2715      132.2956      134.5671       7.194930       0.43743
  21     81.20      127.4592        2.6894      131.5047      134.1941       6.734945       0.30395
  20     96.49      127.4837        3.1866      130.6714      133.8579       6.374209       0.19910
  19     114.6      127.4726        3.7746      129.7419      133.5166       6.043957       0.15420
  18     136.5      127.4322        4.4684      128.6831      133.1515       5.719309       0.12483
  17     162.9      127.3596        5.2899      127.4641      132.7539       5.394371       0.10386
  16     196.4      127.2121        6.3485      125.9660      132.3145       5.102402       0.07349
  15     218.7      127.0958        7.0394      125.0151      132.0545       4.958686       0.05456
  14     243.0      126.9608        7.7866      123.9995      131.7861       4.825299       0.04626
  13     269.0      126.8055        8.5919      122.9181      131.5100       4.704497       0.03919
  12     297.5      126.6292        9.4569      121.7689      131.2259       4.596627       0.03199
  11     328.5      126.4352       10.3857      120.5413      130.9270       4.491758       0.02851
  10     361.9      126.2233       11.3787      119.2346      130.6133       4.390027       0.02574
   9     398.1      125.9927       12.4396      117.8438      130.2833       4.290619       0.02316
   8     437.6      125.7443       13.5698      116.3651      129.9349       4.190632       0.02138
   7     480.5      125.4775       14.7711      114.7963      129.5673       4.089825       0.01980
   6     533.0      125.1504       16.2356      112.8847      129.1204       3.969960       0.01928
   5     589.8      124.8027       17.7972      110.8431      128.6403       3.837666       0.01964
   4     651.6      124.4395       19.4566      108.6613      128.1179       3.678381       0.02178
   3     718.7      124.0661       21.2146      106.3308      127.5453       3.479229       0.02503
   2     792.3      123.6966       23.0683      103.8369      126.9052       3.208544       0.03104
   1     891.5      123.2697       25.5207      100.4585      125.9792       2.709497       0.04247
   0    1013.0      122.8740       28.3889       96.4069      124.7958       1.921855       0.05469



 Wavenumbers: 22650. - 29000. cm-1, ATM      1
 LEVEL PRESSURE   UPWARD FLUX   DIFDOWN FLUX  DIRDOWN FLUX  DOWNWARD FLUX   NET FLUX    HEATING RATE
          mb          W/m2          W/m2          W/m2        W/m2          W/m2       degree/day
  51    .06700       52.3748        0.0000       52.8729       52.8729       0.498183       0.00000
  50    .07753       52.3746        0.0004       52.8724       52.8728       0.498183       0.00000
  49    .09103       52.3745        0.0010       52.8717       52.8727       0.498183       0.00000
  48    0.1069       52.3743        0.0016       52.8709       52.8725       0.498183      -0.00000
  47    0.1255       52.3742        0.0024       52.8700       52.8724       0.498183      -0.00000
  46    0.1487       52.3739        0.0033       52.8688       52.8721       0.498183      -0.00000
  45    0.1794       52.3736        0.0046       52.8672       52.8718       0.498183       0.00000
  44    0.2165       52.3733        0.0061       52.8654       52.8714       0.498183       0.00000
  43    0.2613       52.3728        0.0078       52.8632       52.8710       0.498183       0.00000
  42    0.3336       52.3721        0.0108       52.8595       52.8703       0.498183       0.00000
  41    0.4307       52.3711        0.0147       52.8546       52.8693       0.498183      -0.00000
  40    0.5894       52.3696        0.0211       52.8467       52.8677       0.498183       0.00000
  39     1.339       52.3621        0.0512       52.8091       52.8603       0.498183      -0.00000
  38     1.782       52.3578        0.0689       52.7870       52.8559       0.498183       0.00000
  37     2.292       52.3527        0.0894       52.7615       52.8509       0.498183      -0.00000
  36     2.964       52.3461        0.1163       52.7280       52.8443       0.498183       0.00000
  35     3.853       52.3373        0.1518       52.6837       52.8355       0.498183       0.00000
  34     5.035       52.3257        0.1989       52.6250       52.8239       0.498183      -0.00000
  33     6.613       52.3102        0.2618       52.5465       52.8084       0.498183       0.00000
  32     8.786       52.2893        0.3465       52.4409       52.7875       0.498183      -0.00000
  31     11.80       52.2595        0.4675       52.2901       52.7576       0.498183       0.00000
  30     15.07       52.2275        0.5971       52.1286       52.7257       0.498183       0.00000
  29     18.79       52.1915        0.7432       51.9465       52.6897       0.498183       0.00000
  28     23.16       52.1495        0.9133       51.7344       52.6477       0.498183      -0.00000
  27     28.12       52.1017        1.1071       51.4927       52.5999       0.498183       0.00000
  26     33.73       52.0484        1.3232       51.2233       52.5466       0.498183       0.00000
  25     40.54       51.9843        1.5830       50.8994       52.4825       0.498183      -0.00000
  24     48.69       51.9074        1.8944       50.5113       52.4056       0.498183       0.00000
  23     57.69       51.8236        2.2339       50.0879       52.3218       0.498183       0.00000
  22     68.43       51.7246        2.6351       49.5877       52.2228       0.498183      -0.00000
  21     81.20       51.6078        3.1082       48.9977       52.1060       0.498183       0.00000
  20     96.49       51.4702        3.6652       48.3032       51.9684       0.498183       0.00000
  19     114.6       51.3092        4.3169       47.4905       51.8074       0.498183      -0.00000
  18     136.5       51.1216        5.0759       46.5439       51.6198       0.498183       0.00000
  17     162.9       50.9027        5.9609       45.4400       51.4009       0.498183      -0.00000
  16     196.4       50.6261        7.0787       44.0455       51.1243       0.498183       0.00000
  15     218.7       50.4487        7.7950       43.1519       50.9469       0.498183       0.00000
  14     243.0       50.2597        8.5578       42.2001       50.7579       0.498183       0.00000
  13     269.0       50.0593        9.3665       41.1910       50.5575       0.498183      -0.00000
  12     297.5       49.8477       10.2197       40.1262       50.3458       0.498183       0.00000
  11     328.5       49.6246       11.1183       39.0044       50.1228       0.498183       0.00000
  10     361.9       49.3908       12.0595       37.8295       49.8890       0.498183      -0.00000
   9     398.1       49.1463       13.0428       36.6017       49.6445       0.498183       0.00000
   8     437.6       48.8918       14.0655       35.3244       49.3899       0.498183      -0.00000
   7     480.5       48.6278       15.1249       34.0010       49.1260       0.498183       0.00000
   6     533.0       48.3149       16.3789       32.4341       48.8131       0.498183       0.00000
   5     589.8       47.9918       17.6717       30.8184       48.4900       0.498183      -0.00000
   4     651.6       47.6602       18.9965       29.1618       48.1583       0.498183      -0.00000
   3     718.7       47.3212       20.3475       27.4718       47.8194       0.498183       0.00000
   2     792.3       46.9774       21.7146       25.7609       47.4755       0.498183      -0.00000
   1     891.5       46.5424       23.4385       23.6021       47.0406       0.498183      -0.00000
   0    1013.0       46.0610       25.3381       21.2211       46.5591       0.498183       0.00000



 Wavenumbers: 29000. - 38000. cm-1, ATM      1
 LEVEL PRESSURE   UPWARD FLUX   DIFDOWN FLUX  DIRDOWN FLUX  DOWNWARD FLUX   NET FLUX    HEATING RATE
          mb          W/m2          W/m2          W/m2        W/m2          W/m2       degree/day
  51    .06700        7.7474        0.0000       18.6452       18.6452      10.897767       0.00000
  50    .07753        7.7472        0.0003       18.6409       18.6412      10.893962       3.04964
  49    .09103        7.7470        0.0007       18.6347       18.6354      10.888429       3.45803
  48    0.1069        7.7467        0.0012       18.6266       18.6278      10.881027       3.94007
  47    0.1255        7.7464        0.0017       18.6159       18.6176      10.871136       4.48400
  46    0.1487        7.7461        0.0023       18.6003       18.6027      10.856601       5.29841
  45    0.1794        7.7456        0.0032       18.5763       18.5796      10.833995       6.20580
  44    0.2165        7.7450        0.0043       18.5443       18.5486      10.803583       6.91815
  43    0.2613        7.7444        0.0055       18.5017       18.5072      10.762794       7.68857
  42    0.3336        7.7434        0.0075       18.4227       18.4302      10.686792       8.86115
  41    0.4307        7.7422        0.0102       18.3080       18.3181      10.575921       9.63999
  40    0.5894        7.7404        0.0144       18.1027       18.1171      10.376658      10.59653
  39     1.339        7.7356        0.0323       16.9851       17.0174       9.281781      12.32633
  38     1.782        7.7350        0.0415       16.3740       16.4155       8.680500      11.44743
  37     2.292        7.7362        0.0514       15.7638       15.8153       8.079043       9.96169
  36     2.964        7.7405        0.0637       15.1004       15.1641       7.423558       8.22832
  35     3.853        7.7499        0.0790       14.3942       14.4732       6.723316       6.64542
  34     5.035        7.7660        0.0983       13.6771       13.7753       6.009277       5.10080
  33     6.613        7.7898        0.1229       12.9810       13.1039       5.314023       3.71683
  32     8.786        7.8214        0.1551       12.3230       12.4781       4.656713       2.55276
  31     11.80        7.8622        0.1997       11.6761       11.8758       4.013558       1.80063
  30     15.07        7.9012        0.2461       11.1793       11.4254       3.524156       1.26354
  29     18.79        7.9412        0.2971       10.7472       11.0443       3.103077       0.95471
  28     23.16        7.9832        0.3551       10.3467       10.7018       2.718523       0.74360
  27     28.12        8.0257        0.4198        9.9766       10.3964       2.370720       0.59124
  26     33.73        8.0638        0.4911        9.6455       10.1367       2.072863       0.44784
  25     40.54        8.0984        0.5760        9.3230        9.8990       1.800575       0.33780
  24     48.69        8.1292        0.6764        9.0017        9.6781       1.548867       0.26048
  23     57.69        8.1522        0.7847        8.7052        9.4899       1.337664       0.19797
  22     68.43        8.1676        0.9115        8.4051        9.3167       1.149044       0.14828
  21     81.20        8.1678        1.0606        8.1067        9.1673       0.999579       0.09876
  20     96.49        8.1509        1.2352        7.8021        9.0373       0.886359       0.06249
  19     114.6        8.1238        1.4362        7.4737        8.9099       0.786110       0.04681
  18     136.5        8.0886        1.6650        7.1140        8.7790       0.690381       0.03681
  17     162.9        8.0453        1.9246        6.7179        8.6425       0.597197       0.02979
  16     196.4        7.9822        2.2440        6.2539        8.4979       0.515720       0.02051
  15     218.7        7.9394        2.4435        5.9721        8.4156       0.476180       0.01501
  14     243.0        7.8936        2.6510        5.6824        8.3334       0.439803       0.01262
  13     269.0        7.8446        2.8658        5.3861        8.2519       0.407249       0.01056
  12     297.5        7.7927        3.0867        5.0847        8.1714       0.378655       0.00848
  11     328.5        7.7393        3.3118        4.7788        8.0907       0.351403       0.00741
  10     361.9        7.6845        3.5400        4.4702        8.0101       0.325565       0.00654
   9     398.1        7.6287        3.7705        4.1595        7.9299       0.301173       0.00568
   8     437.6        7.5726        4.0013        3.8490        7.8503       0.277742       0.00501
   7     480.5        7.5165        4.2300        3.5422        7.7721       0.255583       0.00435
   6     533.0        7.4529        4.4883        3.1960        7.6844       0.231515       0.00387
   5     589.8        7.3908        4.7400        2.8590        7.5991       0.208302       0.00345
   4     651.6        7.3310        4.9826        2.5340        7.5166       0.185669       0.00310
   3     718.7        7.2742        5.2139        2.2238        7.4377       0.163575       0.00278
   2     792.3        7.2210        5.4317        1.9313        7.3630       0.142014       0.00247
   1     891.5        7.1605        5.6829        1.5931        7.2760       0.115476       0.00226
   0    1013.0        7.1028        5.9295        1.2595        7.1891       0.086269       0.00203



 Wavenumbers: 38000. - 50000. cm-1, ATM      1
 LEVEL PRESSURE   UPWARD FLUX   DIFDOWN FLUX  DIRDOWN FLUX  DOWNWARD FLUX   NET FLUX    HEATING RATE
          mb          W/m2          W/m2          W/m2        W/m2          W/m2       degree/day
  51    .06700        0.0059        0.0000        1.1500        1.1500       1.144153       0.00000
  50    .07753        0.0058        0.0001        1.1476        1.1476       1.141818       1.87101
  49    .09103        0.0057        0.0002        1.1441        1.1442       1.138488       2.08128
  48    0.1069        0.0057        0.0002        1.1395        1.1398       1.134114       2.32829
  47    0.1255        0.0056        0.0004        1.1336        1.1339       1.128368       2.60502
  46    0.1487        0.0054        0.0005        1.1250        1.1255       1.120062       3.02785
  45    0.1794        0.0053        0.0007        1.1120        1.1126       1.107339       3.49271
  44    0.2165        0.0051        0.0009        1.0947        1.0956       1.090502       3.83000
  43    0.2613        0.0049        0.0011        1.0721        1.0732       1.068324       4.18050
  42    0.3336        0.0046        0.0015        1.0311        1.0326       1.027969       4.70496
  41    0.4307        0.0042        0.0019        0.9732        0.9752       0.970929       4.95953
  40    0.5894        0.0037        0.0025        0.8748        0.8773       0.873681       5.17154
  39     1.339        0.0020        0.0034        0.4482        0.4515       0.449520       4.77528
  38     1.782        0.0015        0.0030        0.2928        0.2959       0.294425       2.95275
  37     2.292        0.0011        0.0026        0.1874        0.1900       0.188952       1.74691
  36     2.964        0.0008        0.0021        0.1145        0.1165       0.115788       0.91843
  35     3.853        0.0005        0.0016        0.0663        0.0679       0.067417       0.45905
  34     5.035        0.0003        0.0012        0.0371        0.0383       0.037925       0.21068
  33     6.613        0.0002        0.0009        0.0201        0.0210       0.020805       0.09152
  32     8.786        0.0001        0.0006        0.0101        0.0107       0.010590       0.03967
  31     11.80        0.0001        0.0004        0.0043        0.0046       0.004583       0.01682
  30     15.07        0.0000        0.0002        0.0019        0.0021       0.002081       0.00646
  29     18.79        0.0000        0.0001        0.0008        0.0009       0.000933       0.00260
  28     23.16        0.0000        0.0001        0.0003        0.0004       0.000400       0.00103
  27     28.12        0.0000        0.0000        0.0001        0.0002       0.000166       0.00040
  26     33.73        0.0000        0.0000        0.0001        0.0001       0.000069       0.00015
  25     40.54        0.0000        0.0000        0.0000        0.0000       0.000027       0.00005
  24     48.69        0.0000        0.0000        0.0000        0.0000       0.000009       0.00002
  23     57.69        0.0000        0.0000        0.0000        0.0000       0.000003       0.00001
  22     68.43        0.0000        0.0000        0.0000        0.0000       0.000001       0.00000
  21     81.20        0.0000        0.0000        0.0000        0.0000       0.000000       0.00000
  20     96.49        0.0000        0.0000        0.0000        0.0000       0.000000       0.00000
  19     114.6        0.0000        0.0000        0.0000        0.0000       0.000000       0.00000
  18     136.5        0.0000        0.0000        0.0000        0.0000       0.000000       0.00000
  17     162.9        0.0000        0.0000        0.0000        0.0000       0.000000       0.00000
  16     196.4        0.0000        0.0000        0.0000        0.0000       0.000000       0.00000
  15     218.7        0.0000        0.0000        0.0000        0.0000       0.000000       0.00000
  14     243.0        0.0000        0.0000        0.0000        0.0000       0.000000       0.00000
  13     269.0        0.0000        0.0000        0.0000        0.0000       0.000000       0.00000
  12     297.5        0.0000        0.0000        0.0000        0.0000       0.000000       0.00000
  11     328.5        0.0000        0.0000        0.0000        0.0000       0.000000       0.00000
  10     361.9        0.0000        0.0000        0.0000        0.0000       0.000000       0.00000
   9     398.1        0.0000        0.0000        0.0000        0.0000       0.000000       0.00000
   8     437.6        0.0000        0.0000        0.0000        0.0000       0.000000       0.00000
   7     480.5        0.0000        0.0000        0.0000        0.0000       0.000000       0.00000
   6     533.0        0.0000        0.0000        0.0000        0.0000       0.000000       0.00000
   5     589.8        0.0000        0.0000        0.0000        0.0000       0.000000       0.00000
   4     651.6        0.0000        0.0000        0.0000        0.0000       0.000000       0.00000
   3     718.7        0.0000        0.0000        0.0000        0.0000       0.000000       0.00000
   2     792.3        0.0000        0.0000        0.0000        0.0000       0.000000       0.00000
   1     891.5        0.0000        0.0000        0.0000        0.0000       0.000000       0.00000
   0    1013.0        0.0000        0.0000        0.0000        0.0000       0.000000       0.00000



 Wavenumbers:   820. -  2600. cm-1, ATM      1
 LEVEL PRESSURE   UPWARD FLUX   DIFDOWN FLUX  DIRDOWN FLUX  DOWNWARD FLUX   NET FLUX    HEATING RATE
          mb          W/m2          W/m2          W/m2        W/m2          W/m2       degree/day
  51    .06700        0.0113        0.0000        5.3797        5.3797       5.368389       0.00000
  50    .07753        0.0113        0.0000        5.3761        5.3761       5.364859       2.82933
  49    .09103        0.0113        0.0000        5.3753        5.3753       5.363993       0.54149
  48    0.1069        0.0113        0.0000        5.3743        5.3743       5.363023       0.51635
  47    0.1255        0.0113        0.0000        5.3732        5.3732       5.361938       0.49190
  46    0.1487        0.0113        0.0000        5.3719        5.3719       5.360633       0.47538
  45    0.1794        0.0113        0.0000        5.3703        5.3703       5.359002       0.44790
  44    0.2165        0.0113        0.0000        5.3685        5.3685       5.357273       0.39325
  43    0.2613        0.0113        0.0000        5.3667        5.3667       5.355443       0.34502
  42    0.3336        0.0113        0.0000        5.3640        5.3640       5.352738       0.31530
  41    0.4307        0.0113        0.0000        5.3607        5.3607       5.349422       0.28831
  40    0.5894        0.0113        0.0000        5.3554        5.3554       5.344087       0.28373
  39     1.339        0.0113        0.0000        5.3308        5.3308       5.319494       0.27687
  38     1.782        0.0113        0.0000        5.3172        5.3172       5.305889       0.25902
  37     2.292        0.0113        0.0000        5.3020        5.3020       5.290763       0.25052
  36     2.964        0.0113        0.0000        5.2831        5.2831       5.271876       0.23710
  35     3.853        0.0113        0.0000        5.2597        5.2597       5.248483       0.22200
  34     5.035        0.0113        0.0000        5.2308        5.2308       5.219582       0.20646
  33     6.613        0.0113        0.0000        5.1949        5.1949       5.183638       0.19216
  32     8.786        0.0113        0.0000        5.1502        5.1502       5.138940       0.17359
  31     11.80        0.0113        0.0000        5.0959        5.0959       5.084606       0.15212
  30     15.07        0.0113        0.0000        5.0515        5.0515       5.040192       0.11467
  29     18.79        0.0113        0.0000        5.0158        5.0158       5.004578       0.08075
  28     23.16        0.0113        0.0000        4.9869        4.9869       4.975675       0.05589
  27     28.12        0.0113        0.0000        4.9621        4.9621       4.950855       0.04219
  26     33.73        0.0113        0.0000        4.9384        4.9384       4.927148       0.03565
  25     40.54        0.0113        0.0000        4.9117        4.9117       4.900451       0.03312
  24     48.69        0.0113        0.0000        4.8809        4.8809       4.869598       0.03193
  23     57.69        0.0113        0.0000        4.8479        4.8479       4.836647       0.03089
  22     68.43        0.0113        0.0000        4.8098        4.8098       4.798531       0.02996
  21     81.20        0.0113        0.0000        4.7664        4.7664       4.755192       0.02864
  20     96.49        0.0113        0.0000        4.7170        4.7170       4.705736       0.02730
  19     114.6        0.0113        0.0000        4.6606        4.6606       4.649315       0.02635
  18     136.5        0.0113        0.0000        4.5971        4.5971       4.585881       0.02439
  17     162.9        0.0113        0.0000        4.5202        4.5203       4.509000       0.02457
  16     196.4        0.0113        0.0000        4.4083        4.4083       4.397042       0.02818
  15     218.7        0.0112        0.0000        4.3109        4.3109       4.299694       0.03696
  14     243.0        0.0113        0.0000        4.1781        4.1782       4.166908       0.04605
  13     269.0        0.0113        0.0000        4.0260        4.0260       4.014733       0.04937
  12     297.5        0.0113        0.0000        3.8498        3.8498       3.838542       0.05226
  11     328.5        0.0113        0.0000        3.6472        3.6472       3.635952       0.05508
  10     361.9        0.0113        0.0000        3.4144        3.4145       3.403181       0.05889
   9     398.1        0.0113        0.0000        3.1778        3.1779       3.166566       0.05513
   8     437.6        0.0113        0.0000        2.9709        2.9710       2.959638       0.04424
   7     480.5        0.0113        0.0000        2.8202        2.8202       2.808876       0.02961
   6     533.0        0.0114        0.0000        2.6905        2.6906       2.679166       0.02087
   5     589.8        0.0115        0.0000        2.5565        2.5565       2.545072       0.01990
   4     651.6        0.0116        0.0000        2.3859        2.3859       2.374336       0.02335
   3     718.7        0.0118        0.0000        2.1932        2.1932       2.181397       0.02425
   2     792.3        0.0122        0.0000        1.9869        1.9870       1.974736       0.02370
   1     891.5        0.0133        0.0000        1.7010        1.7011       1.687752       0.02442
   0    1013.0        0.0161        0.0000        1.3157        1.3158       1.299723       0.02694

  Modules and versions used in this calculation:

       rrtmg_sw.1col.f90:  $Revision$                    rrtmg_sw_init.f90:  $Revision$        
     rrtmgsw_cldprop.f90:  $Revision$                  rrtmgsw_cldprmc.f90:  NOT USED          
     rrtmg_sw_reftra.f90:  $Revision$                  rrtmg_sw_spcvrt.f90:  NOT USED          
     rrtmg_sw_spcvmc.f90:  NOT USED                    rrtmgsw_setcoef.f90:  NOT USED          
     rrtmg_sw_taumol.f90:  $Revision$                  rrtmg_sw_vrtqdr.f90:  NOT USED          
                rrtatm.f:  NOT USED                             util_xxx.f:  NOT USED          
                 extra.f:  NOT USED                       rrtmg_sw_k_g.f90:  $Revision$        

