

 Wavenumbers:   820. - 50000. cm-1, ATM      1
 LEVEL PRESSURE   UPWARD FLUX   DIFDOWN FLUX  DIRDOWN FLUX  DOWNWARD FLUX   NET FLUX    HEATING RATE
          mb          W/m2          W/m2          W/m2        W/m2          W/m2       degree/day
  51    .06700      426.9440        0.0000      700.8891      700.8891     273.945153       0.00000
  50    .07753      426.9437        0.0014      700.8707      700.8721     273.928434      13.40054
  49    .09103      426.9433        0.0032      700.8534      700.8566     273.913274       9.47551
  48    0.1069      426.9429        0.0052      700.8334      700.8386     273.895717       9.34578
  47    0.1255      426.9425        0.0075      700.8091      700.8166     273.874105       9.79797
  46    0.1487      426.9420        0.0104      700.7757      700.7861     273.844103      10.93611
  45    0.1794      426.9415        0.0144      700.7265      700.7409     273.799383      12.27656
  44    0.2165      426.9410        0.0191      700.6633      700.6824     273.741379      13.19492
  43    0.2613      426.9406        0.0247      700.5819      700.6065     273.665907      14.22608
  42    0.3336      426.9403        0.0338      700.4354      700.4692     273.528881      15.97595
  41    0.4307      426.9404        0.0459      700.2273      700.2732     273.332862      17.04335
  40    0.5894      426.9415        0.0653      699.8612      699.9265     272.985024      18.49759
  39     1.339      426.9667        0.1538      697.9095      698.0633     271.096611      21.26010
  38     1.782      426.9954        0.2034      696.8432      697.0466     270.051191      19.90312
  37     2.292      427.0411        0.2601      695.7777      696.0378     268.996717      17.46483
  36     2.964      427.1202        0.3339      694.6166      694.9505     267.830336      14.64161
  35     3.853      427.2512        0.4306      693.3532      693.7838     266.532617      12.31560
  34     5.035      427.4512        0.5581      691.9793      692.5374     265.086178      10.33276
  33     6.613      427.7326        0.7630      690.4948      691.2578     263.525184       8.34508
  32     8.786      428.0990        0.9808      688.8809      689.8616     261.762595       6.84526
  31     11.80      428.5756        1.3075      687.0108      688.3182     259.742631       5.65526
  30     15.07      429.0316        1.6494      685.3301      686.9795     257.947839       4.63381
  29     18.79      429.4971        2.0369      683.6697      685.7066     256.209438       3.94149
  28     23.16      429.9836        2.4866      681.9478      684.4345     254.450839       3.40056
  27     28.12      430.4729        2.9998      680.1843      683.1842     252.711211       2.95725
  26     33.73      430.9222        3.5735      678.4373      682.0108     251.088546       2.43972
  25     40.54      431.3504        4.2652      676.5605      680.8257     249.475331       2.00138
  24     48.69      431.7552        5.0965      674.5179      679.6144     247.859211       1.67243
  23     57.69      432.0916        6.0062      672.4737      678.4799     246.388262       1.37879
  22     68.43      432.3744        7.0855      670.2400      677.3255     244.951094       1.12981
  21     81.20      432.5472        8.3671      667.8297      676.1968     243.649613       0.86000
  20     96.49      432.6001        9.8868      665.1892      675.0760     242.475985       0.64776
  19     114.6      432.5997       11.6776      662.1829      673.8604     241.260703       0.56745
  18     136.5      432.5469       13.7777      658.7496      672.5273     239.980411       0.49230
  17     162.9      432.4379       16.2470      654.7543      671.0013     238.563447       0.45292
  16     196.4      432.1923       19.4034      649.6088      669.0122     236.819872       0.43888
  15     218.7      431.9950       21.4480      645.9314      667.3794     235.384441       0.54498
  14     243.0      431.7667       23.6445      641.4347      665.0792     233.312410       0.71865
  13     269.0      431.5066       25.9953      635.8219      661.8172     230.310629       0.97376
  12     297.5      431.2166       28.5017      629.0631      657.5649     226.348316       1.17518
  11     328.5      430.9058       31.1713      621.7465      652.9177     222.011945       1.17905
  10     361.9      430.5775       34.0016      613.8391      647.8406     217.263128       1.20150
   9     398.1      430.2362       36.9977      605.1364      642.1341     211.897900       1.24998
   8     437.6      429.8924       40.1588      595.5028      635.6616     205.769137       1.31037
   7     480.5      429.5557       43.4847      585.1288      628.6135     199.057840       1.31807
   6     533.0      429.2022       47.5013      572.4011      619.9024     190.700213       1.34448
   5     589.8      428.9332       51.7138      558.5404      610.2542     181.321029       1.39218
   4     651.6      428.8702       56.1315      542.9091      599.0406     170.170369       1.52488
   3     718.7      429.1488       60.7419      526.0373      586.7792     157.630358       1.57593
   2     792.3      430.0903       65.5246      507.7692      573.2938     143.203435       1.65461
   1     891.5      433.0390       71.7311      483.1004      554.8314     121.792417       1.82197
   0    1013.0      440.9811       78.8185      454.9971      533.8156      92.834518       2.01070



 Wavenumbers:  2600. -  3250. cm-1, ATM      1
 LEVEL PRESSURE   UPWARD FLUX   DIFDOWN FLUX  DIRDOWN FLUX  DOWNWARD FLUX   NET FLUX    HEATING RATE
          mb          W/m2          W/m2          W/m2        W/m2          W/m2       degree/day
  51    .06700        1.1602        0.0000        6.1772        6.1772       5.017001       0.00000
  50    .07753        1.1602        0.0000        6.1772        6.1772       5.016993       0.00640
  49    .09103        1.1602        0.0000        6.1772        6.1772       5.016983       0.00627
  48    0.1069        1.1602        0.0000        6.1772        6.1772       5.016972       0.00613
  47    0.1255        1.1602        0.0000        6.1772        6.1772       5.016959       0.00600
  46    0.1487        1.1602        0.0000        6.1772        6.1772       5.016942       0.00608
  45    0.1794        1.1602        0.0000        6.1771        6.1771       5.016919       0.00625
  44    0.2165        1.1602        0.0000        6.1771        6.1771       5.016892       0.00612
  43    0.2613        1.1602        0.0000        6.1771        6.1771       5.016860       0.00600
  42    0.3336        1.1602        0.0000        6.1770        6.1770       5.016807       0.00617
  41    0.4307        1.1602        0.0000        6.1770        6.1770       5.016736       0.00621
  40    0.5894        1.1602        0.0000        6.1768        6.1768       5.016616       0.00637
  39     1.339        1.1602        0.0000        6.1761        6.1761       5.015907       0.00799
  38     1.782        1.1602        0.0000        6.1756        6.1756       5.015361       0.01039
  37     2.292        1.1602        0.0000        6.1749        6.1749       5.014640       0.01194
  36     2.964        1.1602        0.0000        6.1738        6.1738       5.013591       0.01317
  35     3.853        1.1602        0.0000        6.1723        6.1723       5.012091       0.01423
  34     5.035        1.1602        0.0000        6.1702        6.1702       5.009990       0.01500
  33     6.613        1.1602        0.0000        6.1673        6.1673       5.007122       0.01534
  32     8.786        1.1602        0.0000        6.1635        6.1635       5.003325       0.01474
  31     11.80        1.1602        0.0000        6.1584        6.1585       4.998232       0.01426
  30     15.07        1.1602        0.0000        6.1535        6.1535       4.993313       0.01270
  29     18.79        1.1602        0.0000        6.1487        6.1487       4.988449       0.01103
  28     23.16        1.1602        0.0000        6.1437        6.1437       4.983479       0.00961
  27     28.12        1.1602        0.0000        6.1386        6.1386       4.978378       0.00867
  26     33.73        1.1602        0.0000        6.1330        6.1330       4.972750       0.00846
  25     40.54        1.1602        0.0000        6.1257        6.1257       4.965482       0.00902
  24     48.69        1.1602        0.0000        6.1160        6.1160       4.955747       0.01007
  23     57.69        1.1603        0.0000        6.1040        6.1040       4.943735       0.01126
  22     68.43        1.1603        0.0000        6.0882        6.0882       4.927935       0.01242
  21     81.20        1.1603        0.0000        6.0679        6.0679       4.907624       0.01342
  20     96.49        1.1603        0.0000        6.0425        6.0426       4.882213       0.01402
  19     114.6        1.1604        0.0000        6.0111        6.0111       4.850701       0.01471
  18     136.5        1.1605        0.0001        5.9741        5.9742       4.813687       0.01423
  17     162.9        1.1606        0.0001        5.9317        5.9317       4.771131       0.01360
  16     196.4        1.1608        0.0001        5.8800        5.8801       4.719229       0.01306
  15     218.7        1.1611        0.0001        5.8456        5.8457       4.684596       0.01315
  14     243.0        1.1615        0.0001        5.8045        5.8046       4.643130       0.01438
  13     269.0        1.1621        0.0001        5.7542        5.7543       4.592254       0.01650
  12     297.5        1.1630        0.0001        5.6930        5.6931       4.530111       0.01843
  11     328.5        1.1643        0.0001        5.6224        5.6225       4.458233       0.01954
  10     361.9        1.1660        0.0001        5.5383        5.5385       4.372413       0.02171
   9     398.1        1.1684        0.0002        5.4334        5.4335       4.265085       0.02500
   8     437.6        1.1716        0.0002        5.2990        5.2992       4.127551       0.02941
   7     480.5        1.1760        0.0002        5.1311        5.1313       3.955277       0.03383
   6     533.0        1.1829        0.0002        4.8991        4.8993       3.716365       0.03843
   5     589.8        1.1932        0.0002        4.6246        4.6248       3.431602       0.04227
   4     651.6        1.2095        0.0002        4.3061        4.3063       3.096782       0.04579
   3     718.7        1.2348        0.0002        3.9652        3.9654       2.730592       0.04602
   2     792.3        1.2763        0.0002        3.5850        3.5852       2.308937       0.04836
   1     891.5        1.3711        0.0002        3.0571        3.0573       1.686250       0.05299
   0    1013.0        1.5999        0.0002        2.4883        2.4885       0.888655       0.05538



 Wavenumbers:  3250. -  4000. cm-1, ATM      1
 LEVEL PRESSURE   UPWARD FLUX   DIFDOWN FLUX  DIRDOWN FLUX  DOWNWARD FLUX   NET FLUX    HEATING RATE
          mb          W/m2          W/m2          W/m2        W/m2          W/m2       degree/day
  51    .06700        0.0006        0.0000       10.4139       10.4139      10.413286       0.00000
  50    .07753        0.0006        0.0000       10.4089       10.4089      10.408282       4.01017
  49    .09103        0.0006        0.0000       10.4052       10.4052      10.404598       2.30264
  48    0.1069        0.0006        0.0000       10.4024       10.4024      10.401831       1.47329
  47    0.1255        0.0006        0.0000       10.4000       10.4000      10.399391       1.10609
  46    0.1487        0.0006        0.0000       10.3974       10.3974      10.396784       0.95033
  45    0.1794        0.0006        0.0000       10.3943       10.3943      10.393696       0.84768
  44    0.2165        0.0006        0.0000       10.3911       10.3911      10.390532       0.71980
  43    0.2613        0.0006        0.0000       10.3879       10.3879      10.387286       0.61178
  42    0.3336        0.0006        0.0000       10.3833       10.3833      10.382735       0.53066
  41    0.4307        0.0006        0.0000       10.3782       10.3782      10.377615       0.44515
  40    0.5894        0.0006        0.0000       10.3708       10.3708      10.370216       0.39348
  39     1.339        0.0006        0.0000       10.3426       10.3426      10.341966       0.31804
  38     1.782        0.0006        0.0000       10.3300       10.3300      10.329383       0.23956
  37     2.292        0.0006        0.0000       10.3179       10.3179      10.317299       0.20013
  36     2.964        0.0006        0.0000       10.3044       10.3044      10.303776       0.16976
  35     3.853        0.0006        0.0000       10.2885       10.2885      10.287896       0.15070
  34     5.035        0.0006        0.0000       10.2687       10.2687      10.268101       0.14140
  33     6.613        0.0006        0.0000       10.2426       10.2426      10.241987       0.13961
  32     8.786        0.0006        0.0000       10.2064       10.2064      10.205772       0.14065
  31     11.80        0.0006        0.0000       10.1525       10.1525      10.151910       0.15080
  30     15.07        0.0006        0.0000       10.0928       10.0928      10.092252       0.15402
  29     18.79        0.0006        0.0000       10.0243       10.0243      10.023722       0.15538
  28     23.16        0.0006        0.0000        9.9446        9.9447       9.944100       0.15396
  27     28.12        0.0006        0.0000        9.8567        9.8567       9.856133       0.14954
  26     33.73        0.0006        0.0000        9.7648        9.7648       9.764245       0.13816
  25     40.54        0.0006        0.0001        9.6639        9.6640       9.663424       0.12508
  24     48.69        0.0005        0.0001        9.5560        9.5560       9.555496       0.11169
  23     57.69        0.0005        0.0001        9.4487        9.4488       9.448294       0.10049
  22     68.43        0.0005        0.0001        9.3290        9.3290       9.328525       0.09415
  21     81.20        0.0005        0.0001        9.1906        9.1907       9.190193       0.09141
  20     96.49        0.0005        0.0001        9.0288        9.0289       9.028443       0.08927
  19     114.6        0.0005        0.0001        8.8349        8.8351       8.834602       0.09051
  18     136.5        0.0004        0.0002        8.6188        8.6190       8.618577       0.08307
  17     162.9        0.0004        0.0002        8.3676        8.3678       8.367395       0.08029
  16     196.4        0.0004        0.0002        8.0085        8.0087       8.008343       0.09038
  15     218.7        0.0003        0.0002        7.6747        7.6749       7.674561       0.12672
  14     243.0        0.0003        0.0002        7.2232        7.2234       7.223122       0.15657
  13     269.0        0.0003        0.0003        6.6545        6.6547       6.654424       0.18448
  12     297.5        0.0003        0.0003        5.9999        6.0002       5.999877       0.19413
  11     328.5        0.0003        0.0002        5.3378        5.3380       5.337778       0.18002
  10     361.9        0.0002        0.0002        4.6890        4.6892       4.688952       0.16416
   9     398.1        0.0002        0.0002        4.0779        4.0781       4.077879       0.14237
   8     437.6        0.0002        0.0002        3.5121        3.5123       3.512066       0.12097
   7     480.5        0.0002        0.0002        3.0027        3.0029       3.002654       0.10005
   6     533.0        0.0002        0.0002        2.4633        2.4635       2.463338       0.08676
   5     589.8        0.0002        0.0002        1.9505        1.9506       1.950435       0.07613
   4     651.6        0.0002        0.0001        1.4253        1.4255       1.425268       0.07182
   3     718.7        0.0003        0.0001        0.9366        0.9367       0.936396       0.06144
   2     792.3        0.0004        0.0001        0.5289        0.5290       0.528542       0.04678
   1     891.5        0.0013        0.0000        0.1734        0.1734       0.172161       0.03033
   0    1013.0        0.0123        0.0000        0.0192        0.0192       0.006857       0.01148



 Wavenumbers:  4000. -  4650. cm-1, ATM      1
 LEVEL PRESSURE   UPWARD FLUX   DIFDOWN FLUX  DIRDOWN FLUX  DOWNWARD FLUX   NET FLUX    HEATING RATE
          mb          W/m2          W/m2          W/m2        W/m2          W/m2       degree/day
  51    .06700        4.5947        0.0000       12.2291       12.2291       7.634371       0.00000
  50    .07753        4.5947        0.0000       12.2291       12.2291       7.634370       0.00080
  49    .09103        4.5947        0.0000       12.2291       12.2291       7.634369       0.00078
  48    0.1069        4.5947        0.0000       12.2291       12.2291       7.634368       0.00076
  47    0.1255        4.5947        0.0000       12.2290       12.2290       7.634366       0.00075
  46    0.1487        4.5947        0.0000       12.2290       12.2290       7.634364       0.00076
  45    0.1794        4.5947        0.0000       12.2290       12.2290       7.634361       0.00078
  44    0.2165        4.5947        0.0000       12.2290       12.2290       7.634358       0.00076
  43    0.2613        4.5947        0.0000       12.2290       12.2290       7.634354       0.00075
  42    0.3336        4.5947        0.0000       12.2290       12.2290       7.634347       0.00077
  41    0.4307        4.5947        0.0000       12.2290       12.2290       7.634338       0.00077
  40    0.5894        4.5947        0.0000       12.2290       12.2290       7.634323       0.00080
  39     1.339        4.5947        0.0000       12.2289       12.2289       7.634234       0.00101
  38     1.782        4.5947        0.0000       12.2288       12.2288       7.634164       0.00133
  37     2.292        4.5947        0.0000       12.2287       12.2287       7.634070       0.00156
  36     2.964        4.5947        0.0000       12.2286       12.2286       7.633930       0.00176
  35     3.853        4.5947        0.0000       12.2284       12.2284       7.633722       0.00197
  34     5.035        4.5947        0.0000       12.2281       12.2281       7.633415       0.00219
  33     6.613        4.5947        0.0000       12.2276       12.2276       7.632963       0.00242
  32     8.786        4.5947        0.0000       12.2269       12.2270       7.632296       0.00259
  31     11.80        4.5947        0.0001       12.2259       12.2259       7.631247       0.00294
  30     15.07        4.5947        0.0001       12.2246       12.2247       7.630016       0.00318
  29     18.79        4.5946        0.0001       12.2231       12.2232       7.628527       0.00338
  28     23.16        4.5946        0.0001       12.2212       12.2213       7.626676       0.00358
  27     28.12        4.5946        0.0001       12.2189       12.2191       7.624434       0.00381
  26     33.73        4.5946        0.0002       12.2162       12.2163       7.621667       0.00416
  25     40.54        4.5946        0.0002       12.2124       12.2125       7.617910       0.00466
  24     48.69        4.5947        0.0002       12.2073       12.2075       7.612898       0.00519
  23     57.69        4.5947        0.0003       12.2014       12.2016       7.606948       0.00558
  22     68.43        4.5947        0.0003       12.1939       12.1942       7.599485       0.00587
  21     81.20        4.5948        0.0004       12.1847       12.1851       7.590278       0.00608
  20     96.49        4.5949        0.0004       12.1735       12.1739       7.579056       0.00619
  19     114.6        4.5950        0.0005       12.1595       12.1600       7.565015       0.00656
  18     136.5        4.5953        0.0006       12.1427       12.1433       7.548070       0.00652
  17     162.9        4.5956        0.0007       12.1222       12.1229       7.527271       0.00665
  16     196.4        4.5963        0.0009       12.0940       12.0949       7.498551       0.00723
  15     218.7        4.5969        0.0010       12.0726       12.0736       7.476618       0.00833
  14     243.0        4.5979        0.0011       12.0443       12.0454       7.447507       0.01010
  13     269.0        4.5994        0.0012       12.0059       12.0071       7.407685       0.01292
  12     297.5        4.6017        0.0013       11.9546       11.9560       7.354281       0.01584
  11     328.5        4.6048        0.0015       11.8903       11.8918       7.287001       0.01829
  10     361.9        4.6089        0.0016       11.8079       11.8095       7.200658       0.02185
   9     398.1        4.6139        0.0017       11.7011       11.7028       7.088875       0.02604
   8     437.6        4.6203        0.0019       11.5647       11.5666       6.946313       0.03048
   7     480.5        4.6282        0.0021       11.4016       11.4037       6.775463       0.03355
   6     533.0        4.6400        0.0023       11.1895       11.1918       6.551805       0.03598
   5     589.8        4.6563        0.0025       10.9509       10.9533       6.296966       0.03783
   4     651.6        4.6812        0.0027       10.6521       10.6547       5.973490       0.04424
   3     718.7        4.7199        0.0028       10.2604       10.2633       5.543408       0.05405
   2     792.3        4.7837        0.0030        9.7481        9.7511       4.967387       0.06606
   1     891.5        4.9308        0.0032        9.0115        9.0147       4.083849       0.07518
   0    1013.0        5.2782        0.0034        8.2066        8.2100       2.931777       0.07999



 Wavenumbers:  4650. -  5150. cm-1, ATM      1
 LEVEL PRESSURE   UPWARD FLUX   DIFDOWN FLUX  DIRDOWN FLUX  DOWNWARD FLUX   NET FLUX    HEATING RATE
          mb          W/m2          W/m2          W/m2        W/m2          W/m2       degree/day
  51    .06700        3.2541        0.0000       11.5754       11.5754       8.321235       0.00000
  50    .07753        3.2541        0.0000       11.5751       11.5751       8.320999       0.18906
  49    .09103        3.2541        0.0000       11.5748       11.5748       8.320704       0.18445
  48    0.1069        3.2541        0.0000       11.5745       11.5745       8.320367       0.17960
  47    0.1255        3.2541        0.0000       11.5741       11.5741       8.319981       0.17468
  46    0.1487        3.2541        0.0000       11.5736       11.5736       8.319499       0.17596
  45    0.1794        3.2541        0.0000       11.5730       11.5730       8.318845       0.17934
  44    0.2165        3.2541        0.0000       11.5722       11.5722       8.318081       0.17386
  43    0.2613        3.2541        0.0000       11.5713       11.5713       8.317188       0.16826
  42    0.3336        3.2541        0.0000       11.5699       11.5699       8.315740       0.16883
  41    0.4307        3.2541        0.0000       11.5680       11.5680       8.313873       0.16236
  40    0.5894        3.2541        0.0000       11.5651       11.5651       8.310947       0.15560
  39     1.339        3.2541        0.0000       11.5530       11.5530       8.298911       0.13551
  38     1.782        3.2541        0.0000       11.5472       11.5472       8.293036       0.11186
  37     2.292        3.2541        0.0000       11.5413       11.5413       8.287139       0.09766
  36     2.964        3.2541        0.0000       11.5347       11.5347       8.280618       0.08186
  35     3.853        3.2541        0.0000       11.5277       11.5278       8.273643       0.06619
  34     5.035        3.2541        0.0000       11.5205       11.5205       8.266423       0.05158
  33     6.613        3.2541        0.0000       11.5131       11.5132       8.259058       0.03937
  32     8.786        3.2541        0.0001       11.5053       11.5054       8.251249       0.03033
  31     11.80        3.2541        0.0001       11.4957       11.4957       8.241613       0.02698
  30     15.07        3.2541        0.0001       11.4855       11.4856       8.231438       0.02627
  29     18.79        3.2541        0.0001       11.4732       11.4734       8.219243       0.02765
  28     23.16        3.2541        0.0002       11.4577       11.4579       8.203749       0.02996
  27     28.12        3.2542        0.0002       11.4384       11.4386       8.184391       0.03291
  26     33.73        3.2542        0.0002       11.4149       11.4151       8.160899       0.03532
  25     40.54        3.2543        0.0003       11.3843       11.3846       8.130337       0.03792
  24     48.69        3.2543        0.0003       11.3451       11.3454       8.091075       0.04063
  23     57.69        3.2545        0.0004       11.3001       11.3005       8.046013       0.04224
  22     68.43        3.2546        0.0004       11.2451       11.2455       7.990914       0.04331
  21     81.20        3.2549        0.0005       11.1792       11.1797       7.924833       0.04367
  20     96.49        3.2552        0.0006       11.1025       11.1031       7.847895       0.04246
  19     114.6        3.2557        0.0007       11.0159       11.0166       7.760926       0.04061
  18     136.5        3.2563        0.0009       10.9211       10.9219       7.665605       0.03665
  17     162.9        3.2573        0.0010       10.8192       10.8202       7.562931       0.03282
  16     196.4        3.2587        0.0012       10.7016       10.7028       7.444039       0.02993
  15     218.7        3.2599        0.0014       10.6296       10.6309       7.370996       0.02773
  14     243.0        3.2615        0.0015       10.5524       10.5539       7.292395       0.02726
  13     269.0        3.2636        0.0017       10.4662       10.4679       7.204258       0.02859
  12     297.5        3.2667        0.0018       10.3653       10.3671       7.100406       0.03080
  11     328.5        3.2708        0.0020       10.2487       10.2507       6.979911       0.03276
  10     361.9        3.2760        0.0022       10.1127       10.1148       6.838843       0.03569
   9     398.1        3.2828        0.0023        9.9529        9.9552       6.672463       0.03876
   8     437.6        3.2916        0.0025        9.7648        9.7674       6.475758       0.04206
   7     480.5        3.3030        0.0027        9.5450        9.5478       6.244730       0.04537
   6     533.0        3.3203        0.0030        9.2527        9.2557       5.935317       0.04977
   5     589.8        3.3442        0.0032        8.9125        8.9157       5.571471       0.05401
   4     651.6        3.3790        0.0034        8.5122        8.5155       5.136540       0.05948
   3     718.7        3.4303        0.0036        8.0643        8.0679       4.637646       0.06270
   2     792.3        3.5083        0.0037        7.5795        7.5832       4.074949       0.06454
   1     891.5        3.6717        0.0039        6.9392        6.9432       3.271428       0.06838
   0    1013.0        4.0069        0.0041        6.2284        6.2325       2.225614       0.07262



 Wavenumbers:  5150. -  6150. cm-1, ATM      1
 LEVEL PRESSURE   UPWARD FLUX   DIFDOWN FLUX  DIRDOWN FLUX  DOWNWARD FLUX   NET FLUX    HEATING RATE
          mb          W/m2          W/m2          W/m2        W/m2          W/m2       degree/day
  51    .06700        8.2053        0.0000       29.0195       29.0195      20.814243       0.00000
  50    .07753        8.2053        0.0000       29.0195       29.0195      20.814204       0.03159
  49    .09103        8.2053        0.0000       29.0194       29.0194      20.814153       0.03208
  48    0.1069        8.2053        0.0000       29.0194       29.0194      20.814091       0.03259
  47    0.1255        8.2053        0.0000       29.0193       29.0193      20.814018       0.03309
  46    0.1487        8.2053        0.0000       29.0192       29.0192      20.813923       0.03486
  45    0.1794        8.2053        0.0000       29.0190       29.0191      20.813788       0.03711
  44    0.2165        8.2053        0.0000       29.0189       29.0189      20.813622       0.03767
  43    0.2613        8.2053        0.0000       29.0187       29.0187      20.813419       0.03825
  42    0.3336        8.2053        0.0000       29.0183       29.0183      20.813072       0.04042
  41    0.4307        8.2053        0.0000       29.0179       29.0179      20.812601       0.04097
  40    0.5894        8.2053        0.0000       29.0171       29.0171      20.811811       0.04199
  39     1.339        8.2052        0.0000       29.0132       29.0133      20.808003       0.04287
  38     1.782        8.2052        0.0001       29.0110       29.0110      20.805784       0.04226
  37     2.292        8.2052        0.0001       29.0084       29.0085      20.803269       0.04165
  36     2.964        8.2052        0.0001       29.0052       29.0053      20.800069       0.04016
  35     3.853        8.2052        0.0001       29.0011       29.0012      20.795997       0.03865
  34     5.035        8.2052        0.0002       28.9958       28.9960      20.790742       0.03754
  33     6.613        8.2052        0.0002       28.9889       28.9891      20.783906       0.03654
  32     8.786        8.2052        0.0003       28.9800       28.9802      20.775017       0.03452
  31     11.80        8.2052        0.0004       28.9678       28.9681      20.762938       0.03382
  30     15.07        8.2052        0.0005       28.9555       28.9559      20.750759       0.03144
  29     18.79        8.2052        0.0006       28.9426       28.9431      20.737955       0.02903
  28     23.16        8.2052        0.0007       28.9286       28.9293      20.724073       0.02684
  27     28.12        8.2052        0.0008       28.9137       28.9146      20.709373       0.02499
  26     33.73        8.2052        0.0010       28.8986       28.8996      20.694362       0.02257
  25     40.54        8.2053        0.0012       28.8819       28.8831      20.677835       0.02050
  24     48.69        8.2054        0.0015       28.8640       28.8654      20.660036       0.01842
  23     57.69        8.2055        0.0017       28.8461       28.8478      20.642276       0.01665
  22     68.43        8.2057        0.0021       28.8266       28.8286      20.622915       0.01522
  21     81.20        8.2059        0.0024       28.8050       28.8075      20.601530       0.01413
  20     96.49        8.2063        0.0029       28.7807       28.7836      20.577349       0.01335
  19     114.6        8.2066        0.0034       28.7528       28.7562      20.549614       0.01295
  18     136.5        8.2071        0.0041       28.7203       28.7244      20.517266       0.01244
  17     162.9        8.2077        0.0049       28.6724       28.6772      20.469504       0.01527
  16     196.4        8.2086        0.0058       28.5720       28.5779      20.369300       0.02522
  15     218.7        8.2092        0.0065       28.4208       28.4273      20.218110       0.05740
  14     243.0        8.2099        0.0071       28.1034       28.1105      19.900615       0.11012
  13     269.0        8.2109        0.0078       27.5252       27.5329      19.322064       0.18768
  12     297.5        8.2122        0.0084       26.7526       26.7610      18.548872       0.22932
  11     328.5        8.2138        0.0090       25.9698       25.9788      17.765020       0.21313
  10     361.9        8.2159        0.0097       25.0974       25.1071      16.891174       0.22109
   9     398.1        8.2186        0.0103       24.0884       24.0988      15.880178       0.23554
   8     437.6        8.2221        0.0109       22.9721       22.9831      14.760955       0.23930
   7     480.5        8.2267        0.0115       21.8183       21.8298      13.603096       0.22740
   6     533.0        8.2341        0.0122       20.4950       20.5071      12.272995       0.21397
   5     589.8        8.2453        0.0128       19.2180       19.2308      10.985466       0.19111
   4     651.6        8.2643        0.0135       17.9988       18.0123       9.747960       0.16923
   3     718.7        8.2968        0.0142       16.9782       16.9925       8.695705       0.13224
   2     792.3        8.3554        0.0151       16.1152       16.1303       7.774893       0.10561
   1     891.5        8.5053        0.0161       15.0665       15.0827       6.577362       0.10190
   0    1013.0        8.9355        0.0173       13.8814       13.8987       4.963220       0.11208



 Wavenumbers:  6150. -  7700. cm-1, ATM      1
 LEVEL PRESSURE   UPWARD FLUX   DIFDOWN FLUX  DIRDOWN FLUX  DOWNWARD FLUX   NET FLUX    HEATING RATE
          mb          W/m2          W/m2          W/m2        W/m2          W/m2       degree/day
  51    .06700       12.1549        0.0000       53.6727       53.6727      41.517837       0.00000
  50    .07753       12.1549        0.0000       53.6726       53.6726      41.517780       0.04553
  49    .09103       12.1549        0.0000       53.6726       53.6726      41.517706       0.04583
  48    0.1069       12.1549        0.0000       53.6725       53.6725      41.517620       0.04614
  47    0.1255       12.1549        0.0000       53.6724       53.6724      41.517517       0.04645
  46    0.1487       12.1549        0.0000       53.6722       53.6722      41.517384       0.04852
  45    0.1794       12.1548        0.0000       53.6720       53.6720      41.517197       0.05127
  44    0.2165       12.1548        0.0000       53.6718       53.6718      41.516970       0.05168
  43    0.2613       12.1548        0.0000       53.6715       53.6715      41.516694       0.05211
  42    0.3336       12.1548        0.0000       53.6710       53.6711      41.516224       0.05472
  41    0.4307       12.1548        0.0000       53.6704       53.6704      41.515589       0.05523
  40    0.5894       12.1548        0.0001       53.6693       53.6693      41.514529       0.05637
  39     1.339       12.1547        0.0002       53.6640       53.6642      41.509431       0.05740
  38     1.782       12.1547        0.0002       53.6610       53.6612      41.506455       0.05666
  37     2.292       12.1547        0.0003       53.6575       53.6577      41.503070       0.05606
  36     2.964       12.1546        0.0004       53.6530       53.6533      41.498737       0.05439
  35     3.853       12.1545        0.0005       53.6472       53.6477      41.493178       0.05276
  34     5.035       12.1544        0.0006       53.6398       53.6404      41.485957       0.05159
  33     6.613       12.1543        0.0008       53.6300       53.6308      41.476500       0.05056
  32     8.786       12.1541        0.0011       53.6171       53.6182      41.464082       0.04823
  31     11.80       12.1539        0.0014       53.5994       53.6008      41.446964       0.04792
  30     15.07       12.1536        0.0019       53.5811       53.5830      41.429396       0.04536
  29     18.79       12.1533        0.0023       53.5615       53.5638      41.410549       0.04273
  28     23.16       12.1529        0.0028       53.5397       53.5426      41.389672       0.04037
  27     28.12       12.1525        0.0035       53.5161       53.5195      41.367059       0.03844
  26     33.73       12.1520        0.0041       53.4912       53.4954      41.343390       0.03559
  25     40.54       12.1514        0.0050       53.4632       53.4682      41.316799       0.03299
  24     48.69       12.1507        0.0060       53.4322       53.4381      41.287416       0.03041
  23     57.69       12.1500        0.0071       53.4003       53.4074      41.257452       0.02809
  22     68.43       12.1490        0.0084       53.3648       53.3732      41.224153       0.02618
  21     81.20       12.1480        0.0099       53.3247       53.3346      41.186681       0.02476
  20     96.49       12.1467        0.0118       53.2788       53.2906      41.143885       0.02362
  19     114.6       12.1451        0.0140       53.2254       53.2394      41.094238       0.02318
  18     136.5       12.1433        0.0166       53.1626       53.1793      41.035967       0.02241
  17     162.9       12.1412        0.0198       53.0733       53.0931      40.951927       0.02686
  16     196.4       12.1384        0.0238       52.8957       52.9195      40.781057       0.04301
  15     218.7       12.1367        0.0264       52.6557       52.6821      40.545333       0.08950
  14     243.0       12.1350        0.0291       52.2148       52.2439      40.108879       0.15138
  13     269.0       12.1334        0.0318       51.4241       51.4560      39.322539       0.25509
  12     297.5       12.1322        0.0345       50.1897       50.2242      38.091984       0.36497
  11     328.5       12.1316        0.0372       48.7872       48.8244      36.692863       0.38042
  10     361.9       12.1317        0.0399       47.2944       47.3343      35.202644       0.37704
   9     398.1       12.1331        0.0426       45.6136       45.6561      33.523053       0.39131
   8     437.6       12.1365        0.0451       43.6555       43.7006      31.564078       0.41884
   7     480.5       12.1429        0.0475       41.5238       41.5713      29.428391       0.41944
   6     533.0       12.1559        0.0500       38.9737       39.0237      26.867783       0.41192
   5     589.8       12.1797        0.0523       36.3051       36.3574      24.177692       0.39930
   4     651.6       12.2259        0.0541       33.4360       33.4901      21.264204       0.39843
   3     718.7       12.3103        0.0556       30.6146       30.6702      18.359952       0.36498
   2     792.3       12.4680        0.0569       27.8646       27.9215      15.453445       0.33334
   1     891.5       12.8715        0.0583       24.6851       24.7434      11.871969       0.30477
   0    1013.0       13.9725        0.0600       21.6735       21.7335       7.761042       0.28544



 Wavenumbers:  7700. -  8050. cm-1, ATM      1
 LEVEL PRESSURE   UPWARD FLUX   DIFDOWN FLUX  DIRDOWN FLUX  DOWNWARD FLUX   NET FLUX    HEATING RATE
          mb          W/m2          W/m2          W/m2        W/m2          W/m2       degree/day
  51    .06700        6.4925        0.0000       12.6845       12.6845       6.191930       0.00000
  50    .07753        6.4925        0.0000       12.6844       12.6844       6.191908       0.01768
  49    .09103        6.4925        0.0000       12.6844       12.6844       6.191880       0.01733
  48    0.1069        6.4925        0.0000       12.6844       12.6844       6.191848       0.01697
  47    0.1255        6.4925        0.0000       12.6844       12.6844       6.191811       0.01660
  46    0.1487        6.4926        0.0000       12.6843       12.6843       6.191765       0.01685
  45    0.1794        6.4926        0.0000       12.6843       12.6843       6.191702       0.01734
  44    0.2165        6.4926        0.0000       12.6842       12.6842       6.191627       0.01701
  43    0.2613        6.4926        0.0000       12.6841       12.6841       6.191539       0.01669
  42    0.3336        6.4926        0.0000       12.6840       12.6840       6.191392       0.01708
  41    0.4307        6.4927        0.0000       12.6838       12.6839       6.191198       0.01689
  40    0.5894        6.4927        0.0000       12.6836       12.6836       6.190881       0.01687
  39     1.339        6.4930        0.0001       12.6823       12.6824       6.189380       0.01690
  38     1.782        6.4932        0.0001       12.6816       12.6817       6.188498       0.01679
  37     2.292        6.4933        0.0001       12.6807       12.6808       6.187477       0.01690
  36     2.964        6.4936        0.0002       12.6796       12.6797       6.186137       0.01682
  35     3.853        6.4939        0.0002       12.6781       12.6783       6.184367       0.01680
  34     5.035        6.4944        0.0003       12.6761       12.6764       6.182014       0.01680
  33     6.613        6.4949        0.0004       12.6734       12.6738       6.178872       0.01680
  32     8.786        6.4957        0.0005       12.6699       12.6704       6.174639       0.01644
  31     11.80        6.4969        0.0007       12.6648       12.6654       6.168585       0.01695
  30     15.07        6.4981        0.0009       12.6593       12.6602       6.162089       0.01677
  29     18.79        6.4994        0.0011       12.6531       12.6542       6.154755       0.01663
  28     23.16        6.5011        0.0013       12.6460       12.6473       6.146197       0.01655
  27     28.12        6.5029        0.0016       12.6377       12.6393       6.136421       0.01662
  26     33.73        6.5050        0.0019       12.6286       12.6305       6.125497       0.01642
  25     40.54        6.5075        0.0023       12.6176       12.6198       6.112322       0.01635
  24     48.69        6.5106        0.0027       12.6043       12.6070       6.096474       0.01640
  23     57.69        6.5139        0.0032       12.5898       12.5931       6.079112       0.01627
  22     68.43        6.5180        0.0038       12.5727       12.5765       6.058498       0.01621
  21     81.20        6.5229        0.0046       12.5523       12.5569       6.034032       0.01617
  20     96.49        6.5287        0.0054       12.5283       12.5337       6.005013       0.01602
  19     114.6        6.5357        0.0064       12.5000       12.5064       5.970744       0.01600
  18     136.5        6.5441        0.0076       12.4669       12.4745       5.930383       0.01552
  17     162.9        6.5542        0.0090       12.4279       12.4369       5.882665       0.01525
  16     196.4        6.5676        0.0109       12.3781       12.3889       5.821310       0.01544
  15     218.7        6.5766        0.0121       12.3458       12.3579       5.781291       0.01519
  14     243.0        6.5864        0.0134       12.3110       12.3244       5.737976       0.01502
  13     269.0        6.5973        0.0148       12.2737       12.2885       5.691171       0.01518
  12     297.5        6.6093        0.0164       12.2336       12.2499       5.640617       0.01499
  11     328.5        6.6226        0.0180       12.1906       12.2086       5.585960       0.01486
  10     361.9        6.6374        0.0198       12.1445       12.1643       5.526933       0.01493
   9     398.1        6.6538        0.0217       12.0951       12.1168       5.462983       0.01490
   8     437.6        6.6722        0.0238       12.0419       12.0657       5.393421       0.01487
   7     480.5        6.6929        0.0260       11.9845       12.0105       5.317601       0.01489
   6     533.0        6.7199        0.0287       11.9132       11.9419       5.221994       0.01538
   5     589.8        6.7513        0.0316       11.8341       11.8658       5.114475       0.01596
   4     651.6        6.7890        0.0347       11.7445       11.7793       4.990323       0.01698
   3     718.7        6.8351        0.0381       11.6412       11.6792       4.844174       0.01837
   2     792.3        6.8935        0.0416       11.5188       11.5603       4.666835       0.02034
   1     891.5        6.9918        0.0462       11.3299       11.3761       4.384252       0.02405
   0    1013.0        7.1477        0.0516       11.0663       11.1179       3.970203       0.02875



 Wavenumbers:  8050. - 12850. cm-1, ATM      1
 LEVEL PRESSURE   UPWARD FLUX   DIFDOWN FLUX  DIRDOWN FLUX  DOWNWARD FLUX   NET FLUX    HEATING RATE
          mb          W/m2          W/m2          W/m2        W/m2          W/m2       degree/day
  51    .06700       78.8176        0.0000      177.5917      177.5917      98.774125       0.00000
  50    .07753       78.8176        0.0000      177.5917      177.5917      98.774125      -0.00000
  49    .09103       78.8176        0.0001      177.5916      177.5917      98.774125       0.00000
  48    0.1069       78.8176        0.0001      177.5916      177.5917      98.774125       0.00000
  47    0.1255       78.8175        0.0002      177.5915      177.5917      98.774125       0.00000
  46    0.1487       78.8175        0.0002      177.5914      177.5916      98.774125      -0.00000
  45    0.1794       78.8175        0.0003      177.5913      177.5916      98.774125       0.00000
  44    0.2165       78.8174        0.0004      177.5911      177.5916      98.774125      -0.00000
  43    0.2613       78.8174        0.0005      177.5910      177.5915      98.774125      -0.00000
  42    0.3336       78.8173        0.0007      177.5907      177.5914      98.774125      -0.00000
  41    0.4307       78.8172        0.0010      177.5903      177.5913      98.774125       0.00000
  40    0.5894       78.8170        0.0014      177.5897      177.5911      98.774125       0.00000
  39     1.339       78.8160        0.0034      177.5867      177.5902      98.774125      -0.00000
  38     1.782       78.8155        0.0046      177.5850      177.5896      98.774125       0.00000
  37     2.292       78.8148        0.0060      177.5830      177.5890      98.774125      -0.00000
  36     2.964       78.8140        0.0078      177.5803      177.5881      98.774125       0.00000
  35     3.853       78.8129        0.0102      177.5768      177.5870      98.774125      -0.00000
  34     5.035       78.8114        0.0134      177.5722      177.5856      98.774125       0.00000
  33     6.613       78.8095        0.0176      177.5660      177.5836      98.774125       0.00000
  32     8.786       78.8069        0.0234      177.5576      177.5810      98.774125      -0.00000
  31     11.80       78.8031        0.0316      177.5456      177.5772      98.774125       0.00000
  30     15.07       78.7990        0.0404      177.5328      177.5731      98.774125      -0.00000
  29     18.79       78.7944        0.0503      177.5182      177.5685      98.774125       0.00000
  28     23.16       78.7891        0.0620      177.5012      177.5632      98.774125       0.00000
  27     28.12       78.7829        0.0753      177.4817      177.5570      98.774125      -0.00000
  26     33.73       78.7760        0.0903      177.4598      177.5501      98.774125       0.00000
  25     40.54       78.7677        0.1084      177.4334      177.5418      98.774125       0.00000
  24     48.69       78.7576        0.1302      177.4015      177.5317      98.774125      -0.00000
  23     57.69       78.7465        0.1543      177.3664      177.5207      98.774125       0.00000
  22     68.43       78.7333        0.1829      177.3245      177.5074      98.774125       0.00000
  21     81.20       78.7175        0.2171      177.2745      177.4917      98.774125       0.00000
  20     96.49       78.6987        0.2580      177.2149      177.4728      98.774125      -0.00000
  19     114.6       78.6764        0.3065      177.1379      177.4444      98.767938       0.00289
  18     136.5       78.6500        0.3642      177.0460      177.4102      98.760255       0.00295
  17     162.9       78.6184        0.4331      176.9328      177.3659      98.747485       0.00408
  16     196.4       78.5775        0.5226      176.7695      177.2921      98.714656       0.00826
  15     218.7       78.5506        0.5814      176.6224      177.2038      98.653151       0.02335
  14     243.0       78.5219        0.6454      176.3836      177.0290      98.507102       0.05065
  13     269.0       78.4917        0.7146      175.9899      176.7045      98.212790       0.09547
  12     297.5       78.4611        0.7891      175.4063      176.1954      97.734340       0.14190
  11     328.5       78.4305        0.8694      174.6989      175.5683      97.137839       0.16219
  10     361.9       78.4013        0.9555      173.8563      174.8119      96.410614       0.18400
   9     398.1       78.3755        1.0477      172.8070      173.8547      95.479111       0.21702
   8     437.6       78.3571        1.1454      171.4586      172.6040      94.246977       0.26344
   7     480.5       78.3503        1.2489      169.7788      171.0277      92.677391       0.30826
   6     533.0       78.3666        1.3741      167.3951      168.7691      90.402507       0.36596
   5     589.8       78.4292        1.5052      164.3583      165.8635      87.434308       0.44058
   4     651.6       78.5906        1.6395      160.3133      161.9528      83.362202       0.55687
   3     718.7       78.9190        1.7752      155.3676      157.1427      78.223787       0.64576
   2     792.3       79.5649        1.9098      149.4371      151.3469      71.782045       0.73880
   1     891.5       81.2285        2.0716      140.7596      142.8311      61.602673       0.86622
   0    1013.0       85.3915        2.2349      130.5875      132.8224      47.430891       0.98402



 Wavenumbers: 12850. - 16000. cm-1, ATM      1
 LEVEL PRESSURE   UPWARD FLUX   DIFDOWN FLUX  DIRDOWN FLUX  DOWNWARD FLUX   NET FLUX    HEATING RATE
          mb          W/m2          W/m2          W/m2        W/m2          W/m2       degree/day
  51    .06700       77.1099        0.0000      111.2769      111.2769      34.167042       0.00000
  50    .07753       77.1099        0.0001      111.2761      111.2761      34.166250       0.63453
  49    .09103       77.1099        0.0002      111.2750      111.2751      34.165255       0.62215
  48    0.1069       77.1099        0.0003      111.2737      111.2740      34.164110       0.60960
  47    0.1255       77.1099        0.0004      111.2723      111.2727      34.162792       0.59739
  46    0.1487       77.1099        0.0005      111.2705      111.2710      34.161126       0.60722
  45    0.1794       77.1099        0.0007      111.2681      111.2688      34.158855       0.62347
  44    0.2165       77.1100        0.0010      111.2652      111.2662      34.156177       0.60931
  43    0.2613       77.1101        0.0012      111.2619      111.2631      34.153018       0.59545
  42    0.3336       77.1103        0.0017      111.2565      111.2582      34.147839       0.60375
  41    0.4307       77.1107        0.0023      111.2495      111.2518      34.141113       0.58484
  40    0.5894       77.1115        0.0033      111.2386      111.2419      34.130450       0.56705
  39     1.339       77.1178        0.0081      111.1914      111.1994      34.081639       0.54952
  38     1.782       77.1236        0.0109      111.1651      111.1760      34.052382       0.55701
  37     2.292       77.1323        0.0141      111.1344      111.1485      34.016243       0.59855
  36     2.964       77.1467        0.0184      111.0922      111.1106      33.963930       0.65669
  35     3.853       77.1699        0.0240      111.0327      111.0566      33.886775       0.73221
  34     5.035       77.2048        0.0314      110.9495      110.9809      33.776097       0.79064
  33     6.613       77.2536        0.0414      110.8371      110.8784      33.624879       0.80841
  32     8.786       77.3170        0.0547      110.6911      110.7458      33.428760       0.76165
  31     11.80       77.3997        0.0739      110.4976      110.5714      33.171757       0.71953
  30     15.07       77.4789        0.0944      110.3072      110.4016      32.922696       0.64303
  29     18.79       77.5598        0.1176      110.1077      110.2252      32.665471       0.58321
  28     23.16       77.6444        0.1446      109.8926      110.0372      32.392877       0.52711
  27     28.12       77.7295        0.1756      109.6674      109.8429      32.113395       0.47510
  26     33.73       77.8083        0.2102      109.4444      109.6546      31.846272       0.40163
  25     40.54       77.8844        0.2520      109.2087      109.4606      31.576245       0.33500
  24     48.69       77.9575        0.3024      108.9580      109.2604      31.302925       0.28284
  23     57.69       78.0197        0.3578      108.7156      109.0735      31.053722       0.23359
  22     68.43       78.0743        0.4239      108.4629      108.8867      30.812408       0.18971
  21     81.20       78.1126        0.5027      108.2097      108.7124      30.599815       0.14048
  20     96.49       78.1334        0.5967      107.9533      108.5500      30.416647       0.10110
  19     114.6       78.1590        0.7095      107.6720      108.3815      30.222507       0.09065
  18     136.5       78.1781        0.8433      107.3565      108.1997      30.021590       0.07726
  17     162.9       78.1905        1.0026      106.9937      107.9963      29.805799       0.06898
  16     196.4       78.1845        1.2093      106.5460      107.7552      29.570738       0.05917
  15     218.7       78.1726        1.3450      106.2580      107.6030      29.430390       0.05328
  14     243.0       78.1563        1.4926      105.9450      107.4376      29.281328       0.05170
  13     269.0       78.1353        1.6526      105.6054      107.2580      29.122633       0.05148
  12     297.5       78.1102        1.8255      105.2354      107.0609      28.950651       0.05101
  11     328.5       78.0828        2.0124      104.8312      106.8435      28.760726       0.05164
  10     361.9       78.0539        2.2136      104.3901      106.6037      28.549780       0.05337
   9     398.1       78.0246        2.4302      103.9076      106.3378      28.313173       0.05512
   8     437.6       77.9976        2.6627      103.3761      106.0388      28.041182       0.05815
   7     480.5       77.9753        2.9119      102.7892      105.7011      27.725803       0.06194
   6     533.0       77.9613        3.2255      102.0354      105.2609      27.299669       0.06855
   5     589.8       77.9713        3.5486      101.1679      104.7164      26.745154       0.08231
   4     651.6       78.0346        3.9001      100.1257      104.0258      25.991237       0.10310
   3     718.7       78.1703        4.2731       98.8964      103.1695      24.999142       0.12468
   2     792.3       78.4405        4.6646       97.4105      102.0751      23.634643       0.15649
   1     891.5       79.1028        5.1749       95.1308      100.3057      21.202847       0.20693
   0    1013.0       80.5060        5.7584       92.1332       97.8916      17.385544       0.26505



 Wavenumbers: 16000. - 22650. cm-1, ATM      1
 LEVEL PRESSURE   UPWARD FLUX   DIFDOWN FLUX  DIRDOWN FLUX  DOWNWARD FLUX   NET FLUX    HEATING RATE
          mb          W/m2          W/m2          W/m2        W/m2          W/m2       degree/day
  51    .06700      158.6337        0.0000      177.4187      177.4187      18.785001       0.00000
  50    .07753      158.6337        0.0004      177.4182      177.4186      18.784845       0.12480
  49    .09103      158.6337        0.0009      177.4174      177.4184      18.784619       0.14155
  48    0.1069      158.6338        0.0015      177.4166      177.4181      18.784315       0.16142
  47    0.1255      158.6339        0.0022      177.4155      177.4178      18.783909       0.18400
  46    0.1487      158.6340        0.0031      177.4142      177.4173      18.783311       0.21803
  45    0.1794      158.6342        0.0043      177.4123      177.4166      18.782376       0.25672
  44    0.2165      158.6346        0.0057      177.4100      177.4157      18.781108       0.28852
  43    0.2613      158.6351        0.0074      177.4071      177.4145      18.779387       0.32437
  42    0.3336      158.6361        0.0101      177.4021      177.4122      18.776115       0.38145
  41    0.4307      158.6378        0.0138      177.3952      177.4090      18.771184       0.42880
  40    0.5894      158.6411        0.0198      177.3832      177.4029      18.761778       0.50017
  39     1.339      158.6687        0.0480      177.3129      177.3609      18.692287       0.78235
  38     1.782      158.6934        0.0647      177.2618      177.3265      18.633085       1.12710
  37     2.292      158.7301        0.0839      177.1936      177.2774      18.547385       1.41941
  36     2.964      158.7905        0.1091      177.0899      177.1990      18.408539       1.74294
  35     3.853      158.8877        0.1424      176.9335      177.0759      18.188196       2.09110
  34     5.035      159.0339        0.1866      176.7066      176.8933      17.859398       2.34880
  33     6.613      159.2379        0.2457      176.3946      176.6403      17.402339       2.44343
  32     8.786      159.5039        0.3251      175.9862      176.3113      16.807387       2.31058
  31     11.80      159.8508        0.4386      175.4430      175.8816      16.030757       2.17432
  30     15.07      160.1841        0.5604      174.9070      175.4673      15.283265       1.92988
  29     18.79      160.5253        0.6977      174.3443      175.0420      14.516742       1.73794
  28     23.16      160.8830        0.8580      173.7359      174.5939      13.710870       1.55830
  27     28.12      161.2445        1.0411      173.0965      174.1376      12.893095       1.39016
  26     33.73      161.5808        1.2459      172.4594      173.7053      12.124503       1.15560
  25     40.54      161.9079        1.4932      171.7791      173.2723      11.364405       0.94299
  24     48.69      162.2253        1.7912      171.0455      172.8367      10.611431       0.77921
  23     57.69      162.4996        2.1183      170.3228      172.4411       9.941549       0.62791
  22     68.43      162.7460        2.5077      169.5506      172.0583       9.312326       0.49465
  21     81.20      162.9296        2.9716      168.7495      171.7211       8.791496       0.34416
  20     96.49      163.0463        3.5242      167.9046      171.4288       8.382533       0.22572
  19     114.6      163.1321        4.1789      166.9611      171.1400       8.007900       0.17493
  18     136.5      163.1982        4.9526      165.8847      170.8373       7.639116       0.14181
  17     162.9      163.2441        5.8706      164.6429      170.5135       7.269426       0.11817
  16     196.4      163.2333        7.0564      163.1135      170.1700       6.936638       0.08377
  15     218.7      163.2003        7.8322      162.1407      169.9728       6.772567       0.06229
  14     243.0      163.1523        8.6726      161.0998      169.7724       6.620095       0.05288
  13     269.0      163.0876        9.5801      159.9894      169.5694       6.481827       0.04485
  12     297.5      163.0056       10.5570      158.8068      169.3638       6.358193       0.03667
  11     328.5      162.9112       11.6083      157.5408      169.1491       6.237827       0.03273
  10     361.9      162.8040       12.7350      156.1899      168.9249       6.120885       0.02959
   9     398.1      162.6838       13.9419      154.7483      168.6902       6.006428       0.02667
   8     437.6      162.5517       15.2314      153.2114      168.4428       5.891106       0.02466
   7     480.5      162.4073       16.6062      151.5757      168.1819       5.774617       0.02288
   6     533.0      162.2282       18.2882      149.5758      167.8640       5.635783       0.02233
   5     589.8      162.0379       20.0889      147.4311      167.5200       5.482097       0.02281
   4     651.6      161.8436       22.0108      145.1291      167.1399       5.296332       0.02540
   3     718.7      161.6522       24.0569      142.6582      166.7150       5.062818       0.02935
   2     792.3      161.4827       26.2257      140.0002      166.2259       4.743252       0.03665
   1     891.5      161.3412       29.1139      136.3747      165.4886       4.147423       0.05070
   0    1013.0      161.3152       32.5221      131.9846      164.5067       3.191429       0.06638



 Wavenumbers: 22650. - 29000. cm-1, ATM      1
 LEVEL PRESSURE   UPWARD FLUX   DIFDOWN FLUX  DIRDOWN FLUX  DOWNWARD FLUX   NET FLUX    HEATING RATE
          mb          W/m2          W/m2          W/m2        W/m2          W/m2       degree/day
  51    .06700       65.7356        0.0000       66.9514       66.9514       1.215770       0.00000
  50    .07753       65.7355        0.0005       66.9508       66.9513       1.215770       0.00000
  49    .09103       65.7354        0.0011       66.9501       66.9512       1.215770      -0.00000
  48    0.1069       65.7354        0.0018       66.9493       66.9511       1.215770       0.00000
  47    0.1255       65.7352        0.0026       66.9484       66.9510       1.215770       0.00000
  46    0.1487       65.7351        0.0036       66.9473       66.9509       1.215770      -0.00000
  45    0.1794       65.7349        0.0050       66.9457       66.9507       1.215770       0.00000
  44    0.2165       65.7347        0.0067       66.9438       66.9505       1.215770       0.00000
  43    0.2613       65.7344        0.0086       66.9416       66.9502       1.215770       0.00000
  42    0.3336       65.7340        0.0118       66.9379       66.9497       1.215770       0.00000
  41    0.4307       65.7334        0.0161       66.9331       66.9492       1.215770      -0.00000
  40    0.5894       65.7324        0.0231       66.9251       66.9482       1.215770       0.00000
  39     1.339       65.7279        0.0561       66.8875       66.9437       1.215770       0.00000
  38     1.782       65.7252        0.0755       66.8655       66.9410       1.215770      -0.00000
  37     2.292       65.7221        0.0980       66.8399       66.9379       1.215770       0.00000
  36     2.964       65.7181        0.1275       66.8064       66.9339       1.215770      -0.00000
  35     3.853       65.7127        0.1664       66.7621       66.9285       1.215770       0.00000
  34     5.035       65.7056        0.2181       66.7033       66.9214       1.215770      -0.00000
  33     6.613       65.6962        0.2872       66.6247       66.9119       1.215770       0.00000
  32     8.786       65.6834        0.3802       66.5190       66.8992       1.215770       0.00000
  31     11.80       65.6651        0.5131       66.3678       66.8809       1.215770      -0.00000
  30     15.07       65.6456        0.6555       66.2058       66.8613       1.215770       0.00000
  29     18.79       65.6235        0.8162       66.0230       66.8393       1.215770       0.00000
  28     23.16       65.5978        1.0035       65.8100       66.8135       1.215770      -0.00000
  27     28.12       65.5684        1.2172       65.5670       66.7842       1.215770       0.00000
  26     33.73       65.5356        1.4556       65.2958       66.7514       1.215770       0.00000
  25     40.54       65.4961        1.7426       64.9693       66.7119       1.215770       0.00000
  24     48.69       65.4487        2.0871       64.5774       66.6645       1.215770       0.00000
  23     57.69       65.3969        2.4635       64.1492       66.6127       1.215770      -0.00000
  22     68.43       65.3355        2.9091       63.6422       66.5513       1.215770      -0.00000
  21     81.20       65.2629        3.4359       63.0427       66.4787       1.215770       0.00000
  20     96.49       65.1771        4.0580       62.3349       66.3928       1.215770       0.00000
  19     114.6       65.0762        4.7884       61.5036       66.2920       1.215770      -0.00000
  18     136.5       64.9581        5.6426       60.5313       66.1739       1.215770       0.00000
  17     162.9       64.8196        6.6436       59.3918       66.0353       1.215770       0.00000
  16     196.4       64.6432        7.9156       57.9433       65.8589       1.215770      -0.00000
  15     218.7       64.5293        8.7354       57.0097       65.7451       1.215770       0.00000
  14     243.0       64.4073        9.6126       56.0104       65.6230       1.215770      -0.00000
  13     269.0       64.2770       10.5474       54.9454       65.4928       1.215770       0.00000
  12     297.5       64.1386       11.5391       53.8152       65.3544       1.215770       0.00000
  11     328.5       63.9916       12.5900       52.6174       65.2074       1.215770       0.00000
  10     361.9       63.8364       13.6977       51.3544       65.0522       1.215770       0.00000
   9     398.1       63.6727       14.8631       50.0253       64.8884       1.215770      -0.00000
   8     437.6       63.5006       16.0845       48.6319       64.7164       1.215770       0.00000
   7     480.5       63.3205       17.3598       47.1764       64.5362       1.215770      -0.00000
   6     533.0       63.1045       18.8838       45.4365       64.3202       1.215770      -0.00000
   5     589.8       62.8786       20.4708       43.6236       64.0943       1.215770       0.00000
   4     651.6       62.6433       22.1155       41.7436       63.8591       1.215770      -0.00000
   3     718.7       62.3992       23.8134       39.8016       63.6150       1.215770       0.00000
   2     792.3       62.1474       25.5542       37.8089       63.3632       1.215770       0.00000
   1     891.5       61.8221       27.7861       35.2518       63.0379       1.215770       0.00000
   0    1013.0       61.4528       30.2928       32.3758       62.6686       1.215770      -0.00000



 Wavenumbers: 29000. - 38000. cm-1, ATM      1
 LEVEL PRESSURE   UPWARD FLUX   DIFDOWN FLUX  DIRDOWN FLUX  DOWNWARD FLUX   NET FLUX    HEATING RATE
          mb          W/m2          W/m2          W/m2        W/m2          W/m2       degree/day
  51    .06700        9.9633        0.0000       23.6098       23.6098      13.646515       0.00000
  50    .07753        9.9631        0.0003       23.6055       23.6059      13.642705       3.05386
  49    .09103        9.9629        0.0007       23.5994       23.6001      13.637163       3.46413
  48    0.1069        9.9627        0.0012       23.5912       23.5924      13.629744       3.94907
  47    0.1255        9.9624        0.0018       23.5805       23.5823      13.619824       4.49735
  46    0.1487        9.9621        0.0024       23.5649       23.5673      13.605231       5.31933
  45    0.1794        9.9617        0.0034       23.5408       23.5442      13.582503       6.23941
  44    0.2165        9.9612        0.0045       23.5086       23.5131      13.551862       6.97013
  43    0.2613        9.9607        0.0058       23.4656       23.4714      13.510652       7.76806
  42    0.3336        9.9599        0.0079       23.3856       23.3934      13.433506       8.99438
  41    0.4307        9.9590        0.0107       23.2686       23.2793      13.320255       9.84697
  40    0.5894        9.9577        0.0151       23.0566       23.0717      13.113964      10.97027
  39     1.339        9.9561        0.0342       21.8385       21.8727      11.916658      13.47949
  38     1.782        9.9579        0.0441       21.1242       21.1683      11.210455      13.44497
  37     2.292        9.9624        0.0549       20.3853       20.4402      10.477859      12.13370
  36     2.964        9.9717        0.0683       19.5716       19.6398       9.668133      10.16451
  35     3.853        9.9888        0.0850       18.7101       18.7951       8.806350       8.17847
  34     5.035       10.0162        0.1061       17.8344       17.9405       7.924307       6.30095
  33     6.613       10.0559        0.1687       16.9840       17.1527       7.096778       4.42397
  32     8.786       10.1078        0.1947       16.1805       16.3753       6.267439       3.22085
  31     11.80       10.1761        0.2473       15.3906       15.6380       5.461852       2.25539
  30     15.07       10.2424        0.2951       14.7852       15.0803       4.837834       1.61109
  29     18.79       10.3115        0.3506       14.2611       14.6117       4.300248       1.21887
  28     23.16       10.3855        0.4132       13.7787       14.1920       3.806472       0.95480
  27     28.12       10.4622        0.4843       13.3363       13.8206       3.358420       0.76166
  26     33.73       10.5345        0.5641       12.9429       13.5070       2.972497       0.58024
  25     40.54       10.6052        0.6600       12.5620       13.2220       2.616864       0.44120
  24     48.69       10.6744        0.7748       12.1840       12.9588       2.284428       0.34402
  23     57.69       10.7342        0.8995       11.8374       12.7368       2.002588       0.26418
  22     68.43       10.7871        1.0468       11.4882       12.5350       1.747881       0.20023
  21     81.20       10.8220        1.2218       11.1440       12.3657       1.543718       0.13491
  20     96.49       10.8367        1.4286       10.7955       12.2242       1.387423       0.08626
  19     114.6       10.8414        1.6689       10.4201       12.0890       1.247545       0.06531
  18     136.5       10.8399        1.9450       10.0075       11.9525       1.112589       0.05189
  17     162.9       10.8326        2.2615        9.5507       11.8122       0.979580       0.04252
  16     196.4       10.8072        2.6565        9.0125       11.6690       0.861729       0.02966
  15     218.7       10.7855        2.9063        8.6832       11.5895       0.803981       0.02192
  14     243.0       10.7603        3.1687        8.3421       11.5108       0.750447       0.01857
  13     269.0       10.7313        3.4430        7.9905       11.4335       0.702185       0.01566
  12     297.5       10.6985        3.7282        7.6297       11.3580       0.659479       0.01267
  11     328.5       10.6635        4.0231        7.2588       11.2820       0.618440       0.01116
  10     361.9       10.6266        4.3261        6.8798       11.2059       0.579254       0.00991
   9     398.1       10.5880        4.6356        6.4943       11.1300       0.541976       0.00868
   8     437.6       10.5482        4.9501        6.1039       11.0541       0.505913       0.00771
   7     480.5       10.5072        5.2678        5.7110       10.9787       0.471554       0.00675
   6     533.0       10.4593        5.6333        5.2600       10.8933       0.433959       0.00605
   5     589.8       10.4114        5.9978        4.8110       10.8088       0.397416       0.00542
   4     651.6       10.3640        6.3569        4.3687       10.7256       0.361531       0.00491
   3     718.7       10.3179        6.7087        3.9355       10.6441       0.326262       0.00443
   2     792.3       10.2735        7.0495        3.5156       10.5651       0.291629       0.00397
   1     891.5       10.2214        7.4566        3.0135       10.4701       0.248730       0.00365
   0    1013.0       10.1702        7.8738        2.4975       10.3714       0.201205       0.00330



 Wavenumbers: 38000. - 50000. cm-1, ATM      1
 LEVEL PRESSURE   UPWARD FLUX   DIFDOWN FLUX  DIRDOWN FLUX  DOWNWARD FLUX   NET FLUX    HEATING RATE
          mb          W/m2          W/m2          W/m2        W/m2          W/m2       degree/day
  51    .06700        0.0064        0.0000        1.4562        1.4562       1.449851       0.00000
  50    .07753        0.0063        0.0001        1.4538        1.4538       1.447515       1.87203
  49    .09103        0.0063        0.0002        1.4503        1.4504       1.444181       2.08370
  48    0.1069        0.0062        0.0002        1.4457        1.4460       1.439799       2.33299
  47    0.1255        0.0061        0.0004        1.4398        1.4401       1.434034       2.61327
  46    0.1487        0.0060        0.0005        1.4312        1.4317       1.425688       3.04234
  45    0.1794        0.0058        0.0007        1.4180        1.4187       1.412873       3.51804
  44    0.2165        0.0056        0.0009        1.4006        1.4015       1.395855       3.87133
  43    0.2613        0.0055        0.0011        1.3776        1.3788       1.373331       4.24569
  42    0.3336        0.0052        0.0015        1.3357        1.3372       1.332021       4.81628
  41    0.4307        0.0048        0.0020        1.2758        1.2777       1.272958       5.13538
  40    0.5894        0.0042        0.0026        1.1715        1.1740       1.169828       5.48432
  39     1.339        0.0025        0.0036        0.6739        0.6775       0.675039       5.57043
  38     1.782        0.0018        0.0032        0.4629        0.4661       0.464220       4.01365
  37     2.292        0.0014        0.0027        0.3051        0.3078       0.306382       2.61421
  36     2.964        0.0010        0.0023        0.1905        0.1928       0.191800       1.43835
  35     3.853        0.0007        0.0017        0.1145        0.1162       0.115467       0.72441
  34     5.035        0.0005        0.0013        0.0665        0.0678       0.067273       0.34428
  33     6.613        0.0003        0.0010        0.0381        0.0391       0.038771       0.15237
  32     8.786        0.0002        0.0007        0.0211        0.0218       0.021612       0.06664
  31     11.80        0.0001        0.0004        0.0104        0.0108       0.010638       0.03072
  30     15.07        0.0001        0.0003        0.0053        0.0055       0.005477       0.01332
  29     18.79        0.0000        0.0002        0.0026        0.0028       0.002779       0.00612
  28     23.16        0.0000        0.0001        0.0013        0.0014       0.001356       0.00275
  27     28.12        0.0000        0.0001        0.0006        0.0007       0.000641       0.00121
  26     33.73        0.0000        0.0000        0.0003        0.0003       0.000303       0.00051
  25     40.54        0.0000        0.0000        0.0001        0.0001       0.000134       0.00021
  24     48.69        0.0000        0.0000        0.0000        0.0001       0.000054       0.00008
  23     57.69        0.0000        0.0000        0.0000        0.0000       0.000022       0.00003
  22     68.43        0.0000        0.0000        0.0000        0.0000       0.000008       0.00001
  21     81.20        0.0000        0.0000        0.0000        0.0000       0.000003       0.00000
  20     96.49        0.0000        0.0000        0.0000        0.0000       0.000001       0.00000
  19     114.6        0.0000        0.0000        0.0000        0.0000       0.000000       0.00000
  18     136.5        0.0000        0.0000        0.0000        0.0000       0.000000       0.00000
  17     162.9        0.0000        0.0000        0.0000        0.0000       0.000000       0.00000
  16     196.4        0.0000        0.0000        0.0000        0.0000       0.000000       0.00000
  15     218.7        0.0000        0.0000        0.0000        0.0000       0.000000       0.00000
  14     243.0        0.0000        0.0000        0.0000        0.0000       0.000000       0.00000
  13     269.0        0.0000        0.0000        0.0000        0.0000       0.000000       0.00000
  12     297.5        0.0000        0.0000        0.0000        0.0000       0.000000       0.00000
  11     328.5        0.0000        0.0000        0.0000        0.0000       0.000000       0.00000
  10     361.9        0.0000        0.0000        0.0000        0.0000       0.000000       0.00000
   9     398.1        0.0000        0.0000        0.0000        0.0000       0.000000       0.00000
   8     437.6        0.0000        0.0000        0.0000        0.0000       0.000000       0.00000
   7     480.5        0.0000        0.0000        0.0000        0.0000       0.000000       0.00000
   6     533.0        0.0000        0.0000        0.0000        0.0000       0.000000       0.00000
   5     589.8        0.0000        0.0000        0.0000        0.0000       0.000000       0.00000
   4     651.6        0.0000        0.0000        0.0000        0.0000       0.000000       0.00000
   3     718.7        0.0000        0.0000        0.0000        0.0000       0.000000       0.00000
   2     792.3        0.0000        0.0000        0.0000        0.0000       0.000000       0.00000
   1     891.5        0.0000        0.0000        0.0000        0.0000       0.000000       0.00000
   0    1013.0        0.0000        0.0000        0.0000        0.0000       0.000000       0.00000



 Wavenumbers:   820. -  2600. cm-1, ATM      1
 LEVEL PRESSURE   UPWARD FLUX   DIFDOWN FLUX  DIRDOWN FLUX  DOWNWARD FLUX   NET FLUX    HEATING RATE
          mb          W/m2          W/m2          W/m2        W/m2          W/m2       degree/day
  51    .06700        0.8151        0.0000        6.8121        6.8121       5.996945       0.00000
  50    .07753        0.8151        0.0000        6.8078        6.8078       5.992686       3.41408
  49    .09103        0.8151        0.0000        6.8069        6.8069       5.991767       0.57459
  48    0.1069        0.8151        0.0000        6.8059        6.8059       5.990757       0.53723
  47    0.1255        0.8151        0.0000        6.8047        6.8047       5.989605       0.52231
  46    0.1487        0.8151        0.0000        6.8033        6.8033       5.988190       0.51583
  45    0.1794        0.8151        0.0000        6.8015        6.8015       5.986372       0.49915
  44    0.2165        0.8151        0.0000        6.7995        6.7995       5.984399       0.44872
  43    0.2613        0.8151        0.0000        6.7974        6.7974       5.982284       0.39868
  42    0.3336        0.8151        0.0000        6.7943        6.7943       5.979184       0.36144
  41    0.4307        0.8151        0.0000        6.7907        6.7907       5.975506       0.31977
  40    0.5894        0.8151        0.0000        6.7849        6.7849       5.969784       0.30429
  39     1.339        0.8151        0.0000        6.7584        6.7584       5.943261       0.29861
  38     1.782        0.8151        0.0000        6.7436        6.7436       5.928473       0.28154
  37     2.292        0.8151        0.0000        6.7271        6.7271       5.911987       0.27304
  36     2.964        0.8152        0.0000        6.7063        6.7063       5.891181       0.26118
  35     3.853        0.8152        0.0000        6.6802        6.6802       5.865040       0.24809
  34     5.035        0.8152        0.0000        6.6477        6.6477       5.832565       0.23198
  33     6.613        0.8152        0.0000        6.6073        6.6073       5.792112       0.21626
  32     8.786        0.8152        0.0000        6.5563        6.5563       5.741120       0.19803
  31     11.80        0.8152        0.0000        6.4914        6.4914       5.676243       0.18164
  30     15.07        0.8152        0.0000        6.4346        6.4346       5.619408       0.14674
  29     18.79        0.8152        0.0000        6.3863        6.3863       5.571102       0.10952
  28     23.16        0.8152        0.0000        6.3466        6.3466       5.531424       0.07673
  27     28.12        0.8152        0.0000        6.3148        6.3148       5.499575       0.05414
  26     33.73        0.8152        0.0000        6.2875        6.2875       5.472264       0.04106
  25     40.54        0.8152        0.0000        6.2589        6.2589       5.443679       0.03546
  24     48.69        0.8153        0.0000        6.2266        6.2266       5.411334       0.03347
  23     57.69        0.8153        0.0000        6.1919        6.1919       5.376655       0.03251
  22     68.43        0.8153        0.0000        6.1515        6.1515       5.336149       0.03184
  21     81.20        0.8154        0.0000        6.1049        6.1049       5.289515       0.03082
  20     96.49        0.8154        0.0000        6.0510        6.0510       5.235632       0.02974
  19     114.6        0.8154        0.0000        5.9886        5.9886       5.173202       0.02915
  18     136.5        0.8155        0.0000        5.9170        5.9170       5.101535       0.02756
  17     162.9        0.8156        0.0000        5.8281        5.8282       5.012564       0.02844
  16     196.4        0.8158        0.0000        5.6942        5.6943       4.878512       0.03374
  15     218.7        0.8159        0.0000        5.5730        5.5730       4.757076       0.04610
  14     243.0        0.8162        0.0000        5.4002        5.4002       4.584045       0.06001
  13     269.0        0.8165        0.0000        5.1975        5.1976       4.381028       0.06586
  12     297.5        0.8172        0.0000        4.9809        4.9809       4.163735       0.06445
  11     328.5        0.8180        0.0000        4.7526        4.7526       3.934576       0.06231
  10     361.9        0.8192        0.0000        4.4843        4.4844       3.665208       0.06815
   9     398.1        0.8207        0.0000        4.1916        4.1916       3.370924       0.06856
   8     437.6        0.8227        0.0000        3.9107        3.9107       3.088048       0.06048
   7     480.5        0.8251        0.0000        3.6906        3.6906       2.865491       0.04371
   6     533.0        0.8290        0.0000        3.5118        3.5119       2.682928       0.02937
   5     589.8        0.8347        0.0000        3.3528        3.3529       2.518178       0.02445
   4     651.6        0.8450        0.0000        3.1537        3.1538       2.308728       0.02864
   3     718.7        0.8629        0.0000        2.9176        2.9176       2.054705       0.03192
   2     792.3        0.8958        0.0000        2.6568        2.6569       1.761108       0.03367
   1     891.5        0.9795        0.0000        2.3072        2.3072       1.327702       0.03688
   0    1013.0        1.1924        0.0000        1.8546        1.8547       0.662310       0.04620

  Modules and versions used in this calculation:

       rrtmg_sw.1col.f90:  $Revision$                    rrtmg_sw_init.f90:  $Revision$        
     rrtmgsw_cldprop.f90:  $Revision$                  rrtmgsw_cldprmc.f90:  NOT USED          
     rrtmg_sw_reftra.f90:  $Revision$                  rrtmg_sw_spcvrt.f90:  NOT USED          
     rrtmg_sw_spcvmc.f90:  NOT USED                    rrtmgsw_setcoef.f90:  NOT USED          
     rrtmg_sw_taumol.f90:  $Revision$                  rrtmg_sw_vrtqdr.f90:  NOT USED          
                rrtatm.f:  NOT USED                             util_xxx.f:  NOT USED          
                 extra.f:  NOT USED                       rrtmg_sw_k_g.f90:  $Revision$        

