

 Wavenumbers:   820. - 50000. cm-1, ATM      1
 LEVEL PRESSURE   UPWARD FLUX   DIFDOWN FLUX  DIRDOWN FLUX  DOWNWARD FLUX   NET FLUX    HEATING RATE
          mb          W/m2          W/m2          W/m2        W/m2          W/m2       degree/day
  51    .06700      727.6355        0.0000     1190.2255     1190.2255     462.589990       0.00000
  50    .07753      727.6356        0.0018     1190.2044     1190.2061     462.570492      15.62805
  49    .09103      727.6358        0.0039     1190.1854     1190.1893     462.553513      10.61235
  48    0.1069      727.6361        0.0065     1190.1640     1190.1705     462.534377      10.18592
  47    0.1255      727.6365        0.0094     1190.1384     1190.1478     462.511263      10.47891
  46    0.1487      727.6372        0.0130     1190.1037     1190.1167     462.479586      11.54665
  45    0.1794      727.6382        0.0180     1190.0527     1190.0708     462.432585      12.90289
  44    0.2165      727.6396        0.0239     1189.9872     1190.0112     462.371546      13.88527
  43    0.2613      727.6416        0.0309     1189.9026     1189.9335     462.291850      15.02234
  42    0.3336      727.6455        0.0424     1189.7494     1189.7919     462.146355      16.96331
  41    0.4307      727.6515        0.0577     1189.5303     1189.5879     461.936414      18.25389
  40    0.5894      727.6632        0.0823     1189.1383     1189.2206     461.557441      20.15328
  39     1.339      727.7524        0.1955     1186.8374     1187.0329     459.280512      25.63409
  38     1.782      727.8290        0.2598     1185.3919     1185.6516     457.822606      27.75618
  37     2.292      727.9400        0.3330     1183.8142     1184.1472     456.207183      26.75563
  36     2.964      728.1198        0.4284     1182.0145     1182.4428     454.323033      23.65177
  35     3.853      728.4049        0.5537     1180.0956     1180.6492     452.244364      19.72695
  34     5.035      728.8305        0.7194     1178.1136     1178.8330     450.002525      16.01477
  33     6.613      729.4240        0.9402     1176.0611     1177.0013     447.577325      12.96512
  32     8.786      730.2012        1.2370     1173.9202     1175.1572     444.956036      10.18014
  31     11.80      731.2258        1.6605     1171.5346     1173.1951     441.969309       8.36189
  30     15.07      732.2248        2.1143     1169.4471     1171.5614     439.336625       6.79708
  29     18.79      733.2631        2.6258     1167.4203     1170.0461     436.783014       5.78982
  28     23.16      734.3721        3.2223     1165.3508     1168.5731     434.201024       4.99273
  27     28.12      735.5183        3.9034     1163.2646     1167.1680     431.649647       4.33717
  26     33.73      736.6208        4.6656     1161.2294     1165.8950     429.274241       3.57149
  25     40.54      737.7408        5.5865     1159.0727     1164.6592     426.918437       2.92264
  24     48.69      738.8848        6.6962     1156.7493     1163.4456     424.560826       2.43976
  23     57.69      739.9391        7.9145     1154.4417     1162.3562     422.417009       2.00951
  22     68.43      740.9730        9.3647     1151.9379     1161.3026     420.329672       1.64093
  21     81.20      741.8916       11.0934     1149.2546     1160.3481     418.456465       1.23779
  20     96.49      742.6910       13.1527     1146.3242     1159.4769     416.785938       0.92201
  19     114.6      743.5121       15.5913     1142.9786     1158.5699     415.057778       0.80693
  18     136.5      744.3779       18.4668     1139.1345     1157.6013     413.223458       0.70534
  17     162.9      745.3101       21.8700     1134.6219     1156.4919     411.181722       0.65262
  16     196.4      746.3000       26.2562     1128.7311     1154.9874     408.687405       0.62785
  15     218.7      746.8685       29.1178     1124.4091     1153.5269     406.658345       0.77036
  14     243.0      747.4494       32.2102     1119.0323     1151.2424     403.793064       0.99377
  13     269.0      748.0412       35.5406     1112.2397     1147.7804     399.739151       1.31507
  12     297.5      748.6479       39.1157     1103.7949     1142.9106     394.262747       1.62424
  11     328.5      749.2920       42.9503     1094.4553     1137.4056     388.113592       1.67194
  10     361.9      749.9791       47.0464     1084.3752     1131.4216     381.442444       1.68787
   9     398.1      750.7210       51.4177     1073.2938     1124.7115     373.990479       1.73614
   8     437.6      751.5385       56.0694     1060.8528     1116.9222     365.383706       1.84018
   7     480.5      752.4503       61.0081     1047.1393     1108.1474     355.697115       1.90241
   6     533.0      753.6540       67.0217     1029.9661     1096.9878     343.333745       1.98887
   5     589.8      755.1217       73.4240     1010.9842     1084.4082     329.286499       2.08507
   4     651.6      757.0763       80.2152      989.1517     1069.3669     312.290564       2.32424
   3     718.7      759.7670       87.3963      965.1703     1052.5666     292.799575       2.44948
   2     792.3      763.7959       94.9522      938.9217     1033.8739     270.078032       2.60591
   1     891.5      772.3632      104.9325      903.5277     1008.4602     236.097022       2.89162
   0    1013.0      791.6435      116.6001      862.5046      979.1048     187.461215       3.37703



 Wavenumbers:  2600. -  3250. cm-1, ATM      1
 LEVEL PRESSURE   UPWARD FLUX   DIFDOWN FLUX  DIRDOWN FLUX  DOWNWARD FLUX   NET FLUX    HEATING RATE
          mb          W/m2          W/m2          W/m2        W/m2          W/m2       degree/day
  51    .06700        0.0202        0.0000       10.4899       10.4899      10.469772       0.00000
  50    .07753        0.0202        0.0000       10.4899       10.4899      10.469764       0.00640
  49    .09103        0.0202        0.0000       10.4899       10.4899      10.469754       0.00627
  48    0.1069        0.0202        0.0000       10.4899       10.4899      10.469742       0.00613
  47    0.1255        0.0202        0.0000       10.4899       10.4899      10.469729       0.00600
  46    0.1487        0.0202        0.0000       10.4899       10.4899      10.469713       0.00608
  45    0.1794        0.0202        0.0000       10.4899       10.4899      10.469690       0.00625
  44    0.2165        0.0202        0.0000       10.4898       10.4898      10.469663       0.00613
  43    0.2613        0.0202        0.0000       10.4898       10.4898      10.469631       0.00601
  42    0.3336        0.0202        0.0000       10.4897       10.4897      10.469578       0.00618
  41    0.4307        0.0202        0.0000       10.4897       10.4897      10.469506       0.00622
  40    0.5894        0.0202        0.0000       10.4896       10.4896      10.469386       0.00640
  39     1.339        0.0202        0.0000       10.4888       10.4888      10.468671       0.00805
  38     1.782        0.0202        0.0000       10.4883       10.4883      10.468117       0.01054
  37     2.292        0.0202        0.0000       10.4875       10.4875      10.467380       0.01221
  36     2.964        0.0202        0.0000       10.4865       10.4865      10.466296       0.01360
  35     3.853        0.0202        0.0000       10.4849       10.4849      10.464725       0.01491
  34     5.035        0.0202        0.0000       10.4826       10.4826      10.462479       0.01604
  33     6.613        0.0202        0.0000       10.4795       10.4795      10.459321       0.01689
  32     8.786        0.0202        0.0000       10.4751       10.4751      10.454950       0.01697
  31     11.80        0.0202        0.0000       10.4689       10.4689      10.448716       0.01745
  30     15.07        0.0202        0.0000       10.4624       10.4624      10.442260       0.01667
  29     18.79        0.0202        0.0000       10.4556       10.4556      10.435441       0.01546
  28     23.16        0.0202        0.0000       10.4483       10.4483      10.428138       0.01412
  27     28.12        0.0202        0.0000       10.4407       10.4407      10.420531       0.01293
  26     33.73        0.0202        0.0000       10.4325       10.4325      10.412392       0.01224
  25     40.54        0.0202        0.0000       10.4228       10.4228      10.402633       0.01211
  24     48.69        0.0202        0.0000       10.4109       10.4109      10.390735       0.01231
  23     57.69        0.0202        0.0000       10.3972       10.3973      10.377104       0.01278
  22     68.43        0.0201        0.0000       10.3799       10.3800      10.359826       0.01358
  21     81.20        0.0201        0.0000       10.3578       10.3579      10.337719       0.01461
  20     96.49        0.0201        0.0000       10.3297       10.3298      10.309620       0.01551
  19     114.6        0.0201        0.0000       10.2936       10.2937      10.273543       0.01685
  18     136.5        0.0201        0.0000       10.2493       10.2494      10.229265       0.01703
  17     162.9        0.0201        0.0001       10.1957       10.1958      10.175687       0.01713
  16     196.4        0.0201        0.0001       10.1258       10.1259      10.105754       0.01760
  15     218.7        0.0201        0.0001       10.0768       10.0769      10.056776       0.01860
  14     243.0        0.0201        0.0001       10.0167       10.0168       9.996647       0.02085
  13     269.0        0.0201        0.0001        9.9409        9.9410       9.920864       0.02458
  12     297.5        0.0201        0.0001        9.8475        9.8476       9.827458       0.02770
  11     328.5        0.0201        0.0001        9.7421        9.7422       9.722103       0.02865
  10     361.9        0.0202        0.0001        9.6246        9.6247       9.604543       0.02974
   9     398.1        0.0202        0.0001        9.4888        9.4890       9.468783       0.03163
   8     437.6        0.0202        0.0001        9.3242        9.3243       9.304060       0.03522
   7     480.5        0.0203        0.0001        9.1198        9.1200       9.099648       0.04015
   6     533.0        0.0204        0.0002        8.8262        8.8264       8.805957       0.04725
   5     589.8        0.0206        0.0002        8.4513        8.4515       8.430837       0.05568
   4     651.6        0.0209        0.0002        7.9771        7.9773       7.956336       0.06489
   3     718.7        0.0214        0.0002        7.4441        7.4443       7.422876       0.06704
   2     792.3        0.0222        0.0002        6.8606        6.8608       6.838586       0.06701
   1     891.5        0.0242        0.0002        6.0600        6.0601       6.035924       0.06830
   0    1013.0        0.0297        0.0002        5.1191        5.1193       5.089593       0.06571



 Wavenumbers:  3250. -  4000. cm-1, ATM      1
 LEVEL PRESSURE   UPWARD FLUX   DIFDOWN FLUX  DIRDOWN FLUX  DOWNWARD FLUX   NET FLUX    HEATING RATE
          mb          W/m2          W/m2          W/m2        W/m2          W/m2       degree/day
  51    .06700        0.0005        0.0000       17.6845       17.6845      17.683996       0.00000
  50    .07753        0.0005        0.0000       17.6790       17.6790      17.678439       4.45437
  49    .09103        0.0005        0.0000       17.6740       17.6740      17.673501       3.08583
  48    0.1069        0.0005        0.0000       17.6700       17.6700      17.669450       2.15666
  47    0.1255        0.0005        0.0000       17.6664       17.6664      17.665930       1.59598
  46    0.1487        0.0005        0.0000       17.6629       17.6629      17.662354       1.30345
  45    0.1794        0.0005        0.0000       17.6588       17.6588      17.658245       1.12799
  44    0.2165        0.0005        0.0000       17.6545       17.6545      17.653989       0.96809
  43    0.2613        0.0005        0.0000       17.6500       17.6500      17.649490       0.84811
  42    0.3336        0.0005        0.0000       17.6435       17.6435      17.643009       0.75554
  41    0.4307        0.0005        0.0000       17.6363       17.6363      17.635786       0.62803
  40    0.5894        0.0005        0.0000       17.6265       17.6265      17.625967       0.52219
  39     1.339        0.0005        0.0000       17.5911       17.5911      17.590566       0.39855
  38     1.782        0.0005        0.0000       17.5743       17.5743      17.573755       0.32005
  37     2.292        0.0005        0.0000       17.5574       17.5574      17.556937       0.27855
  36     2.964        0.0005        0.0000       17.5383       17.5383      17.537763       0.24070
  35     3.853        0.0005        0.0000       17.5160       17.5160      17.515537       0.21092
  34     5.035        0.0005        0.0000       17.4895       17.4895      17.489015       0.18947
  33     6.613        0.0005        0.0000       17.4565       17.4565      17.455990       0.17655
  32     8.786        0.0005        0.0000       17.4127       17.4127      17.412245       0.16989
  31     11.80        0.0005        0.0000       17.3488       17.3488      17.348283       0.17907
  30     15.07        0.0005        0.0000       17.2773       17.2773      17.276810       0.18453
  29     18.79        0.0005        0.0000       17.1934       17.1935      17.192966       0.19010
  28     23.16        0.0005        0.0000       17.0928       17.0929      17.092373       0.19451
  27     28.12        0.0005        0.0000       16.9766       16.9766      16.976155       0.19756
  26     33.73        0.0005        0.0000       16.8483       16.8483      16.847863       0.19289
  25     40.54        0.0005        0.0001       16.6994       16.6994      16.698953       0.18474
  24     48.69        0.0004        0.0001       16.5332       16.5333      16.532829       0.17191
  23     57.69        0.0004        0.0001       16.3678       16.3679      16.367463       0.15501
  22     68.43        0.0004        0.0001       16.1902       16.1903      16.189897       0.13959
  21     81.20        0.0004        0.0001       15.9968       15.9969      15.996532       0.12777
  20     96.49        0.0004        0.0001       15.7793       15.7794      15.779054       0.12003
  19     114.6        0.0004        0.0001       15.5183       15.5184      15.518072       0.12186
  18     136.5        0.0003        0.0002       15.2161       15.2163      15.215975       0.11616
  17     162.9        0.0003        0.0002       14.8506       14.8508      14.850443       0.11684
  16     196.4        0.0003        0.0002       14.3191       14.3193      14.319012       0.13377
  15     218.7        0.0002        0.0002       13.8246       13.8248      13.824585       0.18772
  14     243.0        0.0002        0.0003       13.1359       13.1362      13.135948       0.23884
  13     269.0        0.0002        0.0003       12.2244       12.2247      12.224469       0.29568
  12     297.5        0.0002        0.0003       11.1496       11.1498      11.149650       0.31878
  11     328.5        0.0002        0.0003       10.0879       10.0882      10.088021       0.28865
  10     361.9        0.0001        0.0002        9.0494        9.0496       9.049511       0.26275
   9     398.1        0.0001        0.0002        8.0117        8.0120       8.011852       0.24175
   8     437.6        0.0001        0.0002        7.0018        7.0020       7.001896       0.21593
   7     480.5        0.0001        0.0002        6.0827        6.0829       6.082860       0.18050
   6     533.0        0.0001        0.0002        5.1144        5.1146       5.114529       0.15577
   5     589.8        0.0001        0.0002        4.1916        4.1918       4.191699       0.13698
   4     651.6        0.0000        0.0001        3.2565        3.2567       3.256611       0.12788
   3     718.7        0.0000        0.0001        2.3615        2.3616       2.361550       0.11248
   2     792.3        0.0001        0.0001        1.5326        1.5326       1.532563       0.09508
   1     891.5        0.0002        0.0000        0.7313        0.7313       0.731111       0.06820
   0    1013.0        0.0018        0.0000        0.1973        0.1973       0.195466       0.03719



 Wavenumbers:  4000. -  4650. cm-1, ATM      1
 LEVEL PRESSURE   UPWARD FLUX   DIFDOWN FLUX  DIRDOWN FLUX  DOWNWARD FLUX   NET FLUX    HEATING RATE
          mb          W/m2          W/m2          W/m2        W/m2          W/m2       degree/day
  51    .06700        0.5596        0.0000       20.7670       20.7670      20.207305       0.00000
  50    .07753        0.5596        0.0000       20.7670       20.7670      20.207304       0.00080
  49    .09103        0.5596        0.0000       20.7670       20.7670      20.207303       0.00078
  48    0.1069        0.5596        0.0000       20.7670       20.7670      20.207302       0.00076
  47    0.1255        0.5596        0.0000       20.7669       20.7669      20.207300       0.00075
  46    0.1487        0.5596        0.0000       20.7669       20.7669      20.207298       0.00076
  45    0.1794        0.5596        0.0000       20.7669       20.7669      20.207295       0.00078
  44    0.2165        0.5596        0.0000       20.7669       20.7669      20.207292       0.00076
  43    0.2613        0.5596        0.0000       20.7669       20.7669      20.207288       0.00075
  42    0.3336        0.5596        0.0000       20.7669       20.7669      20.207281       0.00077
  41    0.4307        0.5596        0.0000       20.7669       20.7669      20.207272       0.00077
  40    0.5894        0.5596        0.0000       20.7669       20.7669      20.207257       0.00080
  39     1.339        0.5596        0.0000       20.7668       20.7668      20.207168       0.00101
  38     1.782        0.5596        0.0000       20.7667       20.7667      20.207098       0.00133
  37     2.292        0.5596        0.0000       20.7666       20.7666      20.207004       0.00156
  36     2.964        0.5596        0.0000       20.7665       20.7665      20.206864       0.00176
  35     3.853        0.5596        0.0000       20.7663       20.7663      20.206656       0.00197
  34     5.035        0.5596        0.0000       20.7660       20.7660      20.206349       0.00219
  33     6.613        0.5596        0.0000       20.7655       20.7655      20.205896       0.00242
  32     8.786        0.5596        0.0000       20.7648       20.7648      20.205228       0.00260
  31     11.80        0.5596        0.0000       20.7637       20.7638      20.204176       0.00294
  30     15.07        0.5596        0.0001       20.7625       20.7625      20.202941       0.00319
  29     18.79        0.5596        0.0001       20.7610       20.7610      20.201443       0.00340
  28     23.16        0.5596        0.0001       20.7591       20.7592      20.199578       0.00360
  27     28.12        0.5596        0.0001       20.7568       20.7569      20.197315       0.00385
  26     33.73        0.5595        0.0001       20.7539       20.7541      20.194514       0.00421
  25     40.54        0.5595        0.0001       20.7501       20.7502      20.190701       0.00473
  24     48.69        0.5595        0.0002       20.7449       20.7451      20.185595       0.00528
  23     57.69        0.5595        0.0002       20.7388       20.7390      20.179510       0.00570
  22     68.43        0.5594        0.0002       20.7310       20.7313      20.171848       0.00602
  21     81.20        0.5594        0.0003       20.7215       20.7218      20.162355       0.00627
  20     96.49        0.5594        0.0004       20.7098       20.7101      20.150746       0.00641
  19     114.6        0.5594        0.0004       20.6951       20.6955      20.136164       0.00681
  18     136.5        0.5593        0.0005       20.6773       20.6778      20.118516       0.00679
  17     162.9        0.5593        0.0006       20.6555       20.6561      20.096817       0.00694
  16     196.4        0.5593        0.0007       20.6254       20.6261      20.066836       0.00755
  15     218.7        0.5593        0.0008       20.6023       20.6031      20.043746       0.00877
  14     243.0        0.5594        0.0009       20.5709       20.5717      20.012374       0.01088
  13     269.0        0.5595        0.0010       20.5262       20.5272      19.967715       0.01449
  12     297.5        0.5597        0.0011       20.4647       20.4657      19.906011       0.01830
  11     328.5        0.5600        0.0012       20.3887       20.3899      19.829857       0.02071
  10     361.9        0.5605        0.0013       20.2940       20.2953      19.734835       0.02404
   9     398.1        0.5611        0.0014       20.1707       20.1721      19.611082       0.02883
   8     437.6        0.5618        0.0015       20.0058       20.0073      19.445511       0.03540
   7     480.5        0.5628        0.0016       19.7951       19.7967      19.233954       0.04155
   6     533.0        0.5642        0.0018       19.4986       19.5004      18.936137       0.04791
   5     589.8        0.5663        0.0019       19.1469       19.1488      18.582516       0.05249
   4     651.6        0.5696        0.0021       18.7235       18.7256      18.156027       0.05832
   3     718.7        0.5748        0.0022       18.2160       18.2182      17.643389       0.06442
   2     792.3        0.5837        0.0023       17.5402       17.5425      16.958812       0.07851
   1     891.5        0.6049        0.0024       16.4435       16.4459      15.840960       0.09512
   0    1013.0        0.6615        0.0025       15.1339       15.1364      14.474959       0.09485



 Wavenumbers:  4650. -  5150. cm-1, ATM      1
 LEVEL PRESSURE   UPWARD FLUX   DIFDOWN FLUX  DIRDOWN FLUX  DOWNWARD FLUX   NET FLUX    HEATING RATE
          mb          W/m2          W/m2          W/m2        W/m2          W/m2       degree/day
  51    .06700        0.0953        0.0000       19.6569       19.6569      19.561586       0.00000
  50    .07753        0.0953        0.0000       19.6567       19.6567      19.561350       0.18922
  49    .09103        0.0953        0.0000       19.6564       19.6564      19.561054       0.18495
  48    0.1069        0.0953        0.0000       19.6560       19.6560      19.560715       0.18048
  47    0.1255        0.0953        0.0000       19.6556       19.6556      19.560327       0.17599
  46    0.1487        0.0953        0.0000       19.6551       19.6551      19.559839       0.17780
  45    0.1794        0.0953        0.0000       19.6545       19.6545      19.559177       0.18194
  44    0.2165        0.0953        0.0000       19.6537       19.6537      19.558398       0.17724
  43    0.2613        0.0953        0.0000       19.6528       19.6528      19.557482       0.17251
  42    0.3336        0.0953        0.0000       19.6513       19.6513      19.555986       0.17449
  41    0.4307        0.0953        0.0000       19.6493       19.6493      19.554033       0.16975
  40    0.5894        0.0953        0.0000       19.6462       19.6462      19.550922       0.16547
  39     1.339        0.0953        0.0000       19.6327       19.6327      19.537381       0.15244
  38     1.782        0.0953        0.0000       19.6256       19.6256      19.530276       0.13526
  37     2.292        0.0953        0.0000       19.6180       19.6180      19.522746       0.12472
  36     2.964        0.0953        0.0000       19.6091       19.6091      19.513847       0.11171
  35     3.853        0.0953        0.0000       19.5989       19.5989      19.503605       0.09721
  34     5.035        0.0953        0.0000       19.5874       19.5874      19.492155       0.08179
  33     6.613        0.0953        0.0000       19.5750       19.5750      19.479751       0.06631
  32     8.786        0.0953        0.0000       19.5618       19.5618      19.466584       0.05114
  31     11.80        0.0952        0.0001       19.5470       19.5471      19.451816       0.04134
  30     15.07        0.0952        0.0001       19.5336       19.5337      19.438432       0.03456
  29     18.79        0.0952        0.0001       19.5193       19.5194      19.424201       0.03226
  28     23.16        0.0952        0.0001       19.5024       19.5025      19.407311       0.03266
  27     28.12        0.0952        0.0002       19.4818       19.4819      19.386775       0.03491
  26     33.73        0.0951        0.0002       19.4569       19.4571      19.361935       0.03735
  25     40.54        0.0951        0.0002       19.4242       19.4244      19.329324       0.04046
  24     48.69        0.0951        0.0003       19.3816       19.3819      19.286785       0.04402
  23     57.69        0.0950        0.0003       19.3315       19.3318      19.236753       0.04690
  22     68.43        0.0950        0.0004       19.2684       19.2688      19.173817       0.04948
  21     81.20        0.0949        0.0004       19.1902       19.1906      19.095689       0.05163
  20     96.49        0.0949        0.0005       19.0951       19.0956      19.000716       0.05242
  19     114.6        0.0948        0.0006       18.9820       18.9826      18.887815       0.05272
  18     136.5        0.0947        0.0007       18.8515       18.8522      18.757530       0.05010
  17     162.9        0.0946        0.0008       18.7036       18.7044      18.609777       0.04723
  16     196.4        0.0945        0.0010       18.5259       18.5269      18.432335       0.04466
  15     218.7        0.0945        0.0011       18.4165       18.4176      18.323133       0.04146
  14     243.0        0.0944        0.0012       18.3014       18.3026      18.208232       0.03985
  13     269.0        0.0944        0.0014       18.1776       18.1789      18.084552       0.04012
  12     297.5        0.0943        0.0015       18.0394       18.0408      17.946503       0.04094
  11     328.5        0.0943        0.0016       17.8861       17.8878      17.793401       0.04163
  10     361.9        0.0944        0.0018       17.7138       17.7156      17.621214       0.04356
   9     398.1        0.0945        0.0019       17.5160       17.5179      17.423483       0.04607
   8     437.6        0.0946        0.0021       17.2856       17.2877      17.193095       0.04926
   7     480.5        0.0948        0.0022       17.0152       17.0174      16.922593       0.05313
   6     533.0        0.0952        0.0024       16.6478       16.6501      16.554922       0.05915
   5     589.8        0.0958        0.0025       16.2033       16.2058      16.110006       0.06604
   4     651.6        0.0968        0.0027       15.6501       15.6528      15.555972       0.07577
   3     718.7        0.0984        0.0028       14.9897       14.9925      14.894096       0.08318
   2     792.3        0.1009        0.0029       14.2307       14.2336      14.132654       0.08733
   1     891.5        0.1066        0.0030       13.1936       13.1967      13.090063       0.08872
   0    1013.0        0.1193        0.0031       12.0483       12.0514      11.932114       0.08040



 Wavenumbers:  5150. -  6150. cm-1, ATM      1
 LEVEL PRESSURE   UPWARD FLUX   DIFDOWN FLUX  DIRDOWN FLUX  DOWNWARD FLUX   NET FLUX    HEATING RATE
          mb          W/m2          W/m2          W/m2        W/m2          W/m2       degree/day
  51    .06700        1.2886        0.0000       49.2799       49.2799      47.991299       0.00000
  50    .07753        1.2886        0.0000       49.2799       49.2799      47.991260       0.03156
  49    .09103        1.2886        0.0000       49.2798       49.2798      47.991209       0.03205
  48    0.1069        1.2886        0.0000       49.2798       49.2798      47.991148       0.03256
  47    0.1255        1.2886        0.0000       49.2797       49.2797      47.991075       0.03307
  46    0.1487        1.2886        0.0000       49.2796       49.2796      47.990979       0.03484
  45    0.1794        1.2886        0.0000       49.2795       49.2795      47.990844       0.03710
  44    0.2165        1.2886        0.0000       49.2793       49.2793      47.990678       0.03767
  43    0.2613        1.2886        0.0000       49.2791       49.2791      47.990475       0.03826
  42    0.3336        1.2886        0.0000       49.2787       49.2787      47.990129       0.04045
  41    0.4307        1.2886        0.0000       49.2783       49.2783      47.989657       0.04102
  40    0.5894        1.2886        0.0000       49.2775       49.2775      47.988866       0.04208
  39     1.339        1.2886        0.0000       49.2736       49.2736      47.985039       0.04308
  38     1.782        1.2886        0.0000       49.2713       49.2714      47.982800       0.04263
  37     2.292        1.2886        0.0001       49.2688       49.2688      47.980255       0.04214
  36     2.964        1.2886        0.0001       49.2655       49.2656      47.977007       0.04077
  35     3.853        1.2885        0.0001       49.2613       49.2614      47.972854       0.03942
  34     5.035        1.2885        0.0001       49.2558       49.2560      47.967461       0.03852
  33     6.613        1.2885        0.0002       49.2487       49.2489      47.960391       0.03780
  32     8.786        1.2884        0.0002       49.2393       49.2395      47.951100       0.03608
  31     11.80        1.2884        0.0003       49.2264       49.2267      47.938295       0.03585
  30     15.07        1.2883        0.0004       49.2131       49.2135      47.925173       0.03388
  29     18.79        1.2882        0.0005       49.1989       49.1994      47.911141       0.03181
  28     23.16        1.2881        0.0006       49.1832       49.1838      47.895650       0.02996
  27     28.12        1.2880        0.0007       49.1662       49.1670      47.878923       0.02843
  26     33.73        1.2879        0.0009       49.1486       49.1494      47.861502       0.02619
  25     40.54        1.2878        0.0010       49.1288       49.1298      47.842021       0.02417
  24     48.69        1.2876        0.0012       49.1071       49.1083      47.820664       0.02210
  23     57.69        1.2875        0.0015       49.0850       49.0865      47.798969       0.02034
  22     68.43        1.2873        0.0017       49.0605       49.0622      47.774917       0.01891
  21     81.20        1.2871        0.0021       49.0329       49.0350      47.747881       0.01786
  20     96.49        1.2868        0.0025       49.0012       49.0037      47.716855       0.01712
  19     114.6        1.2865        0.0029       48.9643       48.9672      47.680686       0.01689
  18     136.5        1.2861        0.0035       48.9206       48.9240      47.637907       0.01645
  17     162.9        1.2857        0.0041       48.8546       48.8587      47.573036       0.02074
  16     196.4        1.2852        0.0050       48.7132       48.7181      47.432936       0.03526
  15     218.7        1.2848        0.0055       48.5083       48.5138      47.228932       0.07745
  14     243.0        1.2845        0.0060       48.1275       48.1335      46.849049       0.13176
  13     269.0        1.2841        0.0065       47.4298       47.4363      46.152171       0.22606
  12     297.5        1.2838        0.0070       46.3635       46.3706      45.086757       0.31599
  11     328.5        1.2836        0.0076       45.2123       45.2199      43.936338       0.31280
  10     361.9        1.2834        0.0081       44.0135       44.0215      42.738171       0.30315
   9     398.1        1.2833        0.0086       42.6385       42.6470      41.363775       0.32020
   8     437.6        1.2833        0.0090       41.0097       41.0187      39.735390       0.34816
   7     480.5        1.2835        0.0094       39.2305       39.2399      37.956351       0.34940
   6     533.0        1.2842        0.0098       37.0966       37.1064      35.822251       0.34331
   5     589.8        1.2856        0.0102       34.8828       34.8930      33.607409       0.32876
   4     651.6        1.2886        0.0106       32.5940       32.6046      31.315949       0.31336
   3     718.7        1.2945        0.0111       30.5455       30.5565      29.262087       0.25811
   2     792.3        1.3060        0.0116       28.8216       28.8332      27.527194       0.19897
   1     891.5        1.3384        0.0122       27.0663       27.0786      25.740159       0.15207
   0    1013.0        1.4428        0.0129       25.2103       25.2232      23.780422       0.13607



 Wavenumbers:  6150. -  7700. cm-1, ATM      1
 LEVEL PRESSURE   UPWARD FLUX   DIFDOWN FLUX  DIRDOWN FLUX  DOWNWARD FLUX   NET FLUX    HEATING RATE
          mb          W/m2          W/m2          W/m2        W/m2          W/m2       degree/day
  51    .06700        3.4310        0.0000       91.1451       91.1451      87.714136       0.00000
  50    .07753        3.4310        0.0000       91.1450       91.1450      87.714079       0.04554
  49    .09103        3.4310        0.0000       91.1450       91.1450      87.714006       0.04583
  48    0.1069        3.4310        0.0000       91.1449       91.1449      87.713919       0.04615
  47    0.1255        3.4310        0.0000       91.1448       91.1448      87.713817       0.04646
  46    0.1487        3.4310        0.0000       91.1446       91.1446      87.713684       0.04854
  45    0.1794        3.4310        0.0000       91.1444       91.1445      87.713497       0.05129
  44    0.2165        3.4310        0.0000       91.1442       91.1442      87.713270       0.05170
  43    0.2613        3.4309        0.0000       91.1439       91.1439      87.712993       0.05215
  42    0.3336        3.4309        0.0000       91.1434       91.1435      87.712523       0.05477
  41    0.4307        3.4309        0.0000       91.1428       91.1428      87.711887       0.05530
  40    0.5894        3.4309        0.0001       91.1417       91.1417      87.710826       0.05646
  39     1.339        3.4308        0.0001       91.1364       91.1365      87.705709       0.05760
  38     1.782        3.4308        0.0002       91.1333       91.1335      87.702715       0.05700
  37     2.292        3.4307        0.0002       91.1298       91.1300      87.699303       0.05651
  36     2.964        3.4307        0.0003       91.1253       91.1256      87.694925       0.05496
  35     3.853        3.4306        0.0004       91.1195       91.1199      87.689290       0.05347
  34     5.035        3.4305        0.0005       91.1119       91.1124      87.681942       0.05249
  33     6.613        3.4303        0.0007       91.1019       91.1026      87.672269       0.05171
  32     8.786        3.4301        0.0010       91.0886       91.0896      87.659480       0.04967
  31     11.80        3.4298        0.0013       91.0702       91.0715      87.641688       0.04981
  30     15.07        3.4295        0.0017       91.0511       91.0527      87.623232       0.04765
  29     18.79        3.4291        0.0021       91.0303       91.0323      87.603209       0.04540
  28     23.16        3.4287        0.0025       91.0069       91.0094      87.580759       0.04341
  27     28.12        3.4282        0.0031       90.9812       90.9843      87.556124       0.04188
  26     33.73        3.4276        0.0037       90.9539       90.9576      87.529987       0.03930
  25     40.54        3.4270        0.0044       90.9227       90.9272      87.500198       0.03696
  24     48.69        3.4262        0.0053       90.8876       90.8930      87.466776       0.03459
  23     57.69        3.4253        0.0063       90.8511       90.8575      87.432169       0.03244
  22     68.43        3.4242        0.0075       90.8099       90.8173      87.393101       0.03071
  21     81.20        3.4230        0.0089       90.7626       90.7715      87.348540       0.02944
  20     96.49        3.4215        0.0105       90.7078       90.7183      87.296838       0.02854
  19     114.6        3.4197        0.0125       90.6431       90.6556      87.235908       0.02845
  18     136.5        3.4176        0.0149       90.5663       90.5811      87.163563       0.02782
  17     162.9        3.4151        0.0177       90.4550       90.4727      87.057626       0.03386
  16     196.4        3.4118        0.0213       90.2257       90.2470      86.835183       0.05599
  15     218.7        3.4097        0.0236       89.8992       89.9227      86.513026       0.12231
  14     243.0        3.4075        0.0260       89.3111       89.3371      85.929580       0.20236
  13     269.0        3.4052        0.0284       88.3596       88.3880      84.982771       0.30714
  12     297.5        3.4030        0.0307       86.8353       86.8660      83.462971       0.45076
  11     328.5        3.4009        0.0330       84.9067       84.9397      81.538814       0.52317
  10     361.9        3.3990        0.0353       82.7477       82.7830      79.384053       0.54518
   9     398.1        3.3974        0.0376       80.3874       80.4250      77.027624       0.54899
   8     437.6        3.3964        0.0396       77.6712       77.7109      74.314447       0.58009
   7     480.5        3.3964        0.0415       74.5657       74.6072      71.210776       0.60955
   6     533.0        3.3984        0.0434       70.6344       70.6778      67.279403       0.63243
   5     589.8        3.4040        0.0450       66.3626       66.4076      63.003638       0.63466
   4     651.6        3.4175        0.0461       61.5713       61.6174      58.199934       0.65692
   3     718.7        3.4446        0.0468       56.7145       56.7614      53.316750       0.61368
   2     792.3        3.4987        0.0473       51.9133       51.9606      48.461925       0.55679
   1     891.5        3.6466        0.0476       46.2962       46.3438      42.697200       0.49055
   0    1013.0        4.1117        0.0481       40.9054       40.9535      36.841747       0.40657



 Wavenumbers:  7700. -  8050. cm-1, ATM      1
 LEVEL PRESSURE   UPWARD FLUX   DIFDOWN FLUX  DIRDOWN FLUX  DOWNWARD FLUX   NET FLUX    HEATING RATE
          mb          W/m2          W/m2          W/m2        W/m2          W/m2       degree/day
  51    .06700        6.9510        0.0000       21.5403       21.5403      14.589278       0.00000
  50    .07753        6.9510        0.0000       21.5403       21.5403      14.589256       0.01815
  49    .09103        6.9510        0.0000       21.5403       21.5403      14.589227       0.01779
  48    0.1069        6.9510        0.0000       21.5402       21.5402      14.589194       0.01741
  47    0.1255        6.9510        0.0000       21.5402       21.5402      14.589157       0.01704
  46    0.1487        6.9511        0.0000       21.5402       21.5402      14.589109       0.01729
  45    0.1794        6.9511        0.0000       21.5401       21.5401      14.589045       0.01779
  44    0.2165        6.9511        0.0000       21.5400       21.5401      14.588968       0.01745
  43    0.2613        6.9511        0.0000       21.5400       21.5400      14.588877       0.01713
  42    0.3336        6.9511        0.0000       21.5398       21.5399      14.588727       0.01753
  41    0.4307        6.9512        0.0000       21.5397       21.5397      14.588527       0.01733
  40    0.5894        6.9512        0.0000       21.5394       21.5394      14.588202       0.01732
  39     1.339        6.9516        0.0001       21.5381       21.5382      14.586661       0.01735
  38     1.782        6.9517        0.0001       21.5374       21.5375      14.585756       0.01724
  37     2.292        6.9520        0.0001       21.5365       21.5367      14.584708       0.01736
  36     2.964        6.9522        0.0002       21.5354       21.5356      14.583331       0.01728
  35     3.853        6.9526        0.0002       21.5339       21.5341      14.581512       0.01726
  34     5.035        6.9531        0.0003       21.5319       21.5322      14.579095       0.01727
  33     6.613        6.9538        0.0004       21.5293       21.5297      14.575865       0.01727
  32     8.786        6.9547        0.0005       21.5257       21.5262      14.571511       0.01691
  31     11.80        6.9560        0.0007       21.5206       21.5213      14.565280       0.01745
  30     15.07        6.9574        0.0009       21.5151       21.5160      14.558587       0.01728
  29     18.79        6.9590        0.0011       21.5089       21.5100      14.551024       0.01715
  28     23.16        6.9608        0.0013       21.5017       21.5030      14.542189       0.01709
  27     28.12        6.9629        0.0016       21.4934       21.4950      14.532083       0.01718
  26     33.73        6.9653        0.0019       21.4841       21.4861      14.520773       0.01700
  25     40.54        6.9682        0.0023       21.4730       21.4753      14.507109       0.01695
  24     48.69        6.9717        0.0028       21.4595       21.4623      14.490640       0.01704
  23     57.69        6.9756        0.0033       21.4448       21.4481      14.472555       0.01695
  22     68.43        6.9802        0.0039       21.4273       21.4313      14.451027       0.01692
  21     81.20        6.9858        0.0047       21.4066       21.4112      14.425399       0.01693
  20     96.49        6.9925        0.0055       21.3819       21.3874      14.394891       0.01684
  19     114.6        7.0006        0.0066       21.3527       21.3593      14.358713       0.01689
  18     136.5        7.0102        0.0078       21.3183       21.3261      14.315898       0.01646
  17     162.9        7.0219        0.0092       21.2777       21.2869      14.265000       0.01627
  16     196.4        7.0373        0.0111       21.2253       21.2364      14.199119       0.01658
  15     218.7        7.0476        0.0124       21.1911       21.2035      14.155897       0.01641
  14     243.0        7.0590        0.0137       21.1542       21.1679      14.108897       0.01630
  13     269.0        7.0716        0.0152       21.1143       21.1294      14.057866       0.01655
  12     297.5        7.0855        0.0168       21.0712       21.0880      14.002477       0.01643
  11     328.5        7.1009        0.0185       21.0247       21.0432      13.942292       0.01636
  10     361.9        7.1180        0.0203       20.9746       20.9949      13.876973       0.01653
   9     398.1        7.1370        0.0223       20.9205       20.9428      13.805857       0.01657
   8     437.6        7.1583        0.0244       20.8620       20.8865      13.728147       0.01661
   7     480.5        7.1823        0.0267       20.7986       20.8253      13.643049       0.01671
   6     533.0        7.2136        0.0295       20.7192       20.7487      13.535122       0.01736
   5     589.8        7.2501        0.0325       20.6307       20.6633      13.413232       0.01809
   4     651.6        7.2939        0.0358       20.5298       20.5656      13.271648       0.01936
   3     718.7        7.3478        0.0393       20.4125       20.4517      13.103957       0.02107
   2     792.3        7.4164        0.0429       20.2720       20.3150      12.898561       0.02356
   1     891.5        7.5332        0.0478       20.0527       20.1005      12.567285       0.02819
   0    1013.0        7.7222        0.0534       19.7420       19.7954      12.073221       0.03431



 Wavenumbers:  8050. - 12850. cm-1, ATM      1
 LEVEL PRESSURE   UPWARD FLUX   DIFDOWN FLUX  DIRDOWN FLUX  DOWNWARD FLUX   NET FLUX    HEATING RATE
          mb          W/m2          W/m2          W/m2        W/m2          W/m2       degree/day
  51    .06700      160.2687        0.0000      301.5801      301.5801     141.311368       0.00000
  50    .07753      160.2687        0.0000      301.5801      301.5801     141.311368      -0.00000
  49    .09103      160.2687        0.0001      301.5800      301.5801     141.311368      -0.00000
  48    0.1069      160.2687        0.0001      301.5799      301.5801     141.311368       0.00000
  47    0.1255      160.2687        0.0002      301.5799      301.5801     141.311368       0.00000
  46    0.1487      160.2687        0.0003      301.5798      301.5801     141.311368      -0.00000
  45    0.1794      160.2687        0.0004      301.5797      301.5800     141.311368       0.00000
  44    0.2165      160.2687        0.0005      301.5795      301.5800     141.311368      -0.00000
  43    0.2613      160.2686        0.0007      301.5793      301.5800     141.311368      -0.00000
  42    0.3336      160.2686        0.0009      301.5790      301.5800     141.311368       0.00000
  41    0.4307      160.2686        0.0013      301.5787      301.5799     141.311368      -0.00000
  40    0.5894      160.2685        0.0018      301.5780      301.5798     141.311368      -0.00000
  39     1.339      160.2681        0.0044      301.5751      301.5795     141.311368       0.00000
  38     1.782      160.2679        0.0059      301.5733      301.5792     141.311368      -0.00000
  37     2.292      160.2676        0.0077      301.5713      301.5790     141.311368      -0.00000
  36     2.964      160.2673        0.0100      301.5687      301.5787     141.311368       0.00000
  35     3.853      160.2669        0.0130      301.5652      301.5782     141.311368       0.00000
  34     5.035      160.2663        0.0171      301.5606      301.5776     141.311368      -0.00000
  33     6.613      160.2655        0.0225      301.5544      301.5769     141.311368      -0.00000
  32     8.786      160.2644        0.0298      301.5460      301.5758     141.311368       0.00000
  31     11.80      160.2629        0.0403      301.5340      301.5743     141.311368      -0.00000
  30     15.07      160.2613        0.0515      301.5211      301.5727     141.311368       0.00000
  29     18.79      160.2595        0.0643      301.5066      301.5708     141.311368       0.00000
  28     23.16      160.2573        0.0792      301.4895      301.5687     141.311368      -0.00000
  27     28.12      160.2549        0.0962      301.4700      301.5662     141.311368      -0.00000
  26     33.73      160.2521        0.1153      301.4482      301.5635     141.311368       0.00000
  25     40.54      160.2488        0.1384      301.4217      301.5602     141.311368       0.00000
  24     48.69      160.2448        0.1663      301.3898      301.5561     141.311368       0.00000
  23     57.69      160.2403        0.1970      301.3547      301.5517     141.311368      -0.00000
  22     68.43      160.2351        0.2336      301.3128      301.5464     141.311368      -0.00000
  21     81.20      160.2287        0.2773      301.2628      301.5401     141.311368       0.00000
  20     96.49      160.2212        0.3295      301.2031      301.5326     141.311368       0.00000
  19     114.6      160.2126        0.3916      301.1260      301.5176     141.304999       0.00297
  18     136.5      160.2023        0.4654      301.0340      301.4994     141.297093       0.00304
  17     162.9      160.1901        0.5534      300.9206      301.4740     141.283975       0.00419
  16     196.4      160.1744        0.6680      300.7567      301.4247     141.250311       0.00847
  15     218.7      160.1644        0.7433      300.6080      301.3513     141.186912       0.02407
  14     243.0      160.1546        0.8253      300.3625      301.1878     141.033199       0.05331
  13     269.0      160.1463        0.9141      299.9409      300.8550     140.708675       0.10527
  12     297.5      160.1422        1.0099      299.2744      300.2842     140.142044       0.16806
  11     328.5      160.1438        1.1133      298.4208      299.5340     139.390278       0.20440
  10     361.9      160.1544        1.2245      297.3907      298.6152     138.460789       0.23517
   9     398.1      160.1797        1.3437      296.1363      297.4800     137.300337       0.27036
   8     437.6      160.2290        1.4710      294.5466      296.0176     135.788596       0.32322
   7     480.5      160.3136        1.6063      292.5376      294.1439     133.830259       0.38461
   6     533.0      160.4777        1.7708      289.6116      291.3824     130.904652       0.47064
   5     589.8      160.7649        1.9447      285.8019      287.7465     126.981661       0.58230
   4     651.6      161.3056        2.1248      280.5522      282.6770     121.371348       0.76723
   3     718.7      162.2739        2.3100      273.8301      276.1401     113.866236       0.94318
   2     792.3      164.0619        2.4966      265.4911      267.9878     103.925889       1.14005
   1     891.5      168.5988        2.7278      253.1093      255.8371      87.238305       1.42003
   0    1013.0      180.7344        2.9810      237.9339      240.9149      60.180553       1.87876



 Wavenumbers: 12850. - 16000. cm-1, ATM      1
 LEVEL PRESSURE   UPWARD FLUX   DIFDOWN FLUX  DIRDOWN FLUX  DOWNWARD FLUX   NET FLUX    HEATING RATE
          mb          W/m2          W/m2          W/m2        W/m2          W/m2       degree/day
  51    .06700      152.1567        0.0000      188.9666      188.9666      36.809908       0.00000
  50    .07753      152.1567        0.0001      188.9657      188.9658      36.809097       0.64984
  49    .09103      152.1568        0.0002      188.9646      188.9648      36.808071       0.64167
  48    0.1069      152.1568        0.0003      188.9634      188.9637      36.806880       0.63394
  47    0.1255      152.1569        0.0005      188.9619      188.9624      36.805497       0.62705
  46    0.1487      152.1571        0.0007      188.9601      188.9608      36.803729       0.64429
  45    0.1794      152.1573        0.0010      188.9576      188.9586      36.801289       0.66976
  44    0.2165      152.1576        0.0013      188.9547      188.9559      36.798370       0.66414
  43    0.2613      152.1580        0.0017      188.9512      188.9528      36.794870       0.65967
  42    0.3336      152.1587        0.0023      188.9455      188.9477      36.789017       0.68243
  41    0.4307      152.1599        0.0031      188.9380      188.9411      36.781217       0.67822
  40    0.5894      152.1620        0.0044      188.9260      188.9304      36.768379       0.68270
  39     1.339      152.1779        0.0108      188.8713      188.8821      36.704160       0.72299
  38     1.782      152.1915        0.0145      188.8400      188.8545      36.663066       0.78236
  37     2.292      152.2110        0.0189      188.8036      188.8224      36.611397       0.85578
  36     2.964      152.2427        0.0245      188.7546      188.7792      36.536439       0.94094
  35     3.853      152.2930        0.0320      188.6878      188.7198      36.426826       1.04024
  34     5.035      152.3681        0.0420      188.5978      188.6398      36.271654       1.10849
  33     6.613      152.4727        0.0553      188.4799      188.5352      36.062416       1.11859
  32     8.786      152.6092        0.0732      188.3298      188.4030      35.793787       1.04326
  31     11.80      152.7880        0.0988      188.1329      188.2318      35.443762       0.97996
  30     15.07      152.9608        0.1264      187.9394      188.0658      35.104971       0.87469
  29     18.79      153.1387        0.1575      187.7360      187.8935      34.754770       0.79401
  28     23.16      153.3266        0.1939      187.5156      187.7094      34.382776       0.71932
  27     28.12      153.5183        0.2355      187.2832      187.5187      34.000392       0.65003
  26     33.73      153.6996        0.2821      187.0512      187.3333      33.633708       0.55132
  25     40.54      153.8800        0.3385      186.8030      187.1414      33.261411       0.46188
  24     48.69      154.0601        0.4065      186.5354      186.9419      32.881798       0.39284
  23     57.69      154.2217        0.4814      186.2726      186.7540      32.532305       0.32760
  22     68.43      154.3748        0.5708      185.9939      186.5646      32.189803       0.26925
  21     81.20      154.5034        0.6775      185.7089      186.3863      31.882975       0.20275
  20     96.49      154.6067        0.8050      185.4151      186.2201      31.613393       0.14879
  19     114.6      154.7288        0.9585      185.0930      186.0515      31.322752       0.13571
  18     136.5      154.8514        1.1408      184.7354      185.8762      31.024796       0.11457
  17     162.9      154.9773        1.3583      184.3320      185.6903      30.712957       0.09968
  16     196.4      155.0978        1.6409      183.8438      185.4847      30.386936       0.08206
  15     218.7      155.1616        1.8269      183.5330      185.3599      30.198289       0.07162
  14     243.0      155.2246        2.0293      183.1962      185.2255      30.000892       0.06846
  13     269.0      155.2871        2.2491      182.8299      185.0790      29.791851       0.06781
  12     297.5      155.3506        2.4870      182.4284      184.9154      29.564753       0.06735
  11     328.5      155.4198        2.7445      181.9860      184.7306      29.310815       0.06904
  10     361.9      155.4967        3.0224      181.4986      184.5211      29.024323       0.07249
   9     398.1      155.5852        3.3221      180.9605      184.2827      28.697484       0.07615
   8     437.6      155.6916        3.6447      180.3630      184.0077      28.316042       0.08155
   7     480.5      155.8225        3.9912      179.6990      183.6902      27.867677       0.08806
   6     533.0      156.0163        4.4186      178.8424      183.2610      27.244618       0.10023
   5     589.8      156.2862        4.8801      177.8530      182.7331      26.446844       0.11842
   4     651.6      156.7009        5.3760      176.6572      182.0332      25.332228       0.15243
   3     718.7      157.3096        5.9045      175.2304      181.1350      23.825365       0.18937
   2     792.3      158.2633        6.4619      173.4774      179.9393      21.676002       0.24651
   1     891.5      160.2892        7.1951      170.7106      177.9057      17.616430       0.34545
   0    1013.0      164.3451        8.0479      166.9362      174.9842      10.639037       0.48448



 Wavenumbers: 16000. - 22650. cm-1, ATM      1
 LEVEL PRESSURE   UPWARD FLUX   DIFDOWN FLUX  DIRDOWN FLUX  DOWNWARD FLUX   NET FLUX    HEATING RATE
          mb          W/m2          W/m2          W/m2        W/m2          W/m2       degree/day
  51    .06700      273.2974        0.0000      301.2863      301.2863      27.988892       0.00000
  50    .07753      273.2976        0.0005      301.2857      301.2863      27.988682       0.16787
  49    .09103      273.2978        0.0012      301.2850      301.2862      27.988378       0.19040
  48    0.1069      273.2982        0.0020      301.2841      301.2861      27.987970       0.21712
  47    0.1255      273.2986        0.0029      301.2831      301.2860      27.987424       0.24749
  46    0.1487      273.2992        0.0040      301.2818      301.2858      27.986619       0.29327
  45    0.1794      273.3001        0.0056      301.2799      301.2854      27.985361       0.34530
  44    0.2165      273.3013        0.0074      301.2775      301.2849      27.983655       0.38808
  43    0.2613      273.3029        0.0095      301.2747      301.2842      27.981341       0.43630
  42    0.3336      273.3059        0.0131      301.2697      301.2828      27.976940       0.51309
  41    0.4307      273.3103        0.0179      301.2628      301.2806      27.970306       0.57678
  40    0.5894      273.3187        0.0256      301.2507      301.2763      27.957654       0.67281
  39     1.339      273.3786        0.0623      301.1805      301.2427      27.864166       1.05251
  38     1.782      273.4287        0.0838      301.1294      301.2132      27.784507       1.51658
  37     2.292      273.5006        0.1087      301.0611      301.1698      27.669173       1.91024
  36     2.964      273.6166        0.1415      300.9574      301.0988      27.482264       2.34628
  35     3.853      273.7999        0.1847      300.8007      300.9854      27.185521       2.81614
  34     5.035      274.0732        0.2421      300.5735      300.8156      26.742440       3.16519
  33     6.613      274.4535        0.3187      300.2608      300.5795      26.125968       3.29566
  32     8.786      274.9503        0.4220      299.8509      300.2729      25.322549       3.12019
  31     11.80      275.6026        0.5697      299.3051      299.8747      24.272152       2.94078
  30     15.07      276.2346        0.7283      298.7657      299.4939      23.259388       2.61476
  29     18.79      276.8870        0.9074      298.1986      299.1060      22.219006       2.35886
  28     23.16      277.5781        1.1167      297.5845      298.7012      21.123183       2.11897
  27     28.12      278.2853        1.3561      296.9382      298.2943      20.009009       1.89402
  26     33.73      278.9576        1.6243      296.2930      297.9174      18.959800       1.57751
  25     40.54      279.6317        1.9487      295.6032      297.5519      17.920158       1.28979
  24     48.69      280.3103        2.3402      294.8582      297.1984      16.888171       1.06795
  23     57.69      280.9256        2.7708      294.1231      296.8939      15.968213       0.86232
  22     68.43      281.5183        3.2842      293.3365      296.6207      15.102377       0.68066
  21     81.20      282.0320        3.8971      292.5193      296.4163      14.384277       0.47451
  20     96.49      282.4654        4.6286      291.6561      296.2847      13.819330       0.31181
  19     114.6      282.8866        5.4974      290.6905      296.1880      13.301316       0.24188
  18     136.5      283.3228        6.5270      289.5862      296.1131      12.790306       0.19650
  17     162.9      283.7840        7.7523      288.3086      296.0608      12.276816       0.16413
  16     196.4      284.2573        9.3412      286.7295      296.0706      11.813289       0.11668
  15     218.7      284.5217       10.3842      285.7217      296.1059      11.584200       0.08698
  14     243.0      284.7870       11.5174      284.6405      296.1579      11.370895       0.07398
  13     269.0      285.0514       12.7448      283.4837      296.2285      11.177076       0.06287
  12     297.5      285.3148       14.0705      282.2477      296.3182      11.003420       0.05150
  11     328.5      285.5881       15.5021      280.9200      296.4220      10.833987       0.04607
  10     361.9      285.8713       17.0424      279.4979      296.5403      10.668996       0.04174
   9     398.1      286.1661       18.6990      277.9742      296.6732      10.507124       0.03771
   8     437.6      286.4759       20.4769      276.3426      296.8195      10.343609       0.03496
   7     480.5      286.8015       22.3814      274.5982      296.9795      10.177976       0.03253
   6     533.0      287.1980       24.7244      272.4535      297.1779       9.979886       0.03187
   5     589.8      287.6284       27.2488      270.1392      297.3880       9.759622       0.03269
   4     651.6      288.1082       29.9621      267.6380      297.6001       9.491805       0.03662
   3     718.7      288.6532       32.8724      264.9331      297.8055       9.152330       0.04266
   2     792.3      289.2999       35.9831      261.9991      297.9822       8.682336       0.05390
   1     891.5      290.3324       40.1693      257.9541      298.1233       7.790910       0.07586
   0    1013.0      291.8384       45.1762      252.9832      298.1594       6.320980       0.10206



 Wavenumbers: 22650. - 29000. cm-1, ATM      1
 LEVEL PRESSURE   UPWARD FLUX   DIFDOWN FLUX  DIRDOWN FLUX  DOWNWARD FLUX   NET FLUX    HEATING RATE
          mb          W/m2          W/m2          W/m2        W/m2          W/m2       degree/day
  51    .06700      111.9271        0.0000      113.6945      113.6945       1.767362       0.00000
  50    .07753      111.9272        0.0006      113.6939      113.6946       1.767362      -0.00000
  49    .09103      111.9273        0.0014      113.6932      113.6947       1.767362       0.00000
  48    0.1069      111.9274        0.0023      113.6924      113.6948       1.767362       0.00000
  47    0.1255      111.9276        0.0034      113.6915      113.6949       1.767362       0.00000
  46    0.1487      111.9277        0.0047      113.6904      113.6951       1.767362      -0.00000
  45    0.1794      111.9279        0.0065      113.6888      113.6953       1.767362       0.00000
  44    0.2165      111.9282        0.0087      113.6869      113.6956       1.767362      -0.00000
  43    0.2613      111.9285        0.0112      113.6847      113.6959       1.767362       0.00000
  42    0.3336      111.9291        0.0154      113.6810      113.6964       1.767362       0.00000
  41    0.4307      111.9298        0.0210      113.6762      113.6972       1.767362      -0.00000
  40    0.5894      111.9309        0.0301      113.6682      113.6983       1.767362       0.00000
  39     1.339      111.9364        0.0732      113.6306      113.7038       1.767362       0.00000
  38     1.782      111.9396        0.0985      113.6085      113.7070       1.767362       0.00000
  37     2.292      111.9434        0.1277      113.5830      113.7107       1.767362       0.00000
  36     2.964      111.9483        0.1662      113.5494      113.7156       1.767362      -0.00000
  35     3.853      111.9547        0.2170      113.5051      113.7221       1.767362       0.00000
  34     5.035      111.9633        0.2845      113.4462      113.7307       1.767362       0.00000
  33     6.613      111.9748        0.3746      113.3675      113.7421       1.767362      -0.00000
  32     8.786      111.9902        0.4961      113.2615      113.7576       1.767362       0.00000
  31     11.80      112.0123        0.6699      113.1098      113.7797       1.767362       0.00000
  30     15.07      112.0360        0.8563      112.9470      113.8034       1.767362       0.00000
  29     18.79      112.0628        1.0669      112.7633      113.8302       1.767362      -0.00000
  28     23.16      112.0940        1.3126      112.5487      113.8614       1.767362       0.00000
  27     28.12      112.1297        1.5934      112.3036      113.8971       1.767362      -0.00000
  26     33.73      112.1696        1.9073      112.0297      113.9370       1.767362       0.00000
  25     40.54      112.2177        2.2859      111.6991      113.9851       1.767362      -0.00000
  24     48.69      112.2756        2.7416      111.3014      114.0430       1.767362       0.00000
  23     57.69      112.3390        3.2408      110.8655      114.1064       1.767362       0.00000
  22     68.43      112.4143        3.8338      110.3479      114.1816       1.767362      -0.00000
  21     81.20      112.5036        4.5376      109.7334      114.2710       1.767362      -0.00000
  20     96.49      112.6095        5.3725      109.0044      114.3769       1.767362      -0.00000
  19     114.6      112.7345        6.3582      108.1436      114.5019       1.767362       0.00000
  18     136.5      112.8816        7.5187      107.1302      114.6489       1.767362       0.00000
  17     162.9      113.0551        8.8893      105.9332      114.8225       1.767362       0.00000
  16     196.4      113.2776       10.6482      104.3968      115.0450       1.767362       0.00000
  15     218.7      113.4222       11.7921      103.3975      115.1896       1.767362       0.00000
  14     243.0      113.5780       13.0256      102.3198      115.3454       1.767362       0.00000
  13     269.0      113.7452       14.3507      101.1619      115.5126       1.767362      -0.00000
  12     297.5      113.9241       15.7693       99.9222      115.6915       1.767362       0.00000
  11     328.5      114.1153       17.2870       98.5956      115.8826       1.767362      -0.00000
  10     361.9      114.3187       18.9037       97.1824      116.0860       1.767362       0.00000
   9     398.1      114.5348       20.6237       95.6785      116.3022       1.767362       0.00000
   8     437.6      114.7638       22.4482       94.0829      116.5312       1.767362       0.00000
   7     480.5      115.0057       24.3785       92.3945      116.7731       1.767362       0.00000
   6     533.0      115.2985       26.7193       90.3466      117.0659       1.767362       0.00000
   5     589.8      115.6083       29.2002       88.1754      117.3756       1.767362       0.00000
   4     651.6      115.9347       31.8206       85.8814      117.7020       1.767362      -0.00000
   3     718.7      116.2774       34.5797       83.4652      118.0448       1.767362       0.00000
   2     792.3      116.6358       37.4723       80.9308      118.4032       1.767362      -0.00000
   1     891.5      117.1055       41.2775       77.5953      118.8729       1.767362      -0.00000
   0    1013.0      117.6490       45.7024       73.7140      119.4164       1.767362       0.00000



 Wavenumbers: 29000. - 38000. cm-1, ATM      1
 LEVEL PRESSURE   UPWARD FLUX   DIFDOWN FLUX  DIRDOWN FLUX  DOWNWARD FLUX   NET FLUX    HEATING RATE
          mb          W/m2          W/m2          W/m2        W/m2          W/m2       degree/day
  51    .06700       17.6213        0.0000       40.0934       40.0934      22.472055       0.00000
  50    .07753       17.6212        0.0004       40.0891       40.0895      22.468227       3.06765
  49    .09103       17.6211        0.0009       40.0829       40.0838      22.462657       3.48188
  48    0.1069       17.6210        0.0014       40.0748       40.0762      22.455194       3.97259
  47    0.1255       17.6208        0.0020       40.0640       40.0660      22.445203       4.52908
  46    0.1487       17.6207        0.0028       40.0484       40.0512      22.430485       5.36503
  45    0.1794       17.6205        0.0039       40.0241       40.0280      22.407509       6.30746
  44    0.2165       17.6204        0.0052       39.9916       39.9968      22.376433       7.06915
  43    0.2613       17.6202        0.0067       39.9480       39.9547      22.334454       7.91300
  42    0.3336       17.6202        0.0091       39.8663       39.8755      22.255297       9.22886
  41    0.4307       17.6203        0.0124       39.7456       39.7580      22.137734      10.22187
  40    0.5894       17.6208        0.0176       39.5227       39.5403      21.919484      11.60625
  39     1.339       17.6307        0.0405       38.1179       38.1584      20.527752      15.66838
  38     1.782       17.6413        0.0528       37.1797       37.2325      19.591171      17.83098
  37     2.292       17.6578        0.0661       36.1138       36.1799      18.522108      17.70647
  36     2.964       17.6857        0.0827       34.8546       34.9373      17.251652      15.94806
  35     3.853       17.7312        0.1038       33.4929       33.5968      15.865528      13.15457
  34     5.035       17.8005        0.1309       32.1228       32.2537      14.453274      10.08856
  33     6.613       17.8981        0.1663       30.7923       30.9586      13.060522       7.44565
  32     8.786       18.0271        0.2129       29.5330       29.7459      11.718799       5.21077
  31     11.80       18.1994        0.2786       28.2992       28.5778      10.378350       3.75283
  30     15.07       18.3707        0.3481       27.3561       27.7042       9.333440       2.69776
  29     18.79       18.5527        0.4254       26.5423       26.9677       8.415038       2.08230
  28     23.16       18.7524        0.5148       25.7988       26.3137       7.561302       1.65085
  27     28.12       18.9650        0.6162       25.1253       25.7415       6.776432       1.33423
  26     33.73       19.1752        0.7295       24.5369       25.2664       6.091249       1.03019
  25     40.54       19.3938        0.8666       23.9786       24.8452       5.451441       0.79375
  24     48.69       19.6228        1.0316       23.4348       24.4664       4.843589       0.62903
  23     57.69       19.8385        1.2127       22.9440       24.1567       4.318174       0.49250
  22     68.43       20.0532        1.4285       22.4591       23.8876       3.834342       0.38036
  21     81.20       20.2426        1.6875       21.9939       23.6814       3.438771       0.26139
  20     96.49       20.4021        1.9975       21.5345       23.5319       3.129843       0.17051
  19     114.6       20.5577        2.3623       21.0433       23.4056       2.847851       0.13167
  18     136.5       20.7208        2.7874       20.5028       23.2902       2.569356       0.10709
  17     162.9       20.8961        3.2840       19.9003       23.1843       2.288183       0.08987
  16     196.4       21.0739        3.9186       19.1885       23.1071       2.033271       0.06416
  15     218.7       21.1718        4.3276       18.7498       23.0773       1.905521       0.04850
  14     243.0       21.2696        4.7644       18.2904       23.0548       1.785251       0.04171
  13     269.0       21.3655        5.2292       17.8115       23.0407       1.675154       0.03572
  12     297.5       21.4590        5.7217       17.3135       23.0352       1.576209       0.02935
  11     328.5       21.5546        6.2412       16.7930       23.0342       1.479605       0.02627
  10     361.9       21.6521        6.7863       16.2517       23.0379       1.385888       0.02371
   9     398.1       21.7512        7.3570       15.6895       23.0465       1.295274       0.02111
   8     437.6       21.8528        7.9515       15.1074       23.0590       1.206178       0.01905
   7     480.5       21.9561        8.5689       14.5071       23.0760       1.119927       0.01694
   6     533.0       22.0767        9.3013       13.7993       23.1006       1.023890       0.01545
   5     589.8       22.2007       10.0575       13.0719       23.1294       0.928708       0.01413
   4     651.6       22.3286       10.8342       12.3279       23.1621       0.833464       0.01302
   3     718.7       22.4602       11.6272       11.5712       23.1984       0.738124       0.01198
   2     792.3       22.5953       12.4309       10.8071       23.2380       0.642743       0.01094
   1     891.5       22.7703       13.4495        9.8430       23.2925       0.522194       0.01026
   0    1013.0       22.9716       14.5724        8.7846       23.3570       0.385391       0.00950



 Wavenumbers: 38000. - 50000. cm-1, ATM      1
 LEVEL PRESSURE   UPWARD FLUX   DIFDOWN FLUX  DIRDOWN FLUX  DOWNWARD FLUX   NET FLUX    HEATING RATE
          mb          W/m2          W/m2          W/m2        W/m2          W/m2       degree/day
  51    .06700        0.0075        0.0000        2.4729        2.4729       2.465471       0.00000
  50    .07753        0.0074        0.0001        2.4705        2.4705       2.463133       1.87388
  49    .09103        0.0073        0.0002        2.4670        2.4671       2.459793       2.08774
  48    0.1069        0.0073        0.0003        2.4624        2.4627       2.455396       2.34060
  47    0.1255        0.0072        0.0004        2.4564        2.4568       2.449603       2.62642
  46    0.1487        0.0071        0.0005        2.4478        2.4483       2.441193       3.06527
  45    0.1794        0.0069        0.0007        2.4345        2.4351       2.428233       3.55800
  44    0.2165        0.0067        0.0009        2.4168        2.4177       2.410928       3.93658
  43    0.2613        0.0066        0.0012        2.3933        2.3944       2.387856       4.34899
  42    0.3336        0.0063        0.0015        2.3498        2.3513       2.345021       4.99412
  41    0.4307        0.0059        0.0020        2.2865        2.2885       2.282594       5.42785
  40    0.5894        0.0054        0.0027        2.1724        2.1751       2.169754       6.00072
  39     1.339        0.0035        0.0041        1.5331        1.5372       1.533683       7.16100
  38     1.782        0.0028        0.0039        1.1805        1.1844       1.181569       6.70370
  37     2.292        0.0022        0.0034        0.8531        0.8566       0.854351       5.41957
  36     2.964        0.0017        0.0029        0.5651        0.5680       0.566279       3.61618
  35     3.853        0.0013        0.0023        0.3577        0.3600       0.358659       1.97035
  34     5.035        0.0010        0.0018        0.2240        0.2258       0.224787       0.95633
  33     6.613        0.0008        0.0015        0.1390        0.1405       0.139707       0.45484
  32     8.786        0.0006        0.0012        0.0864        0.0876       0.086996       0.20471
  31     11.80        0.0004        0.0009        0.0521        0.0530       0.052589       0.09633
  30     15.07        0.0003        0.0007        0.0334        0.0341       0.033823       0.04845
  29     18.79        0.0002        0.0005        0.0214        0.0219       0.021740       0.02740
  28     23.16        0.0001        0.0004        0.0134        0.0138       0.013620       0.01570
  27     28.12        0.0001        0.0002        0.0082        0.0085       0.008374       0.00892
  26     33.73        0.0001        0.0002        0.0050        0.0052       0.005156       0.00484
  25     40.54        0.0000        0.0001        0.0030        0.0031       0.003058       0.00260
  24     48.69        0.0000        0.0001        0.0017        0.0018       0.001725       0.00138
  23     57.69        0.0000        0.0000        0.0009        0.0010       0.000968       0.00071
  22     68.43        0.0000        0.0000        0.0005        0.0005       0.000513       0.00036
  21     81.20        0.0000        0.0000        0.0002        0.0003       0.000257       0.00017
  20     96.49        0.0000        0.0000        0.0001        0.0001       0.000119       0.00008
  19     114.6        0.0000        0.0000        0.0000        0.0000       0.000049       0.00003
  18     136.5        0.0000        0.0000        0.0000        0.0000       0.000017       0.00001
  17     162.9        0.0000        0.0000        0.0000        0.0000       0.000005       0.00000
  16     196.4        0.0000        0.0000        0.0000        0.0000       0.000001       0.00000
  15     218.7        0.0000        0.0000        0.0000        0.0000       0.000000       0.00000
  14     243.0        0.0000        0.0000        0.0000        0.0000       0.000000       0.00000
  13     269.0        0.0000        0.0000        0.0000        0.0000       0.000000       0.00000
  12     297.5        0.0000        0.0000        0.0000        0.0000       0.000000       0.00000
  11     328.5        0.0000        0.0000        0.0000        0.0000       0.000000       0.00000
  10     361.9        0.0000        0.0000        0.0000        0.0000       0.000000       0.00000
   9     398.1        0.0000        0.0000        0.0000        0.0000       0.000000       0.00000
   8     437.6        0.0000        0.0000        0.0000        0.0000       0.000000       0.00000
   7     480.5        0.0000        0.0000        0.0000        0.0000       0.000000       0.00000
   6     533.0        0.0000        0.0000        0.0000        0.0000       0.000000       0.00000
   5     589.8        0.0000        0.0000        0.0000        0.0000       0.000000       0.00000
   4     651.6        0.0000        0.0000        0.0000        0.0000       0.000000       0.00000
   3     718.7        0.0000        0.0000        0.0000        0.0000       0.000000       0.00000
   2     792.3        0.0000        0.0000        0.0000        0.0000       0.000000       0.00000
   1     891.5        0.0000        0.0000        0.0000        0.0000       0.000000       0.00000
   0    1013.0        0.0000        0.0000        0.0000        0.0000       0.000000       0.00000



 Wavenumbers:   820. -  2600. cm-1, ATM      1
 LEVEL PRESSURE   UPWARD FLUX   DIFDOWN FLUX  DIRDOWN FLUX  DOWNWARD FLUX   NET FLUX    HEATING RATE
          mb          W/m2          W/m2          W/m2        W/m2          W/m2       degree/day
  51    .06700        0.0105        0.0000       11.5681       11.5681      11.557560       0.00000
  50    .07753        0.0105        0.0000       11.5617       11.5617      11.551169       5.12277
  49    .09103        0.0105        0.0000       11.5603       11.5603      11.549829       0.83716
  48    0.1069        0.0105        0.0000       11.5592       11.5592      11.548737       0.58150
  47    0.1255        0.0105        0.0000       11.5580       11.5580      11.547471       0.57360
  46    0.1487        0.0105        0.0000       11.5563       11.5563      11.545853       0.59003
  45    0.1794        0.0105        0.0000       11.5542       11.5542      11.543670       0.59923
  44    0.2165        0.0105        0.0000       11.5517       11.5517      11.541172       0.56828
  43    0.2613        0.0105        0.0000       11.5489       11.5489      11.538363       0.52947
  42    0.3336        0.0105        0.0000       11.5446       11.5446      11.534117       0.49508
  41    0.4307        0.0105        0.0000       11.5397       11.5397      11.529162       0.43075
  40    0.5894        0.0105        0.0000       11.5325       11.5325      11.522015       0.38008
  39     1.339        0.0105        0.0000       11.5013       11.5013      11.490826       0.35113
  38     1.782        0.0105        0.0000       11.4835       11.4835      11.473045       0.33852
  37     2.292        0.0105        0.0000       11.4636       11.4636      11.453090       0.33052
  36     2.964        0.0105        0.0000       11.4381       11.4381      11.427635       0.31953
  35     3.853        0.0105        0.0000       11.4054       11.4054      11.394920       0.31047
  34     5.035        0.0105        0.0000       11.3636       11.3636      11.353144       0.29843
  33     6.613        0.0105        0.0000       11.3110       11.3110      11.300499       0.28144
  32     8.786        0.0105        0.0000       11.2446       11.2446      11.234077       0.25796
  31     11.80        0.0105        0.0000       11.1560       11.1560      11.145470       0.24807
  30     15.07        0.0105        0.0000       11.0693       11.0693      11.058839       0.22366
  29     18.79        0.0105        0.0000       10.9848       10.9848      10.974303       0.19167
  28     23.16        0.0105        0.0000       10.9059       10.9059      10.895415       0.15254
  27     28.12        0.0105        0.0000       10.8393       10.8393      10.828803       0.11323
  26     33.73        0.0105        0.0000       10.7871       10.7871      10.776630       0.07844
  25     40.54        0.0105        0.0000       10.7432       10.7432      10.732698       0.05450
  24     48.69        0.0105        0.0000       10.7033       10.7033      10.692789       0.04130
  23     57.69        0.0105        0.0000       10.6646       10.6646      10.654095       0.03627
  22     68.43        0.0105        0.0000       10.6200       10.6200      10.609475       0.03508
  21     81.20        0.0105        0.0000       10.5678       10.5678      10.557340       0.03445
  20     96.49        0.0105        0.0000       10.5063       10.5063      10.495802       0.03396
  19     114.6        0.0105        0.0000       10.4330       10.4330      10.422546       0.03421
  18     136.5        0.0105        0.0000       10.3463       10.3464      10.335872       0.03333
  17     162.9        0.0105        0.0000       10.2345       10.2345      10.224039       0.03575
  16     196.4        0.0105        0.0000       10.0555       10.0555      10.045059       0.04505
  15     218.7        0.0105        0.0000        9.8804        9.8804       9.869967       0.06648
  14     243.0        0.0105        0.0000        9.6052        9.6052       9.594737       0.09546
  13     269.0        0.0105        0.0000        9.2391        9.2391       9.228625       0.11877
  12     297.5        0.0105        0.0000        8.8376        8.8376       8.827132       0.11908
  11     328.5        0.0105        0.0000        8.4912        8.4912       8.480721       0.09419
  10     361.9        0.0105        0.0000        8.1363        8.1363       8.125785       0.08980
   9     398.1        0.0105        0.0000        7.7209        7.7210       7.710441       0.09677
   8     437.6        0.0106        0.0000        7.2499        7.2499       7.239372       0.10072
   7     480.5        0.0106        0.0000        6.7952        6.7953       6.784681       0.08930
   6     533.0        0.0107        0.0000        6.3756        6.3757       6.365015       0.06751
   5     589.8        0.0107        0.0000        6.0737        6.0737       6.062963       0.04483
   4     651.6        0.0109        0.0000        5.7927        5.7928       5.781878       0.03844
   3     718.7        0.0111        0.0000        5.4565        5.4566       5.445452       0.04228
   2     792.3        0.0116        0.0000        5.0450        5.0450       5.033406       0.04726
   1     891.5        0.0128        0.0000        4.4718        4.4719       4.459119       0.04887
   0    1013.0        0.0159        0.0000        3.7963        3.7963       3.780369       0.04713

  Modules and versions used in this calculation:

       rrtmg_sw.1col.f90:  $Revision$                    rrtmg_sw_init.f90:  $Revision$        
     rrtmgsw_cldprop.f90:  $Revision$                  rrtmgsw_cldprmc.f90:  NOT USED          
     rrtmg_sw_reftra.f90:  $Revision$                  rrtmg_sw_spcvrt.f90:  NOT USED          
     rrtmg_sw_spcvmc.f90:  NOT USED                    rrtmgsw_setcoef.f90:  NOT USED          
     rrtmg_sw_taumol.f90:  $Revision$                  rrtmg_sw_vrtqdr.f90:  NOT USED          
                rrtatm.f:  NOT USED                             util_xxx.f:  NOT USED          
                 extra.f:  NOT USED                       rrtmg_sw_k_g.f90:  $Revision$        

