

 Wavenumbers:   820. - 50000. cm-1, ATM      1
 LEVEL PRESSURE   UPWARD FLUX   DIFDOWN FLUX  DIRDOWN FLUX  DOWNWARD FLUX   NET FLUX    HEATING RATE
          mb          W/m2          W/m2          W/m2        W/m2          W/m2       degree/day
  51    .06700      770.9528        0.0000     1270.4621     1270.4621     499.509361       0.00000
  50    .07753      770.9530        0.0018     1270.4406     1270.4424     499.489488      15.92854
  49    .09103      770.9532        0.0041     1270.4214     1270.4255     499.472237      10.78237
  48    0.1069      770.9536        0.0067     1270.3998     1270.4065     499.452873      10.30755
  47    0.1255      770.9542        0.0097     1270.3740     1270.3837     499.429531      10.58182
  46    0.1487      770.9550        0.0134     1270.3391     1270.3526     499.397604      11.63775
  45    0.1794      770.9563        0.0186     1270.2880     1270.3066     499.350298      12.98678
  44    0.2165      770.9580        0.0247     1270.2222     1270.2469     499.288879      13.97161
  43    0.2613      770.9604        0.0319     1270.1371     1270.1690     499.208662      15.12056
  42    0.3336      770.9649        0.0438     1269.9833     1270.0271     499.062135      17.08360
  41    0.4307      770.9719        0.0595     1269.7629     1269.8224     498.850509      18.40048
  40    0.5894      770.9851        0.0849     1269.3683     1269.4533     498.468119      20.33498
  39     1.339      771.0843        0.2020     1267.0306     1267.2326     496.148293      26.11703
  38     1.782      771.1685        0.2685     1265.5411     1265.8096     494.641108      28.69437
  37     2.292      771.2897        0.3443     1263.8956     1264.2399     492.950241      28.00517
  36     2.964      771.4852        0.4430     1261.9992     1262.4423     490.957123      25.01966
  35     3.853      771.7943        0.5728     1259.9735     1260.5463     488.751993      20.92709
  34     5.035      772.2552        0.7445     1257.8918     1258.6363     486.381113      16.93658
  33     6.613      772.8975        0.9733     1255.7465     1256.7197     483.822268      13.67959
  32     8.786      773.7389        1.2808     1253.5204     1254.8011     481.062237      10.71896
  31     11.80      774.8494        1.7198     1251.0529     1252.7727     477.923297       8.78804
  30     15.07      775.9337        2.1903     1248.9038     1251.0941     475.160447       7.13314
  29     18.79      777.0620        2.7207     1246.8212     1249.5419     472.479862       6.07771
  28     23.16      778.2692        3.3394     1244.6996     1248.0390     469.769787       5.24041
  27     28.12      779.5193        4.0460     1242.5620     1246.6081     467.088729       4.55762
  26     33.73      780.7253        4.8370     1240.4816     1245.3186     464.593235       3.75204
  25     40.54      781.9554        5.7929     1238.2817     1244.0746     462.119124       3.06941
  24     48.69      783.2174        6.9452     1235.9157     1242.8609     459.643485       2.56190
  23     57.69      784.3869        8.2107     1233.5704     1241.7811     457.394225       2.10834
  22     68.43      785.5415        9.7179     1231.0292     1240.7470     455.205473       1.72065
  21     81.20      786.5806       11.5150     1228.3079     1239.8229     453.242290       1.29724
  20     96.49      787.5009       13.6567     1225.3394     1238.9960     451.495109       0.96432
  19     114.6      788.4551       16.1941     1221.9508     1238.1450     449.689839       0.84293
  18     136.5      789.4704       19.1879     1218.0557     1237.2435     447.773150       0.73701
  17     162.9      790.5733       22.7338     1213.4781     1236.2119     445.638642       0.68228
  16     196.4      791.7668       27.3074     1207.4937     1234.8011     443.034307       0.65554
  15     218.7      792.4623       30.2928     1203.0880     1233.3809     440.918567       0.80327
  14     243.0      793.1779       33.5208     1197.5926     1231.1134     437.935478       1.03463
  13     269.0      793.9125       36.9995     1190.6399     1227.6394     433.726908       1.36524
  12     297.5      794.6703       40.7361     1181.9672     1222.7033     428.033031       1.68874
  11     328.5      795.4762       44.7466     1172.3409     1217.0875     421.611289       1.74605
  10     361.9      796.3364       49.0336     1161.9450     1210.9787     414.642211       1.76325
   9     398.1      797.2639       53.6122     1150.5254     1204.1376     406.873731       1.80988
   8     437.6      798.2813       58.4885     1137.6982     1196.1867     397.905422       1.91748
   7     480.5      799.4088       63.6701     1123.5307     1187.2008     387.792021       1.98623
   6     533.0      800.8824       69.9859     1105.7304     1175.7162     374.833815       2.08456
   5     589.8      802.6512       76.7173     1086.0070     1162.7242     360.073000       2.19099
   4     651.6      804.9540       83.8658     1063.2856     1147.1514     342.197380       2.44454
   3     718.7      808.0577       91.4347     1038.2794     1129.7141     321.656444       2.58143
   2     792.3      812.6084       99.4123     1010.8433     1110.2556     297.647169       2.75359
   1     891.5      822.1120      109.9673      973.8494     1083.8167     261.704701       3.05853
   0    1013.0      843.3158      122.3298      930.9650     1053.2948     209.978947       3.59158



 Wavenumbers:  2600. -  3250. cm-1, ATM      1
 LEVEL PRESSURE   UPWARD FLUX   DIFDOWN FLUX  DIRDOWN FLUX  DOWNWARD FLUX   NET FLUX    HEATING RATE
          mb          W/m2          W/m2          W/m2        W/m2          W/m2       degree/day
  51    .06700        0.0140        0.0000       11.1971       11.1971      11.183128       0.00000
  50    .07753        0.0140        0.0000       11.1971       11.1971      11.183120       0.00640
  49    .09103        0.0140        0.0000       11.1971       11.1971      11.183110       0.00627
  48    0.1069        0.0140        0.0000       11.1971       11.1971      11.183098       0.00613
  47    0.1255        0.0140        0.0000       11.1971       11.1971      11.183085       0.00600
  46    0.1487        0.0140        0.0000       11.1970       11.1970      11.183069       0.00608
  45    0.1794        0.0140        0.0000       11.1970       11.1970      11.183046       0.00625
  44    0.2165        0.0140        0.0000       11.1970       11.1970      11.183019       0.00613
  43    0.2613        0.0140        0.0000       11.1970       11.1970      11.182987       0.00601
  42    0.3336        0.0140        0.0000       11.1969       11.1969      11.182934       0.00618
  41    0.4307        0.0140        0.0000       11.1968       11.1968      11.182862       0.00622
  40    0.5894        0.0140        0.0000       11.1967       11.1967      11.182742       0.00640
  39     1.339        0.0140        0.0000       11.1960       11.1960      11.182026       0.00806
  38     1.782        0.0140        0.0000       11.1954       11.1954      11.181472       0.01056
  37     2.292        0.0140        0.0000       11.1947       11.1947      11.180733       0.01223
  36     2.964        0.0140        0.0000       11.1936       11.1936      11.179646       0.01364
  35     3.853        0.0140        0.0000       11.1920       11.1920      11.178068       0.01497
  34     5.035        0.0140        0.0000       11.1898       11.1898      11.175809       0.01614
  33     6.613        0.0140        0.0000       11.1866       11.1866      11.172621       0.01704
  32     8.786        0.0140        0.0000       11.1822       11.1822      11.168193       0.01720
  31     11.80        0.0140        0.0000       11.1758       11.1758      11.161845       0.01777
  30     15.07        0.0140        0.0000       11.1692       11.1692      11.155214       0.01712
  29     18.79        0.0140        0.0000       11.1621       11.1621      11.148167       0.01598
  28     23.16        0.0140        0.0000       11.1545       11.1545      11.140561       0.01471
  27     28.12        0.0140        0.0000       11.1466       11.1466      11.132600       0.01353
  26     33.73        0.0140        0.0000       11.1380       11.1380      11.124069       0.01283
  25     40.54        0.0140        0.0000       11.1278       11.1278      11.113867       0.01266
  24     48.69        0.0140        0.0000       11.1155       11.1155      11.101535       0.01276
  23     57.69        0.0140        0.0000       11.1015       11.1015      11.087558       0.01310
  22     68.43        0.0139        0.0000       11.0839       11.0839      11.069997       0.01381
  21     81.20        0.0139        0.0000       11.0615       11.0616      11.047633       0.01478
  20     96.49        0.0139        0.0000       11.0331       11.0332      11.019229       0.01568
  19     114.6        0.0139        0.0000       10.9965       10.9965      10.982611       0.01710
  18     136.5        0.0139        0.0000       10.9515       10.9516      10.937629       0.01730
  17     162.9        0.0139        0.0001       10.8967       10.8968      10.882848       0.01751
  16     196.4        0.0139        0.0001       10.8247       10.8248      10.810892       0.01811
  15     218.7        0.0139        0.0001       10.7741       10.7741      10.760221       0.01924
  14     243.0        0.0139        0.0001       10.7116       10.7117      10.697803       0.02165
  13     269.0        0.0139        0.0001       10.6325       10.6326      10.618684       0.02567
  12     297.5        0.0139        0.0001       10.5346       10.5347      10.520751       0.02905
  11     328.5        0.0139        0.0001       10.4237       10.4238      10.409932       0.03013
  10     361.9        0.0139        0.0001       10.3003       10.3004      10.286477       0.03124
   9     398.1        0.0139        0.0001       10.1587       10.1589      10.144907       0.03298
   8     437.6        0.0140        0.0001        9.9886        9.9887       9.974753       0.03638
   7     480.5        0.0140        0.0001        9.7791        9.7792       9.765213       0.04115
   6     533.0        0.0141        0.0002        9.4780        9.4781       9.464010       0.04845
   5     589.8        0.0142        0.0002        9.0910        9.0912       9.076978       0.05745
   4     651.6        0.0144        0.0002        8.5966        8.5968       8.582328       0.06764
   3     718.7        0.0148        0.0002        8.0348        8.0350       8.020183       0.07065
   2     792.3        0.0153        0.0002        7.4178        7.4180       7.402671       0.07082
   1     891.5        0.0167        0.0002        6.5763        6.5765       6.559757       0.07173
   0    1013.0        0.0207        0.0002        5.5821        5.5823       5.561643       0.06930



 Wavenumbers:  3250. -  4000. cm-1, ATM      1
 LEVEL PRESSURE   UPWARD FLUX   DIFDOWN FLUX  DIRDOWN FLUX  DOWNWARD FLUX   NET FLUX    HEATING RATE
          mb          W/m2          W/m2          W/m2        W/m2          W/m2       degree/day
  51    .06700        0.0005        0.0000       18.8767       18.8767      18.876163       0.00000
  50    .07753        0.0005        0.0000       18.8711       18.8711      18.870548       4.50059
  49    .09103        0.0005        0.0000       18.8660       18.8660      18.865466       3.17640
  48    0.1069        0.0005        0.0000       18.8617       18.8617      18.861229       2.25495
  47    0.1255        0.0005        0.0000       18.8580       18.8580      18.857538       1.67367
  46    0.1487        0.0005        0.0000       18.8543       18.8543      18.853799       1.36278
  45    0.1794        0.0005        0.0000       18.8500       18.8500      18.849537       1.17009
  44    0.2165        0.0005        0.0000       18.8456       18.8456      18.845136       1.00117
  43    0.2613        0.0005        0.0000       18.8410       18.8410      18.840472       0.87912
  42    0.3336        0.0005        0.0000       18.8342       18.8342      18.833731       0.78592
  41    0.4307        0.0005        0.0000       18.8267       18.8267      18.826187       0.65591
  40    0.5894        0.0005        0.0000       18.8164       18.8164      18.815937       0.54511
  39     1.339        0.0005        0.0000       18.7800       18.7800      18.779541       0.40975
  38     1.782        0.0005        0.0000       18.7627       18.7627      18.762238       0.32942
  37     2.292        0.0005        0.0000       18.7453       18.7453      18.744818       0.28852
  36     2.964        0.0005        0.0000       18.7254       18.7254      18.724878       0.25031
  35     3.853        0.0005        0.0000       18.7022       18.7022      18.701713       0.21984
  34     5.035        0.0005        0.0000       18.6746       18.6746      18.674088       0.19734
  33     6.613        0.0005        0.0000       18.6404       18.6404      18.639884       0.18285
  32     8.786        0.0005        0.0000       18.5954       18.5954      18.594900       0.17470
  31     11.80        0.0005        0.0000       18.5300       18.5300      18.529480       0.18316
  30     15.07        0.0005        0.0000       18.4569       18.4569      18.456387       0.18871
  29     18.79        0.0005        0.0000       18.3711       18.3712      18.370667       0.19436
  28     23.16        0.0005        0.0000       18.2680       18.2680      18.267538       0.19942
  27     28.12        0.0005        0.0000       18.1484       18.1484      18.147976       0.20325
  26     33.73        0.0005        0.0000       18.0156       18.0157      18.015228       0.19959
  25     40.54        0.0005        0.0001       17.8606       17.8607      17.860223       0.19230
  24     48.69        0.0004        0.0001       17.6863       17.6864      17.685948       0.18035
  23     57.69        0.0004        0.0001       17.5119       17.5120      17.511519       0.16350
  22     68.43        0.0004        0.0001       17.3246       17.3247      17.324252       0.14722
  21     81.20        0.0004        0.0001       17.1215       17.1216      17.121164       0.13420
  20     96.49        0.0004        0.0001       16.8948       16.8949      16.894541       0.12508
  19     114.6        0.0004        0.0001       16.6243       16.6245      16.624124       0.12627
  18     136.5        0.0003        0.0002       16.3109       16.3110      16.310695       0.12052
  17     162.9        0.0003        0.0002       15.9294       15.9296      15.929272       0.12192
  16     196.4        0.0003        0.0002       15.3735       15.3737      15.373468       0.13990
  15     218.7        0.0002        0.0002       14.8565       14.8567      14.856458       0.19629
  14     243.0        0.0002        0.0003       14.1344       14.1346      14.134398       0.25043
  13     269.0        0.0002        0.0003       13.1728       13.1730      13.172849       0.31192
  12     297.5        0.0002        0.0003       12.0306       12.0308      12.030670       0.33876
  11     328.5        0.0002        0.0003       10.9008       10.9011      10.900931       0.30717
  10     361.9        0.0001        0.0002        9.7992        9.7994       9.799259       0.27873
   9     398.1        0.0001        0.0002        8.6969        8.6972       8.697054       0.25679
   8     437.6        0.0001        0.0002        7.6152        7.6154       7.615326       0.23128
   7     480.5        0.0001        0.0002        6.6278        6.6281       6.627973       0.19391
   6     533.0        0.0001        0.0002        5.5862        5.5864       5.586364       0.16756
   5     589.8        0.0001        0.0002        4.5945        4.5947       4.594606       0.14721
   4     651.6        0.0000        0.0001        3.5896        3.5898       3.589716       0.13742
   3     718.7        0.0000        0.0001        2.6290        2.6291       2.629014       0.12073
   2     792.3        0.0001        0.0001        1.7300        1.7301       1.730031       0.10310
   1     891.5        0.0002        0.0000        0.8499        0.8499       0.849770       0.07491
   0    1013.0        0.0015        0.0000        0.2477        0.2477       0.246263       0.04190



 Wavenumbers:  4000. -  4650. cm-1, ATM      1
 LEVEL PRESSURE   UPWARD FLUX   DIFDOWN FLUX  DIRDOWN FLUX  DOWNWARD FLUX   NET FLUX    HEATING RATE
          mb          W/m2          W/m2          W/m2        W/m2          W/m2       degree/day
  51    .06700        0.4470        0.0000       22.1669       22.1669      21.719890       0.00000
  50    .07753        0.4470        0.0000       22.1669       22.1669      21.719889       0.00080
  49    .09103        0.4470        0.0000       22.1669       22.1669      21.719888       0.00078
  48    0.1069        0.4470        0.0000       22.1669       22.1669      21.719886       0.00076
  47    0.1255        0.4470        0.0000       22.1669       22.1669      21.719885       0.00075
  46    0.1487        0.4470        0.0000       22.1669       22.1669      21.719882       0.00076
  45    0.1794        0.4470        0.0000       22.1669       22.1669      21.719880       0.00078
  44    0.2165        0.4470        0.0000       22.1669       22.1669      21.719876       0.00076
  43    0.2613        0.4470        0.0000       22.1669       22.1669      21.719872       0.00075
  42    0.3336        0.4470        0.0000       22.1669       22.1669      21.719866       0.00077
  41    0.4307        0.4470        0.0000       22.1669       22.1669      21.719857       0.00077
  40    0.5894        0.4470        0.0000       22.1669       22.1669      21.719842       0.00080
  39     1.339        0.4470        0.0000       22.1668       22.1668      21.719753       0.00101
  38     1.782        0.4470        0.0000       22.1667       22.1667      21.719683       0.00133
  37     2.292        0.4470        0.0000       22.1666       22.1666      21.719589       0.00156
  36     2.964        0.4470        0.0000       22.1665       22.1665      21.719448       0.00176
  35     3.853        0.4470        0.0000       22.1662       22.1663      21.719240       0.00198
  34     5.035        0.4470        0.0000       22.1659       22.1659      21.718933       0.00219
  33     6.613        0.4470        0.0000       22.1655       22.1655      21.718481       0.00242
  32     8.786        0.4470        0.0000       22.1648       22.1648      21.717812       0.00260
  31     11.80        0.4470        0.0000       22.1637       22.1637      21.716760       0.00295
  30     15.07        0.4470        0.0001       22.1624       22.1625      21.715524       0.00319
  29     18.79        0.4470        0.0001       22.1609       22.1610      21.714025       0.00340
  28     23.16        0.4470        0.0001       22.1590       22.1591      21.712159       0.00361
  27     28.12        0.4469        0.0001       22.1567       22.1568      21.709893       0.00385
  26     33.73        0.4469        0.0001       22.1539       22.1540      21.707089       0.00422
  25     40.54        0.4469        0.0001       22.1500       22.1502      21.703269       0.00474
  24     48.69        0.4469        0.0002       22.1448       22.1450      21.698153       0.00529
  23     57.69        0.4468        0.0002       22.1387       22.1389      21.692053       0.00572
  22     68.43        0.4468        0.0002       22.1309       22.1312      21.684368       0.00604
  21     81.20        0.4468        0.0003       22.1213       22.1216      21.674843       0.00629
  20     96.49        0.4468        0.0003       22.1096       22.1099      21.663189       0.00643
  19     114.6        0.4467        0.0004       22.0948       22.0953      21.648543       0.00684
  18     136.5        0.4467        0.0005       22.0770       22.0775      21.630808       0.00682
  17     162.9        0.4466        0.0006       22.0551       22.0556      21.609007       0.00697
  16     196.4        0.4466        0.0007       22.0248       22.0255      21.578864       0.00759
  15     218.7        0.4466        0.0008       22.0014       22.0022      21.555610       0.00883
  14     243.0        0.4466        0.0009       21.9697       21.9706      21.523916       0.01099
  13     269.0        0.4467        0.0010       21.9243       21.9253      21.478564       0.01471
  12     297.5        0.4469        0.0011       21.8614       21.8624      21.415551       0.01869
  11     328.5        0.4471        0.0012       21.7837       21.7849      21.337733       0.02116
  10     361.9        0.4475        0.0013       21.6872       21.6885      21.241028       0.02447
   9     398.1        0.4479        0.0014       21.5618       21.5632      21.115318       0.02929
   8     437.6        0.4485        0.0015       21.3939       21.3954      20.946936       0.03600
   7     480.5        0.4492        0.0016       21.1779       21.1795      20.730277       0.04255
   6     533.0        0.4504        0.0018       20.8709       20.8726      20.422287       0.04955
   5     589.8        0.4520        0.0019       20.5029       20.5048      20.052807       0.05484
   4     651.6        0.4546        0.0021       20.0588       20.0608      19.606202       0.06107
   3     718.7        0.4588        0.0022       19.5322       19.5344      19.075547       0.06669
   2     792.3        0.4660        0.0023       18.8360       18.8383      18.372311       0.08065
   1     891.5        0.4832        0.0024       17.6938       17.6962      17.212963       0.09865
   0    1013.0        0.5300        0.0025       16.3057       16.3082      15.778223       0.09962



 Wavenumbers:  4650. -  5150. cm-1, ATM      1
 LEVEL PRESSURE   UPWARD FLUX   DIFDOWN FLUX  DIRDOWN FLUX  DOWNWARD FLUX   NET FLUX    HEATING RATE
          mb          W/m2          W/m2          W/m2        W/m2          W/m2       degree/day
  51    .06700        0.0695        0.0000       20.9820       20.9820      20.912537       0.00000
  50    .07753        0.0695        0.0000       20.9818       20.9818      20.912301       0.18923
  49    .09103        0.0695        0.0000       20.9815       20.9815      20.912005       0.18499
  48    0.1069        0.0695        0.0000       20.9812       20.9812      20.911665       0.18056
  47    0.1255        0.0695        0.0000       20.9808       20.9808      20.911277       0.17610
  46    0.1487        0.0695        0.0000       20.9803       20.9803      20.910789       0.17797
  45    0.1794        0.0695        0.0000       20.9796       20.9796      20.910125       0.18217
  44    0.2165        0.0695        0.0000       20.9788       20.9788      20.909345       0.17755
  43    0.2613        0.0695        0.0000       20.9779       20.9779      20.908427       0.17290
  42    0.3336        0.0695        0.0000       20.9764       20.9764      20.906926       0.17501
  41    0.4307        0.0695        0.0000       20.9745       20.9745      20.904966       0.17044
  40    0.5894        0.0695        0.0000       20.9713       20.9713      20.901837       0.16639
  39     1.339        0.0695        0.0000       20.9576       20.9576      20.888147       0.15413
  38     1.782        0.0695        0.0000       20.9504       20.9504      20.880895       0.13806
  37     2.292        0.0695        0.0000       20.9427       20.9427      20.873188       0.12765
  36     2.964        0.0695        0.0000       20.9335       20.9335      20.864036       0.11487
  35     3.853        0.0695        0.0000       20.9229       20.9229      20.853421       0.10075
  34     5.035        0.0695        0.0000       20.9109       20.9109      20.841432       0.08564
  33     6.613        0.0695        0.0000       20.8977       20.8978      20.828323       0.07008
  32     8.786        0.0694        0.0000       20.8837       20.8837      20.814303       0.05445
  31     11.80        0.0694        0.0001       20.8679       20.8680      20.798583       0.04401
  30     15.07        0.0694        0.0001       20.8538       20.8539      20.784492       0.03638
  29     18.79        0.0694        0.0001       20.8390       20.8391      20.769755       0.03341
  28     23.16        0.0694        0.0001       20.8218       20.8219      20.752508       0.03335
  27     28.12        0.0693        0.0002       20.8009       20.8011      20.731723       0.03533
  26     33.73        0.0693        0.0002       20.7758       20.7760      20.706682       0.03765
  25     40.54        0.0693        0.0002       20.7429       20.7431      20.673836       0.04075
  24     48.69        0.0692        0.0003       20.6999       20.7002      20.630954       0.04438
  23     57.69        0.0692        0.0003       20.6493       20.6496      20.580422       0.04737
  22     68.43        0.0692        0.0004       20.5855       20.5858      20.516691       0.05010
  21     81.20        0.0691        0.0004       20.5059       20.5064      20.437275       0.05248
  20     96.49        0.0690        0.0005       20.4090       20.4095      20.340442       0.05344
  19     114.6        0.0690        0.0006       20.2929       20.2935      20.224581       0.05410
  18     136.5        0.0689        0.0007       20.1582       20.1589      20.090057       0.05173
  17     162.9        0.0688        0.0008       20.0046       20.0055      19.936686       0.04902
  16     196.4        0.0687        0.0010       19.8190       19.8200      19.751365       0.04665
  15     218.7        0.0686        0.0011       19.7044       19.7055      19.636930       0.04345
  14     243.0        0.0685        0.0012       19.5836       19.5848      19.516340       0.04182
  13     269.0        0.0684        0.0014       19.4538       19.4551      19.386688       0.04206
  12     297.5        0.0684        0.0015       19.3094       19.3109      19.242494       0.04277
  11     328.5        0.0684        0.0016       19.1498       19.1514      19.083082       0.04334
  10     361.9        0.0683        0.0018       18.9711       18.9729      18.904548       0.04517
   9     398.1        0.0684        0.0019       18.7668       18.7688      18.700392       0.04756
   8     437.6        0.0684        0.0021       18.5295       18.5316      18.463178       0.05072
   7     480.5        0.0685        0.0022       18.2516       18.2539      18.185322       0.05457
   6     533.0        0.0688        0.0024       17.8743       17.8767      17.807926       0.06071
   5     589.8        0.0692        0.0025       17.4170       17.4195      17.350372       0.06792
   4     651.6        0.0698        0.0027       16.8455       16.8482      16.778380       0.07822
   3     718.7        0.0709        0.0028       16.1584       16.1612      16.090306       0.08647
   2     792.3        0.0727        0.0029       15.3623       15.3652      15.292520       0.09150
   1     891.5        0.0768        0.0030       14.2635       14.2665      14.189718       0.09384
   0    1013.0        0.0861        0.0031       13.0468       13.0499      12.963767       0.08512



 Wavenumbers:  5150. -  6150. cm-1, ATM      1
 LEVEL PRESSURE   UPWARD FLUX   DIFDOWN FLUX  DIRDOWN FLUX  DOWNWARD FLUX   NET FLUX    HEATING RATE
          mb          W/m2          W/m2          W/m2        W/m2          W/m2       degree/day
  51    .06700        1.0548        0.0000       52.6020       52.6020      51.547263       0.00000
  50    .07753        1.0548        0.0000       52.6020       52.6020      51.547224       0.03156
  49    .09103        1.0548        0.0000       52.6019       52.6019      51.547173       0.03205
  48    0.1069        1.0548        0.0000       52.6019       52.6019      51.547112       0.03256
  47    0.1255        1.0548        0.0000       52.6018       52.6018      51.547039       0.03307
  46    0.1487        1.0548        0.0000       52.6017       52.6017      51.546943       0.03484
  45    0.1794        1.0548        0.0000       52.6016       52.6016      51.546808       0.03710
  44    0.2165        1.0548        0.0000       52.6014       52.6014      51.546642       0.03767
  43    0.2613        1.0548        0.0000       52.6012       52.6012      51.546439       0.03826
  42    0.3336        1.0548        0.0000       52.6008       52.6008      51.546092       0.04045
  41    0.4307        1.0548        0.0000       52.6004       52.6004      51.545621       0.04103
  40    0.5894        1.0548        0.0000       52.5996       52.5996      51.544829       0.04209
  39     1.339        1.0547        0.0000       52.5957       52.5957      51.541000       0.04310
  38     1.782        1.0547        0.0000       52.5934       52.5935      51.538759       0.04267
  37     2.292        1.0547        0.0001       52.5909       52.5909      51.536212       0.04219
  36     2.964        1.0547        0.0001       52.5876       52.5877      51.532959       0.04083
  35     3.853        1.0547        0.0001       52.5834       52.5835      51.528798       0.03950
  34     5.035        1.0546        0.0001       52.5779       52.5780      51.523392       0.03862
  33     6.613        1.0546        0.0002       52.5707       52.5709      51.516299       0.03792
  32     8.786        1.0546        0.0002       52.5613       52.5615      51.506969       0.03623
  31     11.80        1.0545        0.0003       52.5483       52.5486      51.494094       0.03605
  30     15.07        1.0544        0.0004       52.5349       52.5353      51.480879       0.03412
  29     18.79        1.0544        0.0005       52.5206       52.5211      51.466727       0.03209
  28     23.16        1.0543        0.0006       52.5047       52.5053      51.451075       0.03027
  27     28.12        1.0542        0.0007       52.4876       52.4883      51.434144       0.02878
  26     33.73        1.0540        0.0009       52.4697       52.4705      51.416478       0.02656
  25     40.54        1.0539        0.0010       52.4496       52.4506      51.396685       0.02456
  24     48.69        1.0537        0.0012       52.4275       52.4287      51.374944       0.02250
  23     57.69        1.0536        0.0015       52.4049       52.4064      51.352817       0.02074
  22     68.43        1.0534        0.0017       52.3799       52.3816      51.328239       0.01932
  21     81.20        1.0531        0.0021       52.3516       52.3537      51.300530       0.01831
  20     96.49        1.0529        0.0024       52.3191       52.3215      51.268687       0.01758
  19     114.6        1.0525        0.0029       52.2811       52.2840      51.231438       0.01739
  18     136.5        1.0521        0.0034       52.2361       52.2395      51.187368       0.01695
  17     162.9        1.0517        0.0041       52.1679       52.1720      51.120289       0.02144
  16     196.4        1.0511        0.0049       52.0207       52.0256      50.974525       0.03669
  15     218.7        1.0507        0.0055       51.8069       51.8124      50.761685       0.08081
  14     243.0        1.0503        0.0060       51.4147       51.4207      50.370381       0.13572
  13     269.0        1.0499        0.0065       50.7030       50.7095      49.659547       0.23059
  12     297.5        1.0496        0.0070       49.6008       49.6078      48.558230       0.32664
  11     328.5        1.0492        0.0075       48.3939       48.4015      47.352232       0.32791
  10     361.9        1.0490        0.0080       47.1417       47.1497      46.100777       0.31663
   9     398.1        1.0487        0.0085       45.7148       45.7233      44.674589       0.33227
   8     437.6        1.0486        0.0089       44.0173       44.0262      42.977569       0.36283
   7     480.5        1.0487        0.0093       42.1471       42.1565      41.107765       0.36722
   6     533.0        1.0491        0.0097       39.8911       39.9008      38.851745       0.36292
   5     589.8        1.0501        0.0101       37.5340       37.5442      36.494061       0.34996
   4     651.6        1.0525        0.0105       35.0733       35.0838      34.031289       0.33679
   3     718.7        1.0573        0.0110       32.8510       32.8620      31.804704       0.27982
   2     792.3        1.0669        0.0115       30.9675       30.9790      29.912163       0.21705
   1     891.5        1.0941        0.0121       29.0720       29.0841      27.990009       0.16357
   0    1013.0        1.1829        0.0128       27.1188       27.1315      25.948600       0.14175



 Wavenumbers:  6150. -  7700. cm-1, ATM      1
 LEVEL PRESSURE   UPWARD FLUX   DIFDOWN FLUX  DIRDOWN FLUX  DOWNWARD FLUX   NET FLUX    HEATING RATE
          mb          W/m2          W/m2          W/m2        W/m2          W/m2       degree/day
  51    .06700        3.2408        0.0000       97.2895       97.2895      94.048641       0.00000
  50    .07753        3.2408        0.0000       97.2894       97.2894      94.048585       0.04554
  49    .09103        3.2408        0.0000       97.2893       97.2893      94.048511       0.04583
  48    0.1069        3.2408        0.0000       97.2892       97.2892      94.048425       0.04615
  47    0.1255        3.2408        0.0000       97.2891       97.2891      94.048322       0.04646
  46    0.1487        3.2408        0.0000       97.2890       97.2890      94.048189       0.04854
  45    0.1794        3.2408        0.0000       97.2888       97.2888      94.048002       0.05129
  44    0.2165        3.2408        0.0000       97.2886       97.2886      94.047775       0.05171
  43    0.2613        3.2408        0.0000       97.2883       97.2883      94.047498       0.05215
  42    0.3336        3.2408        0.0000       97.2878       97.2878      94.047028       0.05478
  41    0.4307        3.2408        0.0000       97.2871       97.2872      94.046392       0.05530
  40    0.5894        3.2408        0.0001       97.2860       97.2861      94.045330       0.05647
  39     1.339        3.2407        0.0001       97.2808       97.2809      94.040212       0.05762
  38     1.782        3.2407        0.0002       97.2777       97.2779      94.037216       0.05703
  37     2.292        3.2406        0.0002       97.2742       97.2744      94.033802       0.05655
  36     2.964        3.2405        0.0003       97.2696       97.2700      94.029419       0.05501
  35     3.853        3.2404        0.0004       97.2638       97.2642      94.023778       0.05354
  34     5.035        3.2403        0.0005       97.2562       97.2567      94.016418       0.05258
  33     6.613        3.2402        0.0007       97.2462       97.2469      94.006725       0.05182
  32     8.786        3.2400        0.0010       97.2329       97.2339      93.993902       0.04980
  31     11.80        3.2397        0.0013       97.2144       97.2157      93.976048       0.04999
  30     15.07        3.2393        0.0017       97.1952       97.1968      93.957510       0.04786
  29     18.79        3.2390        0.0021       97.1743       97.1763      93.937376       0.04565
  28     23.16        3.2385        0.0025       97.1508       97.1533      93.914778       0.04370
  27     28.12        3.2380        0.0031       97.1249       97.1280      93.889950       0.04221
  26     33.73        3.2375        0.0037       97.0974       97.1011      93.863574       0.03966
  25     40.54        3.2368        0.0044       97.0659       97.0703      93.833475       0.03734
  24     48.69        3.2360        0.0053       97.0304       97.0357      93.799655       0.03500
  23     57.69        3.2351        0.0063       96.9934       96.9997      93.764585       0.03287
  22     68.43        3.2341        0.0075       96.9515       96.9590      93.724936       0.03117
  21     81.20        3.2328        0.0089       96.9036       96.9125      93.679643       0.02993
  20     96.49        3.2313        0.0105       96.8478       96.8583      93.627006       0.02905
  19     114.6        3.2295        0.0125       96.7820       96.7945      93.564993       0.02896
  18     136.5        3.2274        0.0148       96.7037       96.7186      93.491186       0.02838
  17     162.9        3.2249        0.0176       96.5899       96.6075      93.382674       0.03468
  16     196.4        3.2216        0.0212       96.3545       96.3757      93.154077       0.05754
  15     218.7        3.2195        0.0235       96.0163       96.0398      92.820321       0.12671
  14     243.0        3.2173        0.0259       95.4058       95.4317      92.214399       0.21015
  13     269.0        3.2150        0.0283       94.4272       94.4554      91.240458       0.31594
  12     297.5        3.2128        0.0306       92.8678       92.8983      89.685583       0.46116
  11     328.5        3.2106        0.0329       90.8742       90.9071      87.696510       0.54082
  10     361.9        3.2086        0.0352       88.6175       88.6528      85.444133       0.56987
   9     398.1        3.2070        0.0375       86.1490       86.1864      82.979447       0.57422
   8     437.6        3.2059        0.0395       83.3218       83.3613      80.155381       0.60380
   7     480.5        3.2058        0.0414       80.0842       80.1256      76.919743       0.63547
   6     533.0        3.2075        0.0433       75.9532       75.9965      72.788963       0.66451
   5     589.8        3.2128        0.0449       71.4346       71.4795      68.266666       0.67126
   4     651.6        3.2257        0.0459       66.3488       66.3947      63.168967       0.69712
   3     718.7        3.2518        0.0467       61.1668       61.2135      57.961626       0.65442
   2     792.3        3.3041        0.0471       56.0281       56.0752      52.771083       0.59530
   1     891.5        3.4480        0.0474       50.0070       50.0545      46.606487       0.52458
   0    1013.0        3.9088        0.0479       44.2196       44.2674      40.358612       0.43382



 Wavenumbers:  7700. -  8050. cm-1, ATM      1
 LEVEL PRESSURE   UPWARD FLUX   DIFDOWN FLUX  DIRDOWN FLUX  DOWNWARD FLUX   NET FLUX    HEATING RATE
          mb          W/m2          W/m2          W/m2        W/m2          W/m2       degree/day
  51    .06700        6.8588        0.0000       22.9924       22.9924      16.133630       0.00000
  50    .07753        6.8588        0.0000       22.9924       22.9924      16.133607       0.01812
  49    .09103        6.8588        0.0000       22.9924       22.9924      16.133579       0.01776
  48    0.1069        6.8588        0.0000       22.9923       22.9923      16.133546       0.01739
  47    0.1255        6.8588        0.0000       22.9923       22.9923      16.133509       0.01702
  46    0.1487        6.8588        0.0000       22.9923       22.9923      16.133461       0.01727
  45    0.1794        6.8588        0.0000       22.9922       22.9922      16.133397       0.01777
  44    0.2165        6.8588        0.0000       22.9921       22.9921      16.133320       0.01743
  43    0.2613        6.8588        0.0000       22.9921       22.9921      16.133229       0.01710
  42    0.3336        6.8589        0.0000       22.9919       22.9920      16.133079       0.01750
  41    0.4307        6.8589        0.0000       22.9918       22.9918      16.132880       0.01731
  40    0.5894        6.8590        0.0000       22.9915       22.9915      16.132555       0.01729
  39     1.339        6.8593        0.0001       22.9902       22.9903      16.131016       0.01732
  38     1.782        6.8595        0.0001       22.9895       22.9896      16.130112       0.01721
  37     2.292        6.8597        0.0001       22.9886       22.9888      16.129066       0.01733
  36     2.964        6.8600        0.0002       22.9875       22.9877      16.127691       0.01726
  35     3.853        6.8604        0.0002       22.9860       22.9862      16.125875       0.01724
  34     5.035        6.8608        0.0003       22.9840       22.9843      16.123461       0.01724
  33     6.613        6.8615        0.0004       22.9814       22.9817      16.120235       0.01724
  32     8.786        6.8624        0.0005       22.9778       22.9783      16.115886       0.01689
  31     11.80        6.8637        0.0007       22.9727       22.9734      16.109662       0.01742
  30     15.07        6.8651        0.0009       22.9672       22.9681      16.102977       0.01726
  29     18.79        6.8666        0.0011       22.9610       22.9621      16.095422       0.01713
  28     23.16        6.8685        0.0013       22.9537       22.9551      16.086595       0.01707
  27     28.12        6.8706        0.0016       22.9455       22.9471      16.076497       0.01717
  26     33.73        6.8729        0.0019       22.9362       22.9381      16.065195       0.01699
  25     40.54        6.8758        0.0023       22.9250       22.9274      16.051540       0.01694
  24     48.69        6.8793        0.0028       22.9116       22.9144      16.035077       0.01704
  23     57.69        6.8831        0.0033       22.8968       22.9001      16.016996       0.01695
  22     68.43        6.8878        0.0039       22.8793       22.8832      15.995469       0.01692
  21     81.20        6.8933        0.0046       22.8585       22.8631      15.969835       0.01694
  20     96.49        6.9000        0.0055       22.8338       22.8393      15.939311       0.01685
  19     114.6        6.9080        0.0065       22.8045       22.8111      15.903102       0.01691
  18     136.5        6.9176        0.0078       22.7700       22.7778      15.860234       0.01648
  17     162.9        6.9291        0.0092       22.7292       22.7384      15.809250       0.01630
  16     196.4        6.9445        0.0111       22.6766       22.6877      15.743223       0.01662
  15     218.7        6.9547        0.0123       22.6423       22.6546      15.699883       0.01645
  14     243.0        6.9660        0.0137       22.6051       22.6188      15.652739       0.01635
  13     269.0        6.9785        0.0151       22.5649       22.5800      15.601531       0.01661
  12     297.5        6.9923        0.0167       22.5215       22.5383      15.545928       0.01649
  11     328.5        7.0076        0.0184       22.4747       22.4931      15.485487       0.01643
  10     361.9        7.0246        0.0202       22.4242       22.4445      15.419862       0.01660
   9     398.1        7.0435        0.0222       22.3697       22.3919      15.348387       0.01665
   8     437.6        7.0647        0.0243       22.3107       22.3350      15.270256       0.01670
   7     480.5        7.0886        0.0266       22.2466       22.2732      15.184667       0.01681
   6     533.0        7.1197        0.0294       22.1663       22.1958      15.076072       0.01747
   5     589.8        7.1560        0.0324       22.0769       22.1094      14.953376       0.01821
   4     651.6        7.1996        0.0357       21.9748       22.0104      14.810789       0.01950
   3     718.7        7.2533        0.0391       21.8559       21.8951      14.641814       0.02124
   2     792.3        7.3217        0.0428       21.7137       21.7565      14.434819       0.02374
   1     891.5        7.4383        0.0476       21.4911       21.5388      14.100519       0.02845
   0    1013.0        7.6273        0.0533       21.1749       21.2282      13.600897       0.03469



 Wavenumbers:  8050. - 12850. cm-1, ATM      1
 LEVEL PRESSURE   UPWARD FLUX   DIFDOWN FLUX  DIRDOWN FLUX  DOWNWARD FLUX   NET FLUX    HEATING RATE
          mb          W/m2          W/m2          W/m2        W/m2          W/m2       degree/day
  51    .06700      167.6439        0.0000      321.9105      321.9105     154.266632       0.00000
  50    .07753      167.6439        0.0000      321.9105      321.9105     154.266632       0.00000
  49    .09103      167.6439        0.0001      321.9104      321.9105     154.266632      -0.00000
  48    0.1069      167.6439        0.0001      321.9104      321.9105     154.266632       0.00000
  47    0.1255      167.6439        0.0002      321.9103      321.9105     154.266632      -0.00000
  46    0.1487      167.6438        0.0003      321.9102      321.9105     154.266632       0.00000
  45    0.1794      167.6438        0.0004      321.9101      321.9105     154.266632      -0.00000
  44    0.2165      167.6438        0.0005      321.9099      321.9104     154.266632       0.00000
  43    0.2613      167.6438        0.0007      321.9097      321.9104     154.266632       0.00000
  42    0.3336      167.6438        0.0009      321.9095      321.9104     154.266632      -0.00000
  41    0.4307      167.6437        0.0013      321.9091      321.9104     154.266632      -0.00000
  40    0.5894      167.6437        0.0018      321.9084      321.9103     154.266632       0.00000
  39     1.339      167.6433        0.0045      321.9055      321.9100     154.266632       0.00000
  38     1.782      167.6431        0.0060      321.9038      321.9098     154.266632      -0.00000
  37     2.292      167.6429        0.0078      321.9017      321.9096     154.266632      -0.00000
  36     2.964      167.6426        0.0102      321.8991      321.9093     154.266632       0.00000
  35     3.853      167.6423        0.0133      321.8956      321.9089     154.266632      -0.00000
  34     5.035      167.6418        0.0174      321.8910      321.9084     154.266632      -0.00000
  33     6.613      167.6411        0.0229      321.8848      321.9077     154.266632       0.00000
  32     8.786      167.6402        0.0304      321.8764      321.9068     154.266632      -0.00000
  31     11.80      167.6389        0.0411      321.8644      321.9055     154.266632       0.00000
  30     15.07      167.6375        0.0526      321.8515      321.9041     154.266632      -0.00000
  29     18.79      167.6359        0.0655      321.8370      321.9025     154.266632       0.00000
  28     23.16      167.6340        0.0807      321.8199      321.9007     154.266632      -0.00000
  27     28.12      167.6319        0.0981      321.8004      321.8985     154.266632       0.00000
  26     33.73      167.6295        0.1176      321.7786      321.8961     154.266632       0.00000
  25     40.54      167.6266        0.1411      321.7521      321.8933     154.266632       0.00000
  24     48.69      167.6232        0.1696      321.7202      321.8898     154.266632       0.00000
  23     57.69      167.6193        0.2009      321.6851      321.8860     154.266632      -0.00000
  22     68.43      167.6148        0.2382      321.6432      321.8814     154.266632       0.00000
  21     81.20      167.6093        0.2828      321.5932      321.8759     154.266632       0.00000
  20     96.49      167.6028        0.3360      321.5335      321.8694     154.266632      -0.00000
  19     114.6      167.5954        0.3993      321.4564      321.8556     154.260246       0.00298
  18     136.5      167.5865        0.4745      321.3644      321.8389     154.252318       0.00305
  17     162.9      167.5761        0.5642      321.2510      321.8152     154.239167       0.00420
  16     196.4      167.5626        0.6810      321.0870      321.7681     154.205424       0.00849
  15     218.7      167.5542        0.7579      320.9382      321.6961     154.141844       0.02414
  14     243.0      167.5461        0.8415      320.6919      321.5334     153.987298       0.05360
  13     269.0      167.5399        0.9321      320.2677      321.1998     153.659876       0.10621
  12     297.5      167.5382        1.0297      319.5924      320.6222     153.083951       0.17081
  11     328.5      167.5429        1.1352      318.7206      319.8559     152.312955       0.20963
  10     361.9      167.5575        1.2487      317.6646      318.9133     151.355796       0.24217
   9     398.1      167.5879        1.3704      316.3793      317.7497     150.161761       0.27818
   8     437.6      167.6442        1.5003      314.7552      316.2555     148.611363       0.33148
   7     480.5      167.7383        1.6385      312.7049      314.3434     146.605083       0.39403
   6     533.0      167.9181        1.8065      309.7097      311.5162     143.598078       0.48373
   5     589.8      168.2295        1.9842      305.7965      307.7807     139.551168       0.60069
   4     651.6      168.8119        2.1685      300.3904      302.5589     133.747036       0.79373
   3     718.7      169.8515        2.3581      293.4329      295.7911     125.939592       0.98118
   2     792.3      171.7692        2.5494      284.7500      287.2994     115.530193       1.19384
   1     891.5      176.6455        2.7865      271.8225      274.6090      97.963484       1.49484
   0    1013.0      189.8301        3.0469      255.9301      258.9770      69.146851       2.00089



 Wavenumbers: 12850. - 16000. cm-1, ATM      1
 LEVEL PRESSURE   UPWARD FLUX   DIFDOWN FLUX  DIRDOWN FLUX  DOWNWARD FLUX   NET FLUX    HEATING RATE
          mb          W/m2          W/m2          W/m2        W/m2          W/m2       degree/day
  51    .06700      161.8502        0.0000      201.7054      201.7054      39.855208       0.00000
  50    .07753      161.8502        0.0001      201.7045      201.7046      39.854394       0.65181
  49    .09103      161.8503        0.0002      201.7034      201.7036      39.853364       0.64409
  48    0.1069      161.8504        0.0004      201.7022      201.7025      39.852167       0.63690
  47    0.1255      161.8505        0.0005      201.7007      201.7012      39.850776       0.63059
  46    0.1487      161.8506        0.0007      201.6989      201.6996      39.848997       0.64867
  45    0.1794      161.8509        0.0010      201.6964      201.6974      39.846538       0.67517
  44    0.2165      161.8512        0.0013      201.6934      201.6948      39.843590       0.67048
  43    0.2613      161.8516        0.0017      201.6900      201.6917      39.840051       0.66707
  42    0.3336      161.8524        0.0023      201.6842      201.6866      39.834120       0.69151
  41    0.4307      161.8537        0.0032      201.6767      201.6799      39.826196       0.68898
  40    0.5894      161.8560        0.0046      201.6645      201.6691      39.813106       0.69611
  39     1.339      161.8732        0.0112      201.6091      201.6202      39.747040       0.74378
  38     1.782      161.8877        0.0150      201.5772      201.5922      39.704468       0.81050
  37     2.292      161.9087        0.0195      201.5400      201.5595      39.650792       0.88902
  36     2.964      161.9427        0.0253      201.4901      201.5155      39.572792       0.97913
  35     3.853      161.9965        0.0331      201.4222      201.4553      39.458744       1.08234
  34     5.035      162.0769        0.0434      201.3309      201.3743      39.297399       1.15258
  33     6.613      162.1888        0.0571      201.2118      201.2689      39.080128       1.16153
  32     8.786      162.3348        0.0756      201.0608      201.1364      38.801599       1.08171
  31     11.80      162.5262        0.1021      200.8633      200.9654      38.439153       1.01473
  30     15.07      162.7113        0.1305      200.6693      200.7998      38.088594       0.90508
  29     18.79      162.9019        0.1627      200.4655      200.6282      37.726301       0.82143
  28     23.16      163.1034        0.2002      200.2446      200.4448      37.341449       0.74418
  27     28.12      163.3090        0.2432      200.0116      200.2548      36.945789       0.67259
  26     33.73      163.5036        0.2914      199.7784      200.0698      36.566174       0.57076
  25     40.54      163.6978        0.3496      199.5288      199.8784      36.180662       0.47827
  24     48.69      163.8919        0.4200      199.2593      199.6793      35.787420       0.40694
  23     57.69      164.0665        0.4974      198.9942      199.4916      35.425110       0.33961
  22     68.43      164.2325        0.5897      198.7125      199.3022      35.069725       0.27938
  21     81.20      164.3729        0.7001      198.4235      199.1236      34.750667       0.21083
  20     96.49      164.4871        0.8319      198.1248      198.9567      34.469609       0.15512
  19     114.6      164.6216        0.9907      197.7967      198.7874      34.165731       0.14189
  18     136.5      164.7578        1.1792      197.4324      198.6116      33.853760       0.11996
  17     162.9      164.8986        1.4041      197.0220      198.4260      33.527479       0.10429
  16     196.4      165.0356        1.6965      196.5265      198.2230      33.187360       0.08561
  15     218.7      165.1095        1.8889      196.2119      198.1008      32.991319       0.07443
  14     243.0      165.1830        2.0984      195.8715      197.9699      32.786885       0.07090
  13     269.0      165.2566        2.3258      195.5014      197.8272      32.570626       0.07015
  12     297.5      165.3319        2.5720      195.0961      197.6681      32.336209       0.06953
  11     328.5      165.4141        2.8386      194.6492      197.4879      32.073801       0.07135
  10     361.9      165.5053        3.1263      194.1564      197.2828      31.777423       0.07499
   9     398.1      165.6098        3.4367      193.6120      197.0487      31.438872       0.07887
   8     437.6      165.7344        3.7707      193.0067      196.7774      31.042967       0.08465
   7     480.5      165.8864        4.1296      192.3333      196.4630      30.576596       0.09159
   6     533.0      166.1090        4.5725      191.4639      196.0364      29.927337       0.10445
   5     589.8      166.4152        5.0508      190.4590      195.5098      29.094601       0.12361
   4     651.6      166.8794        5.5649      189.2440      194.8089      27.929550       0.15932
   3     718.7      167.5552        6.1131      187.7942      193.9074      26.352149       0.19824
   2     792.3      168.6071        6.6916      186.0076      192.6992      24.092059       0.25921
   1     891.5      170.8319        7.4530      183.1831      190.6361      19.804137       0.36488
   0    1013.0      175.2866        8.3396      179.3133      187.6529      12.366327       0.51645



 Wavenumbers: 16000. - 22650. cm-1, ATM      1
 LEVEL PRESSURE   UPWARD FLUX   DIFDOWN FLUX  DIRDOWN FLUX  DOWNWARD FLUX   NET FLUX    HEATING RATE
          mb          W/m2          W/m2          W/m2        W/m2          W/m2       degree/day
  51    .06700      291.6100        0.0000      321.5969      321.5969      29.986893       0.00000
  50    .07753      291.6102        0.0006      321.5963      321.5969      29.986675       0.17475
  49    .09103      291.6105        0.0013      321.5956      321.5969      29.986358       0.19821
  48    0.1069      291.6109        0.0021      321.5947      321.5968      29.985933       0.22602
  47    0.1255      291.6113        0.0030      321.5937      321.5967      29.985365       0.25764
  46    0.1487      291.6120        0.0042      321.5924      321.5965      29.984527       0.30530
  45    0.1794      291.6130        0.0058      321.5905      321.5962      29.983218       0.35947
  44    0.2165      291.6144        0.0076      321.5882      321.5958      29.981442       0.40400
  43    0.2613      291.6161        0.0099      321.5853      321.5952      29.979032       0.45420
  42    0.3336      291.6194        0.0136      321.5803      321.5939      29.974451       0.53414
  41    0.4307      291.6243        0.0185      321.5734      321.5919      29.967545       0.60045
  40    0.5894      291.6335        0.0265      321.5613      321.5879      29.954374       0.70042
  39     1.339      291.6986        0.0646      321.4911      321.5556      29.857049       1.09570
  38     1.782      291.7527        0.0869      321.4400      321.5268      29.774120       1.57884
  37     2.292      291.8303        0.1127      321.3717      321.4844      29.654049       1.98870
  36     2.964      291.9551        0.1466      321.2680      321.4146      29.459458       2.44270
  35     3.853      292.1522        0.1914      321.1113      321.3027      29.150509       2.93199
  34     5.035      292.4458        0.2509      320.8841      321.1350      28.689176       3.29557
  33     6.613      292.8543        0.3304      320.5712      320.9016      28.047258       3.43169
  32     8.786      293.3881        0.4374      320.1613      320.5987      27.210587       3.24933
  31     11.80      294.0892        0.5906      319.6152      320.2057      26.116564       3.06292
  30     15.07      294.7689        0.7550      319.0755      319.8305      25.061571       2.72379
  29     18.79      295.4712        0.9408      318.5080      319.4488      23.977638       2.45761
  28     23.16      296.2155        1.1579      317.8934      319.0513      22.835755       2.20803
  27     28.12      296.9781        1.4062      317.2464      318.6527      21.674547       1.97397
  26     33.73      297.7042        1.6845      316.6006      318.2850      20.580857       1.64439
  25     40.54      298.4339        2.0211      315.9098      317.9309      19.496951       1.34471
  24     48.69      299.1703        2.4274      315.1638      317.5912      18.420831       1.11362
  23     57.69      299.8404        2.8742      314.4276      317.3018      17.461361       0.89936
  22     68.43      300.4886        3.4072      313.6396      317.0468      16.558177       0.71002
  21     81.20      301.0555        4.0435      312.8209      316.8644      15.808972       0.49506
  20     96.49      301.5398        4.8032      311.9561      316.7593      15.219452       0.32537
  19     114.6      302.0153        5.7056      310.9885      316.6941      14.678865       0.25242
  18     136.5      302.5113        6.7753      309.8816      316.6568      14.145488       0.20510
  17     162.9      303.0399        8.0486      308.6007      316.6493      13.609410       0.17135
  16     196.4      303.5921        9.7004      307.0170      316.7174      13.125375       0.12184
  15     218.7      303.9050       10.7851      306.0060      316.7911      12.886098       0.09084
  14     243.0      304.2217       11.9638      304.9211      316.8849      12.663269       0.07728
  13     269.0      304.5401       13.2409      303.7600      317.0008      12.460762       0.06569
  12     297.5      304.8604       14.6206      302.5191      317.1397      12.279288       0.05382
  11     328.5      305.1944       16.1110      301.1856      317.2966      12.102194       0.04815
  10     361.9      305.5424       17.7152      299.7569      317.4721      11.929709       0.04364
   9     398.1      305.9062       19.4411      298.2255      317.6667      11.760448       0.03943
   8     437.6      306.2898       21.2941      296.5851      317.8792      11.589430       0.03656
   7     480.5      306.6942       23.2798      294.8305      318.1103      11.416153       0.03403
   6     533.0      307.1875       25.7241      292.6722      318.3963      11.208857       0.03335
   5     589.8      307.7228       28.3591      290.3419      318.7010      10.978263       0.03423
   4     651.6      308.3171       31.1930      287.8218      319.0148      10.697734       0.03836
   3     718.7      308.9875       34.2348      285.0947      319.3294      10.341875       0.04472
   2     792.3      309.7740       37.4884      282.1343      319.6227       9.848675       0.05656
   1     891.5      311.0081       41.8709      278.0489      319.9198       8.911709       0.07973
   0    1013.0      312.7780       47.1192      273.0220      320.1413       7.363249       0.10752



 Wavenumbers: 22650. - 29000. cm-1, ATM      1
 LEVEL PRESSURE   UPWARD FLUX   DIFDOWN FLUX  DIRDOWN FLUX  DOWNWARD FLUX   NET FLUX    HEATING RATE
          mb          W/m2          W/m2          W/m2        W/m2          W/m2       degree/day
  51    .06700      119.2970        0.0000      121.3590      121.3590       2.061969       0.00000
  50    .07753      119.2971        0.0007      121.3584      121.3591       2.061969       0.00000
  49    .09103      119.2972        0.0015      121.3577      121.3592       2.061969      -0.00000
  48    0.1069      119.2974        0.0024      121.3569      121.3594       2.061969       0.00000
  47    0.1255      119.2976        0.0035      121.3560      121.3595       2.061969       0.00000
  46    0.1487      119.2978        0.0049      121.3549      121.3597       2.061969       0.00000
  45    0.1794      119.2981        0.0068      121.3533      121.3600       2.061969       0.00000
  44    0.2165      119.2984        0.0090      121.3514      121.3604       2.061969      -0.00000
  43    0.2613      119.2988        0.0116      121.3492      121.3608       2.061969       0.00000
  42    0.3336      119.2995        0.0160      121.3455      121.3615       2.061969      -0.00000
  41    0.4307      119.3004        0.0218      121.3407      121.3624       2.061969      -0.00000
  40    0.5894      119.3019        0.0312      121.3327      121.3639       2.061969      -0.00000
  39     1.339      119.3090        0.0759      121.2951      121.3710       2.061969       0.00000
  38     1.782      119.3132        0.1021      121.2730      121.3751       2.061969      -0.00000
  37     2.292      119.3180        0.1325      121.2475      121.3800       2.061969      -0.00000
  36     2.964      119.3243        0.1724      121.2139      121.3863       2.061969       0.00000
  35     3.853      119.3326        0.2251      121.1696      121.3946       2.061969       0.00000
  34     5.035      119.3437        0.2951      121.1106      121.4057       2.061969       0.00000
  33     6.613      119.3586        0.3886      121.0319      121.4205       2.061969      -0.00000
  32     8.786      119.3785        0.5146      120.9259      121.4405       2.061969       0.00000
  31     11.80      119.4071        0.6948      120.7742      121.4690       2.061969      -0.00000
  30     15.07      119.4377        0.8883      120.6114      121.4997       2.061969       0.00000
  29     18.79      119.4723        1.1068      120.4275      121.5343       2.061969       0.00000
  28     23.16      119.5127        1.3618      120.2128      121.5746       2.061969      -0.00000
  27     28.12      119.5588        1.6532      119.9675      121.6208       2.061969       0.00000
  26     33.73      119.6104        1.9791      119.6933      121.6724       2.061969      -0.00000
  25     40.54      119.6726        2.3722      119.3624      121.7346       2.061969       0.00000
  24     48.69      119.7475        2.8453      118.9641      121.8095       2.061969       0.00000
  23     57.69      119.8295        3.3639      118.5276      121.8915       2.061969      -0.00000
  22     68.43      119.9270        3.9800      118.0089      121.9890       2.061969      -0.00000
  21     81.20      120.0427        4.7116      117.3931      122.1047       2.061969       0.00000
  20     96.49      120.1799        5.5798      116.6621      122.2419       2.061969       0.00000
  19     114.6      120.3420        6.6053      115.7987      122.4039       2.061969      -0.00000
  18     136.5      120.5328        7.8133      114.7814      122.5947       2.061969       0.00000
  17     162.9      120.7581        9.2411      113.5790      122.8201       2.061969      -0.00000
  16     196.4      121.0474       11.0749      112.0344      123.1093       2.061969       0.00000
  15     218.7      121.2355       12.2685      111.0289      123.2974       2.061969       0.00000
  14     243.0      121.4383       13.5565      109.9438      123.5003       2.061969      -0.00000
  13     269.0      121.6563       14.9411      108.7771      123.7183       2.061969       0.00000
  12     297.5      121.8896       16.4247      107.5269      123.9516       2.061969      -0.00000
  11     328.5      122.1393       18.0133      106.1880      124.2013       2.061969       0.00000
  10     361.9      122.4053       19.7070      104.7602      124.4672       2.061969      -0.00000
   9     398.1      122.6882       21.5108      103.2394      124.7502       2.061969       0.00000
   8     437.6      122.9884       23.4264      101.6240      125.0504       2.061969       0.00000
   7     480.5      123.3060       25.4553       99.9126      125.3679       2.061969      -0.00000
   6     533.0      123.6911       27.9190       97.8340      125.7530       2.061969       0.00000
   5     589.8      124.0992       30.5344       95.6267      126.1611       2.061969       0.00000
   4     651.6      124.5302       33.3014       93.2907      126.5921       2.061969       0.00000
   3     718.7      124.9839       36.2202       90.8256      127.0458       2.061969       0.00000
   2     792.3      125.4594       39.2864       88.2350      127.5214       2.061969       0.00000
   1     891.5      126.0850       43.3316       84.8154      128.1469       2.061969      -0.00000
   0    1013.0      126.8111       48.0455       80.8276      128.8730       2.061969       0.00000



 Wavenumbers: 29000. - 38000. cm-1, ATM      1
 LEVEL PRESSURE   UPWARD FLUX   DIFDOWN FLUX  DIRDOWN FLUX  DOWNWARD FLUX   NET FLUX    HEATING RATE
          mb          W/m2          W/m2          W/m2        W/m2          W/m2       degree/day
  51    .06700       18.8517        0.0000       42.7962       42.7962      23.944510       0.00000
  50    .07753       18.8516        0.0004       42.7919       42.7923      23.940680       3.06987
  49    .09103       18.8515        0.0009       42.7857       42.7866      23.935105       3.48460
  48    0.1069       18.8514        0.0014       42.7776       42.7790      23.927636       3.97601
  47    0.1255       18.8513        0.0021       42.7668       42.7689      23.917636       4.53343
  46    0.1487       18.8511        0.0029       42.7512       42.7540      23.902901       5.37095
  45    0.1794       18.8510        0.0040       42.7269       42.7309      23.879895       6.31575
  44    0.2165       18.8509        0.0053       42.6944       42.6997      23.848769       7.08057
  43    0.2613       18.8509        0.0068       42.6508       42.6576      23.806705       7.92896
  42    0.3336       18.8509        0.0093       42.5689       42.5782      23.727336       9.25362
  41    0.4307       18.8511        0.0126       42.4478       42.4605      23.609331      10.26030
  40    0.5894       18.8520        0.0180       42.2239       42.2419      23.389856      11.67138
  39     1.339       18.8638        0.0415       40.8002       40.8418      21.977971      15.89526
  38     1.782       18.8759        0.0541       39.8373       39.8914      21.015481      18.32427
  37     2.292       18.8944        0.0678       38.7301       38.7980      19.903597      18.41570
  36     2.964       18.9254        0.0850       37.4068       37.4918      18.566456      16.78516
  35     3.853       18.9758        0.1068       35.9681       36.0749      17.099136      13.92513
  34     5.035       19.0521        0.1348       34.5199       34.6548      15.602704      10.68989
  33     6.613       19.1596        0.1714       33.1130       33.2844      14.124878       7.90046
  32     8.786       19.3018        0.2198       31.7816       32.0014      12.699661       5.53503
  31     11.80       19.4919        0.2879       30.4777       30.7656      11.273721       3.99218
  30     15.07       19.6812        0.3601       29.4828       29.8429      10.161680       2.87107
  29     18.79       19.8828        0.4406       28.6238       29.0644       9.181576       2.22220
  28     23.16       20.1044        0.5337       27.8403       28.3740       8.269627       1.76342
  27     28.12       20.3409        0.6392       27.1287       27.7680       7.427094       1.43225
  26     33.73       20.5753        0.7574       26.5088       27.2662       6.690919       1.10686
  25     40.54       20.8202        0.9006       25.9220       26.8226       6.002330       0.85427
  24     48.69       21.0779        1.0730       25.3515       26.4245       5.346607       0.67857
  23     57.69       21.3218        1.2626       24.8393       26.1019       4.780078       0.53104
  22     68.43       21.5660        1.4888       24.3349       25.8237       4.257667       0.41069
  21     81.20       21.7837        1.7606       23.8519       25.6125       3.828830       0.28337
  20     96.49       21.9700        2.0863       23.3769       25.4633       3.493246       0.18522
  19     114.6       22.1539        2.4701       22.8700       25.3401       3.186292       0.14333
  18     136.5       22.3480        2.9182       22.3124       25.2306       2.882582       0.11678
  17     162.9       22.5582        3.4432       21.6913       25.1345       2.576226       0.09792
  16     196.4       22.7754        4.1153       20.9576       25.0729       2.297459       0.07017
  15     218.7       22.8969        4.5489       20.5051       25.0539       2.157089       0.05329
  14     243.0       23.0189        5.0127       20.0310       25.0437       2.024738       0.04590
  13     269.0       23.1399        5.5070       19.5363       25.0433       1.903381       0.03937
  12     297.5       23.2590        6.0318       19.0213       25.0531       1.794134       0.03240
  11     328.5       23.3815        6.5864       18.4824       25.0688       1.687312       0.02904
  10     361.9       23.5069        7.1695       17.9209       25.0904       1.583530       0.02626
   9     398.1       23.6351        7.7813       17.3368       25.1181       1.483008       0.02342
   8     437.6       23.7671        8.4203       16.7308       25.1511       1.383996       0.02117
   7     480.5       23.9019        9.0853       16.1045       25.1898       1.287940       0.01886
   6     533.0       24.0600        9.8767       15.3641       25.2408       1.180821       0.01723
   5     589.8       24.2230       10.6964       14.6010       25.2974       1.074355       0.01580
   4     651.6       24.3915       11.5408       13.8183       25.3591       0.967670       0.01459
   3     718.7       24.5652       12.4063       13.0195       25.4259       0.860657       0.01345
   2     792.3       24.7441       13.2897       12.2078       25.4975       0.753401       0.01230
   1     891.5       24.9757       14.4124       11.1807       25.5931       0.617427       0.01157
   0    1013.0       25.2420       15.6588       10.0459       25.7047       0.462684       0.01074



 Wavenumbers: 38000. - 50000. cm-1, ATM      1
 LEVEL PRESSURE   UPWARD FLUX   DIFDOWN FLUX  DIRDOWN FLUX  DOWNWARD FLUX   NET FLUX    HEATING RATE
          mb          W/m2          W/m2          W/m2        W/m2          W/m2       degree/day
  51    .06700        0.0076        0.0000        2.6396        2.6396       2.632059       0.00000
  50    .07753        0.0075        0.0001        2.6372        2.6372       2.629720       1.87407
  49    .09103        0.0075        0.0002        2.6337        2.6338       2.626380       2.08814
  48    0.1069        0.0074        0.0003        2.6291        2.6294       2.621981       2.34131
  47    0.1255        0.0073        0.0004        2.6231        2.6235       2.616185       2.62764
  46    0.1487        0.0072        0.0005        2.6144        2.6149       2.607770       3.06739
  45    0.1794        0.0070        0.0007        2.6011        2.6018       2.594796       3.56167
  44    0.2165        0.0069        0.0009        2.5834        2.5843       2.577465       3.94258
  43    0.2613        0.0067        0.0012        2.5599        2.5610       2.554342       4.35851
  42    0.3336        0.0064        0.0015        2.5162        2.5178       2.511366       5.01059
  41    0.4307        0.0060        0.0020        2.4526        2.4547       2.448620       5.45558
  40    0.5894        0.0055        0.0027        2.3378        2.3405       2.335060       6.03901
  39     1.339        0.0037        0.0041        1.6832        1.6874       1.683693       7.33321
  38     1.782        0.0029        0.0040        1.3129        1.3169       1.313997       7.03841
  37     2.292        0.0023        0.0035        0.9610        0.9645       0.962169       5.82720
  36     2.964        0.0018        0.0029        0.6431        0.6460       0.644186       3.99165
  35     3.853        0.0014        0.0024        0.4092        0.4115       0.410141       2.22112
  34     5.035        0.0011        0.0019        0.2579        0.2598       0.258730       1.08162
  33     6.613        0.0008        0.0015        0.1615        0.1630       0.162204       0.51603
  32     8.786        0.0006        0.0012        0.1013        0.1025       0.101881       0.23427
  31     11.80        0.0005        0.0009        0.0619        0.0629       0.062428       0.11045
  30     15.07        0.0003        0.0007        0.0405        0.0412       0.040901       0.05558
  29     18.79        0.0002        0.0005        0.0266        0.0271       0.026873       0.03181
  28     23.16        0.0002        0.0004        0.0170        0.0174       0.017257       0.01859
  27     28.12        0.0001        0.0003        0.0107        0.0110       0.010888       0.01083
  26     33.73        0.0001        0.0002        0.0068        0.0070       0.006884       0.00602
  25     40.54        0.0001        0.0001        0.0041        0.0043       0.004201       0.00333
  24     48.69        0.0000        0.0001        0.0024        0.0025       0.002447       0.00182
  23     57.69        0.0000        0.0001        0.0014        0.0014       0.001420       0.00096
  22     68.43        0.0000        0.0000        0.0008        0.0008       0.000780       0.00050
  21     81.20        0.0000        0.0000        0.0004        0.0004       0.000407       0.00025
  20     96.49        0.0000        0.0000        0.0002        0.0002       0.000198       0.00012
  19     114.6        0.0000        0.0000        0.0001        0.0001       0.000086       0.00005
  18     136.5        0.0000        0.0000        0.0000        0.0000       0.000032       0.00002
  17     162.9        0.0000        0.0000        0.0000        0.0000       0.000010       0.00001
  16     196.4        0.0000        0.0000        0.0000        0.0000       0.000002       0.00000
  15     218.7        0.0000        0.0000        0.0000        0.0000       0.000001       0.00000
  14     243.0        0.0000        0.0000        0.0000        0.0000       0.000000       0.00000
  13     269.0        0.0000        0.0000        0.0000        0.0000       0.000000       0.00000
  12     297.5        0.0000        0.0000        0.0000        0.0000       0.000000       0.00000
  11     328.5        0.0000        0.0000        0.0000        0.0000       0.000000       0.00000
  10     361.9        0.0000        0.0000        0.0000        0.0000       0.000000       0.00000
   9     398.1        0.0000        0.0000        0.0000        0.0000       0.000000       0.00000
   8     437.6        0.0000        0.0000        0.0000        0.0000       0.000000       0.00000
   7     480.5        0.0000        0.0000        0.0000        0.0000       0.000000       0.00000
   6     533.0        0.0000        0.0000        0.0000        0.0000       0.000000       0.00000
   5     589.8        0.0000        0.0000        0.0000        0.0000       0.000000       0.00000
   4     651.6        0.0000        0.0000        0.0000        0.0000       0.000000       0.00000
   3     718.7        0.0000        0.0000        0.0000        0.0000       0.000000       0.00000
   2     792.3        0.0000        0.0000        0.0000        0.0000       0.000000       0.00000
   1     891.5        0.0000        0.0000        0.0000        0.0000       0.000000       0.00000
   0    1013.0        0.0000        0.0000        0.0000        0.0000       0.000000       0.00000



 Wavenumbers:   820. -  2600. cm-1, ATM      1
 LEVEL PRESSURE   UPWARD FLUX   DIFDOWN FLUX  DIRDOWN FLUX  DOWNWARD FLUX   NET FLUX    HEATING RATE
          mb          W/m2          W/m2          W/m2        W/m2          W/m2       degree/day
  51    .06700        0.0070        0.0000       12.3479       12.3479      12.340839       0.00000
  50    .07753        0.0070        0.0000       12.3412       12.3412      12.334144       5.36580
  49    .09103        0.0070        0.0000       12.3397       12.3397      12.332699       0.90325
  48    0.1069        0.0070        0.0000       12.3386       12.3386      12.331593       0.58880
  47    0.1255        0.0070        0.0000       12.3374       12.3374      12.330315       0.57945
  46    0.1487        0.0070        0.0000       12.3357       12.3357      12.328676       0.59720
  45    0.1794        0.0070        0.0000       12.3335       12.3335      12.326457       0.60926
  44    0.2165        0.0070        0.0000       12.3309       12.3309      12.323900       0.58156
  43    0.2613        0.0070        0.0000       12.3281       12.3281      12.321006       0.54553
  42    0.3336        0.0070        0.0000       12.3237       12.3237      12.316605       0.51314
  41    0.4307        0.0070        0.0000       12.3185       12.3185      12.311450       0.44818
  40    0.5894        0.0070        0.0000       12.3111       12.3111      12.304051       0.39351
  39     1.339        0.0070        0.0000       12.2793       12.2793      12.272244       0.35809
  38     1.782        0.0070        0.0000       12.2611       12.2611      12.254066       0.34607
  37     2.292        0.0070        0.0000       12.2407       12.2407      12.233627       0.33852
  36     2.964        0.0070        0.0000       12.2146       12.2146      12.207552       0.32733
  35     3.853        0.0070        0.0000       12.1810       12.1810      12.173969       0.31871
  34     5.035        0.0070        0.0000       12.1380       12.1380      12.130970       0.30716
  33     6.613        0.0070        0.0000       12.0837       12.0837      12.076631       0.29050
  32     8.786        0.0070        0.0000       12.0150       12.0150      12.007943       0.26676
  31     11.80        0.0070        0.0000       11.9234       11.9234      11.916358       0.25641
  30     15.07        0.0070        0.0000       11.8332       11.8332      11.826117       0.23299
  29     18.79        0.0070        0.0000       11.7438       11.7438      11.736734       0.20266
  28     23.16        0.0070        0.0000       11.6589       11.6589      11.651886       0.16407
  27     28.12        0.0070        0.0000       11.5861       11.5861      11.579026       0.12386
  26     33.73        0.0070        0.0000       11.5285       11.5285      11.521484       0.08652
  25     40.54        0.0070        0.0000       11.4805       11.4805      11.473484       0.05955
  24     48.69        0.0070        0.0000       11.4384       11.4384      11.431313       0.04364
  23     57.69        0.0070        0.0000       11.3987       11.3987      11.391704       0.03713
  22     68.43        0.0070        0.0000       11.3536       11.3536      11.346573       0.03548
  21     81.20        0.0070        0.0000       11.3009       11.3009      11.293891       0.03481
  20     96.49        0.0070        0.0000       11.2386       11.2386      11.231597       0.03438
  19     114.6        0.0070        0.0000       11.1643       11.1643      11.157258       0.03471
  18     136.5        0.0070        0.0000       11.0760       11.0761      11.069023       0.03393
  17     162.9        0.0070        0.0000       10.9614       10.9614      10.954356       0.03665
  16     196.4        0.0070        0.0000       10.7773       10.7773      10.770305       0.04633
  15     218.7        0.0070        0.0000       10.5961       10.5962      10.589140       0.06878
  14     243.0        0.0070        0.0000       10.3084       10.3084      10.301343       0.09982
  13     269.0        0.0070        0.0000        9.9190        9.9190       9.911974       0.12631
  12     297.5        0.0070        0.0000        9.4853        9.4853       9.478274       0.12863
  11     328.5        0.0070        0.0000        9.1142        9.1142       9.107150       0.10091
  10     361.9        0.0071        0.0000        8.7447        8.7448       8.737702       0.09347
   9     398.1        0.0071        0.0000        8.3146        8.3146       8.307580       0.10021
   8     437.6        0.0071        0.0000        7.8194        7.8194       7.812299       0.10589
   7     480.5        0.0071        0.0000        7.3304        7.3304       7.323321       0.09603
   6     533.0        0.0071        0.0000        6.8665        6.8665       6.859387       0.07463
   5     589.8        0.0072        0.0000        6.5309        6.5310       6.523777       0.04982
   4     651.6        0.0073        0.0000        6.2330        6.2330       6.225752       0.04076
   3     718.7        0.0075        0.0000        5.8844        5.8845       5.877010       0.04383
   2     792.3        0.0078        0.0000        5.4530        5.4530       5.445273       0.04952
   1     891.5        0.0086        0.0000        4.8453        4.8453       4.836754       0.05178
   0    1013.0        0.0107        0.0000        4.1306        4.1306       4.119864       0.04978

  Modules and versions used in this calculation:

       rrtmg_sw.1col.f90:  $Revision$                    rrtmg_sw_init.f90:  $Revision$        
     rrtmgsw_cldprop.f90:  $Revision$                  rrtmgsw_cldprmc.f90:  NOT USED          
     rrtmg_sw_reftra.f90:  $Revision$                  rrtmg_sw_spcvrt.f90:  NOT USED          
     rrtmg_sw_spcvmc.f90:  NOT USED                    rrtmgsw_setcoef.f90:  NOT USED          
     rrtmg_sw_taumol.f90:  $Revision$                  rrtmg_sw_vrtqdr.f90:  NOT USED          
                rrtatm.f:  NOT USED                             util_xxx.f:  NOT USED          
                 extra.f:  NOT USED                       rrtmg_sw_k_g.f90:  $Revision$        

