

 Wavenumbers:   820. - 50000. cm-1, ATM      1
 LEVEL PRESSURE   UPWARD FLUX   DIFDOWN FLUX  DIRDOWN FLUX  DOWNWARD FLUX   NET FLUX    HEATING RATE
          mb          W/m2          W/m2          W/m2        W/m2          W/m2       degree/day
  51    .06700      525.2729        0.0000      856.4101      856.4101     331.137184       0.00000
  50    .07753      525.2728        0.0015      856.3907      856.3922     331.119472      14.19628
  49    .09103      525.2726        0.0034      856.3729      856.3763     331.103696       9.86065
  48    0.1069      525.2724        0.0056      856.3524      856.3580     331.085592       9.63707
  47    0.1255      525.2723        0.0081      856.3276      856.3358     331.063480      10.02449
  46    0.1487      525.2722        0.0113      856.2938      856.3051     331.032903      11.14538
  45    0.1794      525.2722        0.0156      856.2439      856.2595     330.987348      12.50593
  44    0.2165      525.2724        0.0207      856.1798      856.2005     330.928191      13.45731
  43    0.2613      525.2728        0.0268      856.0971      856.1239     330.851104      14.53060
  42    0.3336      525.2738        0.0367      855.9480      855.9847     330.710839      16.35354
  41    0.4307      525.2759        0.0498      855.7355      855.7854     330.509480      17.50768
  40    0.5894      525.2805        0.0710      855.3588      855.4299     330.149334      19.15213
  39     1.339      525.3271        0.1678      853.2646      853.4323     328.105206      23.01317
  38     1.782      525.3719        0.2224      852.0537      852.2760     326.904156      22.86604
  37     2.292      525.4395        0.2846      850.8058      851.0904     325.650857      20.75791
  36     2.964      525.5524        0.3655      849.4348      849.8003     324.247861      17.61184
  35     3.853      525.7352        0.4717      847.9660      848.4376     322.702419      14.66652
  34     5.035      526.0111        0.6120      846.3991      847.0110     320.999917      12.16197
  33     6.613      526.3972        0.7987      844.7307      845.5294     319.132188       9.98488
  32     8.786      526.9017        1.0492      842.9460      843.9952     317.093557       7.91730
  31     11.80      527.5620        1.4063      840.9079      842.3142     314.752247       6.55493
  30     15.07      528.1998        1.7884      839.0914      840.8799     312.680113       5.34985
  29     18.79      528.8566        2.2186      837.3093      839.5279     310.671331       4.55453
  28     23.16      529.5506        2.7195      835.4718      838.1913     308.640722       3.92654
  27     28.12      530.2583        3.2908      833.6022      836.8930     306.634652       3.41018
  26     33.73      530.9241        3.9291      831.7603      835.6894     304.765254       2.81069
  25     40.54      531.5808        4.6987      829.7888      834.4875     302.906700       2.30575
  24     48.69      532.2289        5.6247      827.6502      833.2748     301.045985       1.92555
  23     57.69      532.8006        6.6391      825.5144      832.1534     299.352825       1.58708
  22     68.43      533.3286        7.8444      823.1859      831.0304     297.701776       1.29795
  21     81.20      533.7435        9.2769      820.6773      829.9542     296.210720       0.98527
  20     96.49      534.0375       10.9796      817.9294      828.9090     294.871441       0.73919
  19     114.6      534.3028       12.9896      814.7951      827.7847     293.481851       0.64884
  18     136.5      534.5455       15.3524      811.2064      826.5588     292.013361       0.56467
  17     162.9      534.7694       18.1380      807.0163      825.1543     290.384908       0.52052
  16     196.4      534.9155       21.7116      801.5925      823.3040     288.388509       0.50252
  15     218.7      534.9592       24.0338      797.6792      821.7130     286.753775       0.62065
  14     243.0      534.9839       26.5350      792.8680      819.4029     284.419045       0.80976
  13     269.0      534.9881       29.2193      786.8293      816.0487     281.060587       1.08947
  12     297.5      534.9737       32.0898      779.4639      811.5536     276.579956       1.32891
  11     328.5      534.9539       35.1562      771.4429      806.5991     271.645182       1.34175
  10     361.9      534.9322       38.4179      762.7848      801.2027     266.270444       1.35986
   9     398.1      534.9149       41.8831      753.2439      795.1270     260.212107       1.41146
   8     437.6      534.9151       45.5529      742.6016      788.1545     253.239396       1.49081
   7     480.5      534.9443       49.4297      731.0341      780.4638     245.519501       1.51616
   6     533.0      535.0417       54.1227      716.7530      770.8757     235.834066       1.55808
   5     589.8      535.2678       59.0857      701.1145      760.2002     224.932462       1.61816
   4     651.6      535.7684       64.3122      683.3378      747.6500     211.881604       1.78474
   3     718.7      536.7031       69.7991      664.0194      733.8185     197.115422       1.85570
   2     792.3      538.4580       75.5248      643.0406      718.5654     180.107441       1.95062
   1     891.5      542.8161       83.0121      614.7117      697.7238     154.907682       2.14438
   0    1013.0      553.3101       91.6548      582.1350      673.7898     120.479668       2.39051



 Wavenumbers:  2600. -  3250. cm-1, ATM      1
 LEVEL PRESSURE   UPWARD FLUX   DIFDOWN FLUX  DIRDOWN FLUX  DOWNWARD FLUX   NET FLUX    HEATING RATE
          mb          W/m2          W/m2          W/m2        W/m2          W/m2       degree/day
  51    .06700        0.0225        0.0000        7.5479        7.5479       7.525413       0.00000
  50    .07753        0.0225        0.0000        7.5479        7.5479       7.525405       0.00640
  49    .09103        0.0225        0.0000        7.5479        7.5479       7.525395       0.00627
  48    0.1069        0.0225        0.0000        7.5479        7.5479       7.525383       0.00613
  47    0.1255        0.0225        0.0000        7.5478        7.5478       7.525370       0.00600
  46    0.1487        0.0225        0.0000        7.5478        7.5478       7.525353       0.00608
  45    0.1794        0.0225        0.0000        7.5478        7.5478       7.525331       0.00625
  44    0.2165        0.0225        0.0000        7.5478        7.5478       7.525304       0.00612
  43    0.2613        0.0225        0.0000        7.5478        7.5478       7.525272       0.00600
  42    0.3336        0.0225        0.0000        7.5477        7.5477       7.525219       0.00618
  41    0.4307        0.0225        0.0000        7.5476        7.5476       7.525147       0.00621
  40    0.5894        0.0225        0.0000        7.5475        7.5475       7.525027       0.00638
  39     1.339        0.0225        0.0000        7.5468        7.5468       7.524315       0.00802
  38     1.782        0.0225        0.0000        7.5462        7.5462       7.523766       0.01046
  37     2.292        0.0225        0.0000        7.5455        7.5455       7.523038       0.01206
  36     2.964        0.0225        0.0000        7.5445        7.5445       7.521974       0.01336
  35     3.853        0.0225        0.0000        7.5429        7.5429       7.520443       0.01453
  34     5.035        0.0225        0.0000        7.5408        7.5408       7.518284       0.01542
  33     6.613        0.0225        0.0000        7.5378        7.5378       7.515290       0.01601
  32     8.786        0.0225        0.0000        7.5337        7.5337       7.511252       0.01568
  31     11.80        0.0225        0.0000        7.5282        7.5282       7.505690       0.01557
  30     15.07        0.0225        0.0000        7.5226        7.5226       7.500164       0.01427
  29     18.79        0.0225        0.0000        7.5170        7.5170       7.494559       0.01271
  28     23.16        0.0225        0.0000        7.5112        7.5112       7.488749       0.01124
  27     28.12        0.0225        0.0000        7.5053        7.5053       7.482804       0.01011
  26     33.73        0.0225        0.0000        7.4988        7.4989       7.476392       0.00964
  25     40.54        0.0225        0.0000        7.4909        7.4909       7.468417       0.00989
  24     48.69        0.0225        0.0000        7.4806        7.4806       7.458123       0.01065
  23     57.69        0.0225        0.0000        7.4681        7.4682       7.445694       0.01165
  22     68.43        0.0225        0.0000        7.4519        7.4519       7.429444       0.01277
  21     81.20        0.0225        0.0000        7.4309        7.4309       7.408465       0.01386
  20     96.49        0.0224        0.0000        7.4044        7.4044       7.381977       0.01462
  19     114.6        0.0224        0.0000        7.3709        7.3710       7.348544       0.01561
  18     136.5        0.0224        0.0000        7.3310        7.3310       7.308573       0.01537
  17     162.9        0.0224        0.0001        7.2840        7.2840       7.261618       0.01501
  16     196.4        0.0224        0.0001        7.2251        7.2251       7.202724       0.01482
  15     218.7        0.0224        0.0001        7.1851        7.1851       7.162730       0.01518
  14     243.0        0.0224        0.0001        7.1369        7.1370       7.114596       0.01669
  13     269.0        0.0224        0.0001        7.0776        7.0777       7.055234       0.01926
  12     297.5        0.0224        0.0001        7.0055        7.0056       6.983182       0.02137
  11     328.5        0.0224        0.0001        6.9240        6.9241       6.901687       0.02216
  10     361.9        0.0225        0.0001        6.8303        6.8304       6.807947       0.02372
   9     398.1        0.0225        0.0001        6.7168        6.7169       6.694396       0.02645
   8     437.6        0.0226        0.0001        6.5731        6.5732       6.550630       0.03074
   7     480.5        0.0226        0.0001        6.3918        6.3920       6.369318       0.03561
   6     533.0        0.0228        0.0002        6.1357        6.1359       6.113133       0.04121
   5     589.8        0.0230        0.0002        5.8229        5.8230       5.800068       0.04647
   4     651.6        0.0233        0.0002        5.4485        5.4486       5.425350       0.05124
   3     718.7        0.0238        0.0002        5.0442        5.0444       5.020616       0.05086
   2     792.3        0.0246        0.0002        4.5999        4.6001       4.575500       0.05105
   1     891.5        0.0266        0.0002        3.9789        3.9791       3.952550       0.05301
   0    1013.0        0.0315        0.0002        3.2830        3.2831       3.251600       0.04867



 Wavenumbers:  3250. -  4000. cm-1, ATM      1
 LEVEL PRESSURE   UPWARD FLUX   DIFDOWN FLUX  DIRDOWN FLUX  DOWNWARD FLUX   NET FLUX    HEATING RATE
          mb          W/m2          W/m2          W/m2        W/m2          W/m2       degree/day
  51    .06700        0.0005        0.0000       12.7246       12.7246      12.724153       0.00000
  50    .07753        0.0005        0.0000       12.7194       12.7194      12.718919       4.19477
  49    .09103        0.0005        0.0000       12.7152       12.7152      12.714760       2.59998
  48    0.1069        0.0005        0.0000       12.7120       12.7120      12.711547       1.70994
  47    0.1255        0.0005        0.0000       12.7093       12.7093      12.708765       1.26119
  46    0.1487        0.0005        0.0000       12.7063       12.7063      12.705854       1.06140
  45    0.1794        0.0005        0.0000       12.7029       12.7029      12.702415       0.94410
  44    0.2165        0.0005        0.0000       12.6993       12.6993      12.698849       0.81100
  43    0.2613        0.0005        0.0000       12.6956       12.6956      12.695146       0.69815
  42    0.3336        0.0005        0.0000       12.6904       12.6904      12.689922       0.60898
  41    0.4307        0.0005        0.0000       12.6846       12.6846      12.684126       0.50401
  40    0.5894        0.0005        0.0000       12.6765       12.6765      12.675989       0.43269
  39     1.339        0.0005        0.0000       12.6456       12.6456      12.645139       0.34731
  38     1.782        0.0005        0.0000       12.6314       12.6314      12.630931       0.27050
  37     2.292        0.0005        0.0000       12.6176       12.6176      12.617100       0.22908
  36     2.964        0.0005        0.0000       12.6021       12.6021      12.601614       0.19439
  35     3.853        0.0005        0.0000       12.5841       12.5841      12.583657       0.17042
  34     5.035        0.0005        0.0000       12.5623       12.5623      12.561777       0.15630
  33     6.613        0.0005        0.0000       12.5340       12.5340      12.533553       0.15089
  32     8.786        0.0005        0.0000       12.4953       12.4954      12.494886       0.15017
  31     11.80        0.0005        0.0000       12.4379       12.4379      12.437453       0.16079
  30     15.07        0.0005        0.0000       12.3738       12.3738      12.373340       0.16553
  29     18.79        0.0005        0.0000       12.2995       12.2995      12.299057       0.16842
  28     23.16        0.0005        0.0000       12.2119       12.2119      12.211453       0.16940
  27     28.12        0.0004        0.0000       12.1131       12.1131      12.112649       0.16796
  26     33.73        0.0004        0.0000       12.0074       12.0074      12.006976       0.15888
  25     40.54        0.0004        0.0001       11.8891       11.8891      11.888697       0.14674
  24     48.69        0.0004        0.0001       11.7612       11.7613      11.760831       0.13232
  23     57.69        0.0004        0.0001       11.6355       11.6356      11.635153       0.11780
  22     68.43        0.0004        0.0001       11.4983       11.4984      11.498021       0.10780
  21     81.20        0.0004        0.0001       11.3433       11.3434      11.343014       0.10243
  20     96.49        0.0004        0.0001       11.1631       11.1632      11.162839       0.09944
  19     114.6        0.0003        0.0001       10.9450       10.9452      10.944832       0.10179
  18     136.5        0.0003        0.0002       10.6972       10.6974      10.697080       0.09527
  17     162.9        0.0003        0.0002       10.4052       10.4054      10.405103       0.09333
  16     196.4        0.0002        0.0002        9.9866        9.9868       9.986574       0.10535
  15     218.7        0.0002        0.0002        9.5970        9.5973       9.597051       0.14789
  14     243.0        0.0002        0.0002        9.0628        9.0630       9.062822       0.18529
  13     269.0        0.0002        0.0003        8.3769        8.3771       8.376957       0.22249
  12     297.5        0.0002        0.0003        7.5893        7.5895       7.589356       0.23359
  11     328.5        0.0001        0.0002        6.8042        6.8044       6.804288       0.21346
  10     361.9        0.0001        0.0002        6.0268        6.0270       6.026901       0.19669
   9     398.1        0.0001        0.0002        5.2740        5.2742       5.274148       0.17537
   8     437.6        0.0001        0.0002        4.5671        4.5673       4.567220       0.15115
   7     480.5        0.0001        0.0002        3.9308        3.9310       3.930959       0.12496
   6     533.0        0.0001        0.0002        3.2587        3.2589       3.258827       0.10812
   5     589.8        0.0000        0.0002        2.6179        2.6181       2.618026       0.09512
   4     651.6        0.0000        0.0001        1.9660        1.9662       1.966148       0.08915
   3     718.7        0.0000        0.0001        1.3454        1.3455       1.345516       0.07800
   2     792.3        0.0000        0.0001        0.8066        0.8066       0.806603       0.06181
   1     891.5        0.0001        0.0000        0.3152        0.3152       0.315127       0.04182
   0    1013.0        0.0008        0.0000        0.0519        0.0519       0.051142       0.01833



 Wavenumbers:  4000. -  4650. cm-1, ATM      1
 LEVEL PRESSURE   UPWARD FLUX   DIFDOWN FLUX  DIRDOWN FLUX  DOWNWARD FLUX   NET FLUX    HEATING RATE
          mb          W/m2          W/m2          W/m2        W/m2          W/m2       degree/day
  51    .06700        0.5670        0.0000       14.9426       14.9426      14.375567       0.00000
  50    .07753        0.5670        0.0000       14.9426       14.9426      14.375566       0.00080
  49    .09103        0.5670        0.0000       14.9426       14.9426      14.375565       0.00078
  48    0.1069        0.5670        0.0000       14.9426       14.9426      14.375563       0.00076
  47    0.1255        0.5670        0.0000       14.9426       14.9426      14.375562       0.00075
  46    0.1487        0.5670        0.0000       14.9426       14.9426      14.375560       0.00076
  45    0.1794        0.5670        0.0000       14.9426       14.9426      14.375557       0.00078
  44    0.2165        0.5670        0.0000       14.9426       14.9426      14.375553       0.00076
  43    0.2613        0.5670        0.0000       14.9426       14.9426      14.375549       0.00075
  42    0.3336        0.5670        0.0000       14.9425       14.9425      14.375543       0.00077
  41    0.4307        0.5670        0.0000       14.9425       14.9425      14.375534       0.00077
  40    0.5894        0.5670        0.0000       14.9425       14.9425      14.375519       0.00080
  39     1.339        0.5670        0.0000       14.9424       14.9424      14.375430       0.00101
  38     1.782        0.5670        0.0000       14.9424       14.9424      14.375360       0.00133
  37     2.292        0.5670        0.0000       14.9423       14.9423      14.375266       0.00156
  36     2.964        0.5670        0.0000       14.9421       14.9421      14.375125       0.00176
  35     3.853        0.5670        0.0000       14.9419       14.9419      14.374917       0.00197
  34     5.035        0.5670        0.0000       14.9416       14.9416      14.374611       0.00219
  33     6.613        0.5670        0.0000       14.9411       14.9411      14.374159       0.00242
  32     8.786        0.5670        0.0000       14.9404       14.9405      14.373491       0.00259
  31     11.80        0.5670        0.0000       14.9394       14.9394      14.372442       0.00294
  30     15.07        0.5670        0.0001       14.9381       14.9382      14.371210       0.00318
  29     18.79        0.5669        0.0001       14.9366       14.9367      14.369719       0.00338
  28     23.16        0.5669        0.0001       14.9347       14.9348      14.367865       0.00358
  27     28.12        0.5669        0.0001       14.9324       14.9325      14.365618       0.00382
  26     33.73        0.5669        0.0001       14.9296       14.9297      14.362842       0.00417
  25     40.54        0.5669        0.0001       14.9258       14.9259      14.359070       0.00468
  24     48.69        0.5669        0.0002       14.9207       14.9209      14.354033       0.00521
  23     57.69        0.5668        0.0002       14.9147       14.9149      14.348046       0.00561
  22     68.43        0.5668        0.0002       14.9071       14.9073      14.340529       0.00591
  21     81.20        0.5668        0.0003       14.8977       14.8980      14.331245       0.00613
  20     96.49        0.5667        0.0004       14.8863       14.8867      14.319927       0.00625
  19     114.6        0.5667        0.0004       14.8720       14.8725      14.305754       0.00662
  18     136.5        0.5667        0.0005       14.8548       14.8553      14.288651       0.00658
  17     162.9        0.5666        0.0006       14.8338       14.8343      14.267697       0.00670
  16     196.4        0.5666        0.0007       14.8048       14.8055      14.238841       0.00726
  15     218.7        0.5666        0.0008       14.7827       14.7834      14.216793       0.00837
  14     243.0        0.5667        0.0009       14.7531       14.7540      14.187322       0.01022
  13     269.0        0.5668        0.0010       14.7123       14.7133      14.146492       0.01325
  12     297.5        0.5670        0.0011       14.6574       14.6584      14.091422       0.01633
  11     328.5        0.5673        0.0012       14.5892       14.5904      14.023067       0.01859
  10     361.9        0.5678        0.0013       14.5023       14.5036      13.935865       0.02206
   9     398.1        0.5683        0.0014       14.3889       14.3903      13.821993       0.02653
   8     437.6        0.5690        0.0015       14.2411       14.2426      13.673560       0.03174
   7     480.5        0.5699        0.0016       14.0593       14.0610      13.491047       0.03585
   6     533.0        0.5713        0.0018       13.8162       13.8179      13.246660       0.03931
   5     589.8        0.5733        0.0019       13.5394       13.5414      12.968106       0.04135
   4     651.6        0.5763        0.0021       13.2029       13.2049      12.628611       0.04643
   3     718.7        0.5812        0.0022       12.7730       12.7752      12.193954       0.05462
   2     792.3        0.5894        0.0023       12.1985       12.2009      11.611440       0.06681
   1     891.5        0.6087        0.0024       11.3305       11.3329      10.724193       0.07550
   0    1013.0        0.6561        0.0025       10.3618       10.3643       9.708285       0.07054



 Wavenumbers:  4650. -  5150. cm-1, ATM      1
 LEVEL PRESSURE   UPWARD FLUX   DIFDOWN FLUX  DIRDOWN FLUX  DOWNWARD FLUX   NET FLUX    HEATING RATE
          mb          W/m2          W/m2          W/m2        W/m2          W/m2       degree/day
  51    .06700        0.1046        0.0000       14.1438       14.1438      14.039275       0.00000
  50    .07753        0.1046        0.0000       14.1436       14.1436      14.039039       0.18913
  49    .09103        0.1046        0.0000       14.1433       14.1433      14.038744       0.18467
  48    0.1069        0.1046        0.0000       14.1430       14.1430      14.038405       0.17999
  47    0.1255        0.1046        0.0000       14.1426       14.1426      14.038019       0.17526
  46    0.1487        0.1046        0.0000       14.1421       14.1421      14.037534       0.17677
  45    0.1794        0.1046        0.0000       14.1414       14.1414      14.036876       0.18048
  44    0.2165        0.1046        0.0000       14.1407       14.1407      14.036106       0.17534
  43    0.2613        0.1046        0.0000       14.1398       14.1398      14.035203       0.17012
  42    0.3336        0.1046        0.0000       14.1383       14.1383      14.033734       0.17130
  41    0.4307        0.1046        0.0000       14.1364       14.1364      14.031829       0.16558
  40    0.5894        0.1046        0.0000       14.1334       14.1334      14.028823       0.15988
  39     1.339        0.1046        0.0000       14.1207       14.1207      14.016147       0.14271
  38     1.782        0.1046        0.0000       14.1143       14.1143      14.009760       0.12160
  37     2.292        0.1046        0.0000       14.1077       14.1078      14.003195       0.10873
  36     2.964        0.1046        0.0000       14.1003       14.1003      13.995739       0.09360
  35     3.853        0.1046        0.0000       14.0921       14.0921      13.987529       0.07791
  34     5.035        0.1045        0.0000       14.0833       14.0833      13.978781       0.06249
  33     6.613        0.1045        0.0000       14.0742       14.0742      13.969711       0.04849
  32     8.786        0.1045        0.0000       14.0647       14.0648      13.960246       0.03676
  31     11.80        0.1045        0.0001       14.0537       14.0537      13.949217       0.03088
  30     15.07        0.1045        0.0001       14.0427       14.0428      13.938293       0.02820
  29     18.79        0.1045        0.0001       14.0300       14.0301      13.925669       0.02862
  28     23.16        0.1045        0.0001       14.0142       14.0143      13.909860       0.03057
  27     28.12        0.1044        0.0002       13.9944       13.9946      13.890157       0.03349
  26     33.73        0.1044        0.0002       13.9704       13.9706      13.866175       0.03606
  25     40.54        0.1044        0.0002       13.9389       13.9392      13.834799       0.03893
  24     48.69        0.1043        0.0003       13.8983       13.8986      13.794246       0.04197
  23     57.69        0.1043        0.0003       13.8512       13.8515      13.747228       0.04407
  22     68.43        0.1042        0.0004       13.7927       13.7930      13.688805       0.04593
  21     81.20        0.1042        0.0004       13.7217       13.7221      13.617940       0.04683
  20     96.49        0.1041        0.0005       13.6374       13.6379      13.533765       0.04646
  19     114.6        0.1041        0.0006       13.5403       13.5409      13.436820       0.04527
  18     136.5        0.1040        0.0007       13.4316       13.4324      13.328379       0.04170
  17     162.9        0.1039        0.0008       13.3126       13.3134      13.209558       0.03798
  16     196.4        0.1038        0.0010       13.1738       13.1748      13.071003       0.03488
  15     218.7        0.1037        0.0011       13.0892       13.0903      12.986627       0.03203
  14     243.0        0.1037        0.0012       12.9998       13.0011      12.897390       0.03095
  13     269.0        0.1036        0.0013       12.9020       12.9033      12.799683       0.03170
  12     297.5        0.1036        0.0015       12.7898       12.7912      12.687638       0.03323
  11     328.5        0.1036        0.0016       12.6622       12.6638      12.560205       0.03465
  10     361.9        0.1036        0.0018       12.5154       12.5171      12.413487       0.03712
   9     398.1        0.1037        0.0019       12.3438       12.3457      12.241995       0.03995
   8     437.6        0.1038        0.0020       12.1411       12.1431      12.039302       0.04334
   7     480.5        0.1041        0.0022       11.9029       11.9051      11.801053       0.04679
   6     533.0        0.1044        0.0024       11.5820       11.5843      11.479903       0.05166
   5     589.8        0.1050        0.0025       11.2017       11.2042      11.099177       0.05651
   4     651.6        0.1060        0.0027       10.7434       10.7461      10.640107       0.06278
   3     718.7        0.1075        0.0028       10.2178       10.2206      10.113122       0.06623
   2     792.3        0.1099        0.0029        9.6385        9.6413       9.531403       0.06672
   1     891.5        0.1153        0.0030        8.8693        8.8722       8.756972       0.06590
   0    1013.0        0.1268        0.0030        8.0192        8.0222       7.895479       0.05982



 Wavenumbers:  5150. -  6150. cm-1, ATM      1
 LEVEL PRESSURE   UPWARD FLUX   DIFDOWN FLUX  DIRDOWN FLUX  DOWNWARD FLUX   NET FLUX    HEATING RATE
          mb          W/m2          W/m2          W/m2        W/m2          W/m2       degree/day
  51    .06700        1.2889        0.0000       35.4587       35.4587      34.169769       0.00000
  50    .07753        1.2889        0.0000       35.4586       35.4586      34.169730       0.03156
  49    .09103        1.2889        0.0000       35.4586       35.4586      34.169678       0.03205
  48    0.1069        1.2889        0.0000       35.4585       35.4585      34.169617       0.03256
  47    0.1255        1.2889        0.0000       35.4585       35.4585      34.169544       0.03306
  46    0.1487        1.2889        0.0000       35.4584       35.4584      34.169449       0.03484
  45    0.1794        1.2889        0.0000       35.4582       35.4582      34.169314       0.03709
  44    0.2165        1.2889        0.0000       35.4580       35.4581      34.169148       0.03765
  43    0.2613        1.2889        0.0000       35.4578       35.4578      34.168945       0.03824
  42    0.3336        1.2889        0.0000       35.4575       35.4575      34.168599       0.04041
  41    0.4307        1.2889        0.0000       35.4570       35.4570      34.168127       0.04098
  40    0.5894        1.2889        0.0000       35.4562       35.4562      34.167337       0.04201
  39     1.339        1.2889        0.0000       35.4524       35.4524      34.163523       0.04294
  38     1.782        1.2889        0.0000       35.4501       35.4502      34.161296       0.04239
  37     2.292        1.2889        0.0001       35.4476       35.4476      34.158771       0.04183
  36     2.964        1.2888        0.0001       35.4443       35.4444      34.155553       0.04039
  35     3.853        1.2888        0.0001       35.4402       35.4403      34.151450       0.03894
  34     5.035        1.2888        0.0001       35.4348       35.4349      34.146141       0.03792
  33     6.613        1.2888        0.0002       35.4278       35.4280      34.139214       0.03704
  32     8.786        1.2887        0.0002       35.4187       35.4189      34.130165       0.03514
  31     11.80        1.2887        0.0003       35.4061       35.4064      34.117796       0.03463
  30     15.07        1.2886        0.0004       35.3934       35.3938      34.105238       0.03242
  29     18.79        1.2885        0.0005       35.3800       35.3805      34.091943       0.03014
  28     23.16        1.2884        0.0006       35.3652       35.3658      34.077419       0.02809
  27     28.12        1.2883        0.0007       35.3495       35.3502      34.061912       0.02636
  26     33.73        1.2882        0.0009       35.3333       35.3342      34.045946       0.02400
  25     40.54        1.2881        0.0010       35.3153       35.3164      34.028278       0.02192
  24     48.69        1.2879        0.0012       35.2958       35.2971      34.009128       0.01982
  23     57.69        1.2878        0.0015       35.2762       35.2777      33.989894       0.01803
  22     68.43        1.2876        0.0017       35.2546       35.2564      33.968819       0.01657
  21     81.20        1.2873        0.0021       35.2307       35.2328      33.945405       0.01547
  20     96.49        1.2871        0.0025       35.2035       35.2060      33.918871       0.01464
  19     114.6        1.2868        0.0029       35.1721       35.1750      33.888277       0.01429
  18     136.5        1.2864        0.0035       35.1354       35.1389      33.852470       0.01377
  17     162.9        1.2860        0.0041       35.0809       35.0850      33.799061       0.01707
  16     196.4        1.2854        0.0049       34.9665       34.9715      33.686078       0.02844
  15     218.7        1.2851        0.0055       34.7992       34.8047      33.519629       0.06319
  14     243.0        1.2847        0.0060       34.4627       34.4687      33.184040       0.11639
  13     269.0        1.2844        0.0065       33.8372       33.8438      32.559423       0.20262
  12     297.5        1.2840        0.0070       32.9552       32.9622      31.678194       0.26136
  11     328.5        1.2838        0.0076       32.0518       32.0593      30.775583       0.24542
  10     361.9        1.2835        0.0081       31.0759       31.0840      29.800454       0.24672
   9     398.1        1.2834        0.0085       29.9337       29.9423      28.658870       0.26596
   8     437.6        1.2834        0.0089       28.6341       28.6431      27.359697       0.27777
   7     480.5        1.2835        0.0093       27.2674       27.2767      25.993212       0.26837
   6     533.0        1.2840        0.0098       25.6713       25.6810      24.397021       0.25678
   5     589.8        1.2851        0.0102       24.0837       24.0938      22.808679       0.23576
   4     651.6        1.2876        0.0106       22.5236       22.5342      21.246514       0.21363
   3     718.7        1.2925        0.0110       21.1890       21.2000      19.907507       0.16828
   2     792.3        1.3020        0.0115       20.0779       20.0894      18.787436       0.12846
   1     891.5        1.3279        0.0122       18.8305       18.8427      17.514765       0.10830
   0    1013.0        1.4076        0.0128       17.4084       17.4212      16.013569       0.10424



 Wavenumbers:  6150. -  7700. cm-1, ATM      1
 LEVEL PRESSURE   UPWARD FLUX   DIFDOWN FLUX  DIRDOWN FLUX  DOWNWARD FLUX   NET FLUX    HEATING RATE
          mb          W/m2          W/m2          W/m2        W/m2          W/m2       degree/day
  51    .06700        2.8891        0.0000       65.5822       65.5822      62.693130       0.00000
  50    .07753        2.8891        0.0000       65.5821       65.5821      62.693073       0.04553
  49    .09103        2.8891        0.0000       65.5820       65.5821      62.693000       0.04583
  48    0.1069        2.8891        0.0000       65.5820       65.5820      62.692913       0.04614
  47    0.1255        2.8890        0.0000       65.5819       65.5819      62.692811       0.04645
  46    0.1487        2.8890        0.0000       65.5817       65.5817      62.692677       0.04853
  45    0.1794        2.8890        0.0000       65.5815       65.5815      62.692491       0.05128
  44    0.2165        2.8890        0.0000       65.5813       65.5813      62.692263       0.05169
  43    0.2613        2.8890        0.0000       65.5810       65.5810      62.691987       0.05213
  42    0.3336        2.8890        0.0000       65.5805       65.5805      62.691517       0.05475
  41    0.4307        2.8890        0.0000       65.5799       65.5799      62.690882       0.05526
  40    0.5894        2.8890        0.0001       65.5788       65.5788      62.689821       0.05641
  39     1.339        2.8889        0.0001       65.5735       65.5736      62.684715       0.05749
  38     1.782        2.8889        0.0002       65.5704       65.5706      62.681731       0.05681
  37     2.292        2.8888        0.0002       65.5669       65.5672      62.678334       0.05626
  36     2.964        2.8888        0.0003       65.5624       65.5627      62.673981       0.05464
  35     3.853        2.8887        0.0004       65.5566       65.5571      62.668389       0.05307
  34     5.035        2.8886        0.0005       65.5491       65.5497      62.661112       0.05198
  33     6.613        2.8884        0.0007       65.5392       65.5400      62.651560       0.05107
  32     8.786        2.8882        0.0010       65.5262       65.5272      62.638980       0.04886
  31     11.80        2.8879        0.0013       65.5082       65.5095      62.621568       0.04875
  30     15.07        2.8876        0.0016       65.4895       65.4912      62.603614       0.04635
  29     18.79        2.8872        0.0020       65.4694       65.4714      62.584257       0.04389
  28     23.16        2.8868        0.0025       65.4469       65.4495      62.562702       0.04168
  27     28.12        2.8863        0.0031       65.4224       65.4255      62.539220       0.03992
  26     33.73        2.8857        0.0037       65.3965       65.4002      62.514497       0.03717
  25     40.54        2.8850        0.0044       65.3672       65.3716      62.486547       0.03467
  24     48.69        2.8842        0.0053       65.3344       65.3397      62.455459       0.03217
  23     57.69        2.8833        0.0063       65.3006       65.3069      62.423548       0.02991
  22     68.43        2.8823        0.0074       65.2627       65.2701      62.387838       0.02807
  21     81.20        2.8810        0.0088       65.2197       65.2285      62.347459       0.02668
  20     96.49        2.8795        0.0105       65.1701       65.1805      62.301058       0.02561
  19     114.6        2.8777        0.0124       65.1122       65.1246      62.246885       0.02529
  18     136.5        2.8756        0.0147       65.0439       65.0586      62.183074       0.02454
  17     162.9        2.8730        0.0175       64.9460       64.9635      62.090478       0.02960
  16     196.4        2.8697        0.0211       64.7489       64.7699      61.900211       0.04789
  15     218.7        2.8676        0.0234       64.4783       64.5017      61.634084       0.10104
  14     243.0        2.8653        0.0257       63.9915       64.0173      61.151903       0.16724
  13     269.0        2.8630        0.0281       63.1489       63.1770      60.313944       0.27183
  12     297.5        2.8607        0.0304       61.7989       61.8292      58.968515       0.39904
  11     328.5        2.8584        0.0326       60.2015       60.2341      57.375669       0.43309
  10     361.9        2.8563        0.0349       58.4848       58.5197      55.663465       0.43320
   9     398.1        2.8544        0.0371       56.5838       56.6210      53.766608       0.44193
   8     437.6        2.8529        0.0391       54.3594       54.3985      51.545654       0.47485
   7     480.5        2.8521        0.0409       51.8799       51.9208      49.068671       0.48647
   6     533.0        2.8526        0.0427       48.8602       48.9029      46.050327       0.48556
   5     589.8        2.8558        0.0442       45.6586       45.7029      42.847040       0.47547
   4     651.6        2.8648        0.0452       42.1598       42.2051      39.340306       0.47956
   3     718.7        2.8836        0.0459       38.6881       38.7341      35.850457       0.43858
   2     792.3        2.9216        0.0463       35.2874       35.3338      32.412158       0.39433
   1     891.5        3.0242        0.0466       31.3361       31.3827      28.358475       0.34495
   0    1013.0        3.3237        0.0469       27.5819       27.6288      24.305084       0.28145



 Wavenumbers:  7700. -  8050. cm-1, ATM      1
 LEVEL PRESSURE   UPWARD FLUX   DIFDOWN FLUX  DIRDOWN FLUX  DOWNWARD FLUX   NET FLUX    HEATING RATE
          mb          W/m2          W/m2          W/m2        W/m2          W/m2       degree/day
  51    .06700        5.5050        0.0000       15.4990       15.4990       9.993998       0.00000
  50    .07753        5.5050        0.0000       15.4990       15.4990       9.993977       0.01722
  49    .09103        5.5050        0.0000       15.4990       15.4990       9.993950       0.01688
  48    0.1069        5.5050        0.0000       15.4990       15.4990       9.993919       0.01652
  47    0.1255        5.5050        0.0000       15.4989       15.4989       9.993883       0.01617
  46    0.1487        5.5050        0.0000       15.4989       15.4989       9.993838       0.01641
  45    0.1794        5.5051        0.0000       15.4988       15.4988       9.993777       0.01688
  44    0.2165        5.5051        0.0000       15.4988       15.4988       9.993704       0.01656
  43    0.2613        5.5051        0.0000       15.4987       15.4987       9.993618       0.01625
  42    0.3336        5.5051        0.0000       15.4986       15.4986       9.993475       0.01663
  41    0.4307        5.5051        0.0000       15.4984       15.4984       9.993286       0.01645
  40    0.5894        5.5052        0.0000       15.4981       15.4982       9.992977       0.01643
  39     1.339        5.5054        0.0001       15.4969       15.4969       9.991515       0.01646
  38     1.782        5.5056        0.0001       15.4961       15.4962       9.990656       0.01635
  37     2.292        5.5057        0.0001       15.4953       15.4954       9.989662       0.01646
  36     2.964        5.5059        0.0002       15.4941       15.4943       9.988357       0.01639
  35     3.853        5.5062        0.0002       15.4926       15.4928       9.986632       0.01637
  34     5.035        5.5066        0.0003       15.4907       15.4909       9.984341       0.01637
  33     6.613        5.5071        0.0004       15.4880       15.4884       9.981279       0.01637
  32     8.786        5.5078        0.0005       15.4844       15.4849       9.977154       0.01602
  31     11.80        5.5087        0.0006       15.4793       15.4800       9.971253       0.01652
  30     15.07        5.5097        0.0008       15.4739       15.4747       9.964919       0.01635
  29     18.79        5.5109        0.0010       15.4677       15.4687       9.957766       0.01622
  28     23.16        5.5123        0.0013       15.4605       15.4617       9.949416       0.01615
  27     28.12        5.5139        0.0015       15.4522       15.4537       9.939874       0.01622
  26     33.73        5.5156        0.0018       15.4430       15.4448       9.929205       0.01604
  25     40.54        5.5178        0.0022       15.4319       15.4341       9.916332       0.01597
  24     48.69        5.5204        0.0026       15.4186       15.4212       9.900836       0.01604
  23     57.69        5.5233        0.0031       15.4040       15.4071       9.883847       0.01592
  22     68.43        5.5267        0.0037       15.3867       15.3904       9.863660       0.01587
  21     81.20        5.5309        0.0044       15.3662       15.3705       9.839679       0.01585
  20     96.49        5.5358        0.0052       15.3419       15.3471       9.811203       0.01572
  19     114.6        5.5418        0.0061       15.3132       15.3194       9.777533       0.01572
  18     136.5        5.5490        0.0073       15.2795       15.2868       9.737819       0.01527
  17     162.9        5.5577        0.0086       15.2398       15.2485       9.690792       0.01503
  16     196.4        5.5691        0.0104       15.1889       15.1993       9.630211       0.01525
  15     218.7        5.5767        0.0116       15.1558       15.1674       9.590633       0.01503
  14     243.0        5.5852        0.0128       15.1201       15.1329       9.547745       0.01488
  13     269.0        5.5945        0.0142       15.0817       15.0958       9.501346       0.01505
  12     297.5        5.6048        0.0157       15.0403       15.0560       9.451173       0.01488
  11     328.5        5.6162        0.0173       14.9958       15.0131       9.396871       0.01476
  10     361.9        5.6289        0.0190       14.9481       14.9670       9.338172       0.01485
   9     398.1        5.6430        0.0208       14.8967       14.9175       9.274526       0.01483
   8     437.6        5.6588        0.0228       14.8413       14.8641       9.205262       0.01481
   7     480.5        5.6766        0.0249       14.7814       14.8063       9.129733       0.01483
   6     533.0        5.6998        0.0275       14.7067       14.7342       9.034392       0.01534
   5     589.8        5.7269        0.0303       14.6238       14.6541       8.927255       0.01590
   4     651.6        5.7594        0.0333       14.5296       14.5629       8.803437       0.01693
   3     718.7        5.7994        0.0365       14.4206       14.4571       8.657732       0.01831
   2     792.3        5.8502        0.0399       14.2911       14.3309       8.480734       0.02030
   1     891.5        5.9362        0.0443       14.0903       14.1346       8.198375       0.02403
   0    1013.0        6.0740        0.0495       13.8086       13.8580       7.784065       0.02877



 Wavenumbers:  8050. - 12850. cm-1, ATM      1
 LEVEL PRESSURE   UPWARD FLUX   DIFDOWN FLUX  DIRDOWN FLUX  DOWNWARD FLUX   NET FLUX    HEATING RATE
          mb          W/m2          W/m2          W/m2        W/m2          W/m2       degree/day
  51    .06700      117.2711        0.0000      216.9977      216.9977      99.726667       0.00000
  50    .07753      117.2711        0.0000      216.9977      216.9977      99.726667      -0.00000
  49    .09103      117.2711        0.0001      216.9976      216.9977      99.726667       0.00000
  48    0.1069      117.2710        0.0001      216.9976      216.9977      99.726667      -0.00000
  47    0.1255      117.2710        0.0002      216.9975      216.9977      99.726667       0.00000
  46    0.1487      117.2710        0.0003      216.9974      216.9977      99.726667      -0.00000
  45    0.1794      117.2710        0.0003      216.9973      216.9976      99.726667      -0.00000
  44    0.2165      117.2709        0.0005      216.9972      216.9976      99.726667      -0.00000
  43    0.2613      117.2709        0.0006      216.9970      216.9976      99.726667       0.00000
  42    0.3336      117.2708        0.0008      216.9967      216.9975      99.726667      -0.00000
  41    0.4307      117.2708        0.0011      216.9963      216.9974      99.726667      -0.00000
  40    0.5894      117.2706        0.0016      216.9957      216.9973      99.726667      -0.00000
  39     1.339      117.2699        0.0039      216.9927      216.9966      99.726667       0.00000
  38     1.782      117.2696        0.0052      216.9910      216.9962      99.726667       0.00000
  37     2.292      117.2691        0.0068      216.9890      216.9958      99.726667      -0.00000
  36     2.964      117.2685        0.0088      216.9863      216.9952      99.726667       0.00000
  35     3.853      117.2677        0.0115      216.9828      216.9944      99.726667       0.00000
  34     5.035      117.2667        0.0151      216.9782      216.9933      99.726667      -0.00000
  33     6.613      117.2653        0.0199      216.9720      216.9919      99.726667       0.00000
  32     8.786      117.2634        0.0264      216.9636      216.9900      99.726667      -0.00000
  31     11.80      117.2607        0.0357      216.9517      216.9873      99.726667       0.00000
  30     15.07      117.2578        0.0457      216.9388      216.9844      99.726667      -0.00000
  29     18.79      117.2545        0.0569      216.9242      216.9812      99.726667       0.00000
  28     23.16      117.2506        0.0701      216.9072      216.9773      99.726667      -0.00000
  27     28.12      117.2462        0.0852      216.8877      216.9729      99.726667      -0.00000
  26     33.73      117.2413        0.1021      216.8658      216.9680      99.726667      -0.00000
  25     40.54      117.2353        0.1226      216.8394      216.9620      99.726667       0.00000
  24     48.69      117.2281        0.1473      216.8075      216.9548      99.726667       0.00000
  23     57.69      117.2202        0.1745      216.7724      216.9469      99.726667      -0.00000
  22     68.43      117.2107        0.2069      216.7305      216.9374      99.726667      -0.00000
  21     81.20      117.1995        0.2456      216.6805      216.9261      99.726667       0.00000
  20     96.49      117.1860        0.2918      216.6208      216.9126      99.726667      -0.00000
  19     114.6      117.1702        0.3468      216.5438      216.8906      99.720397       0.00293
  18     136.5      117.1514        0.4121      216.4519      216.8640      99.712612       0.00299
  17     162.9      117.1290        0.4900      216.3386      216.8286      99.699685       0.00413
  16     196.4      117.1000        0.5914      216.1750      216.7664      99.666483       0.00836
  15     218.7      117.0811        0.6581      216.0272      216.6853      99.604148       0.02367
  14     243.0      117.0613        0.7306      215.7854      216.5160      99.454743       0.05182
  13     269.0      117.0413        0.8091      215.3800      216.1890      99.147683       0.09961
  12     297.5      117.0230        0.8936      214.7627      215.6563      98.633308       0.15256
  11     328.5      117.0071        0.9848      214.0005      214.9853      97.978246       0.17811
  10     361.9      116.9959        1.0828      213.0932      214.1760      97.180078       0.20194
   9     398.1      116.9930        1.1878      211.9752      213.1630      96.170006       0.23532
   8     437.6      117.0045        1.2996      210.5402      211.8398      94.835243       0.28538
   7     480.5      117.0378        1.4181      208.7372      210.1554      93.117606       0.33734
   6     533.0      117.1180        1.5619      206.1545      207.7164      90.598353       0.40527
   5     589.8      117.2769        1.7131      202.8352      204.5483      87.271447       0.49382
   4     651.6      117.5992        1.8690      198.3466      200.2156      82.616390       0.63659
   3     718.7      118.1966        2.0283      192.7610      194.7893      76.592714       0.75701
   2     792.3      119.3172        2.1875      185.9976      188.1851      68.867880       0.88595
   1     891.5      122.1486        2.3826      176.0501      178.4327      56.284072       1.07082
   0    1013.0      129.3527        2.5936      164.1411      166.7346      37.381904       1.31247



 Wavenumbers: 12850. - 16000. cm-1, ATM      1
 LEVEL PRESSURE   UPWARD FLUX   DIFDOWN FLUX  DIRDOWN FLUX  DOWNWARD FLUX   NET FLUX    HEATING RATE
          mb          W/m2          W/m2          W/m2        W/m2          W/m2       degree/day
  51    .06700      109.0380        0.0000      135.9683      135.9683      26.930243       0.00000
  50    .07753      109.0380        0.0001      135.9674      135.9675      26.929443       0.64098
  49    .09103      109.0381        0.0002      135.9663      135.9665      26.928435       0.63042
  48    0.1069      109.0381        0.0003      135.9651      135.9654      26.927270       0.61994
  47    0.1255      109.0381        0.0004      135.9636      135.9641      26.925924       0.61002
  46    0.1487      109.0382        0.0006      135.9618      135.9624      26.924215       0.62301
  45    0.1794      109.0383        0.0008      135.9594      135.9602      26.921872       0.64321
  44    0.2165      109.0385        0.0011      135.9565      135.9576      26.919091       0.63268
  43    0.2613      109.0387        0.0014      135.9531      135.9545      26.915787       0.62281
  42    0.3336      109.0392        0.0019      135.9475      135.9495      26.910324       0.63690
  41    0.4307      109.0398        0.0026      135.9403      135.9430      26.903154       0.62344
  40    0.5894      109.0412        0.0038      135.9290      135.9328      26.891570       0.61600
  39     1.339      109.0516        0.0092      135.8787      135.8880      26.836420       0.62089
  38     1.782      109.0606        0.0124      135.8506      135.8630      26.802395       0.64779
  37     2.292      109.0739        0.0161      135.8178      135.8339      26.760067       0.70106
  36     2.964      109.0955        0.0210      135.7733      135.7943      26.698788       0.76924
  35     3.853      109.1301        0.0274      135.7115      135.7389      26.608785       0.85414
  34     5.035      109.1819        0.0359      135.6264      135.6623      26.480372       0.91733
  33     6.613      109.2541        0.0473      135.5126      135.5599      26.305726       0.93366
  32     8.786      109.3483        0.0626      135.3656      135.4281      26.079857       0.87719
  31     11.80      109.4713        0.0845      135.1710      135.2555      25.784157       0.82787
  30     15.07      109.5898        0.1080      134.9793      135.0873      25.497485       0.74013
  29     18.79      109.7115        0.1345      134.7782      134.9127      25.201248       0.67166
  28     23.16      109.8395        0.1655      134.5609      134.7264      24.886913       0.60782
  27     28.12      109.9694        0.2010      134.3327      134.5337      24.564273       0.54847
  26     33.73      110.0912        0.2407      134.1059      134.3466      24.255369       0.46445
  25     40.54      110.2112        0.2887      133.8650      134.1537      23.942477       0.38818
  24     48.69      110.3293        0.3466      133.6076      133.9541      23.624875       0.32867
  23     57.69      110.4333        0.4103      133.3571      133.7674      23.334109       0.27255
  22     68.43      110.5293        0.4862      133.0945      133.5807      23.051396       0.22225
  21     81.20      110.6055        0.5768      132.8296      133.4065      22.800987       0.16547
  20     96.49      110.6609        0.6851      132.5602      133.2452      22.584284       0.11960
  19     114.6      110.7275        0.8152      132.2654      133.0806      22.353122       0.10794
  18     136.5      110.7904        0.9696      131.9368      132.9064      22.115909       0.09121
  17     162.9      110.8508        1.1536      131.5618      132.7154      21.864626       0.08032
  16     196.4      110.8981        1.3925      131.1018      132.4944      21.596282       0.06755
  15     218.7      110.9180        1.5496      130.8061      132.3558      21.437776       0.06018
  14     243.0      110.9349        1.7205      130.4846      132.2052      21.270260       0.05810
  13     269.0      110.9488        1.9059      130.1348      132.0407      21.091916       0.05785
  12     297.5      110.9606        2.1065      129.7523      131.8588      20.898188       0.05746
  11     328.5      110.9733        2.3234      129.3329      131.6563      20.683027       0.05850
  10     361.9      110.9881        2.5572      128.8735      131.4307      20.442623       0.06082
   9     398.1      111.0073        2.8092      128.3694      131.1786      20.171283       0.06322
   8     437.6      111.0349        3.0800      127.8126      130.8927      19.857725       0.06704
   7     480.5      111.0750        3.3706      127.1968      130.5674      19.492362       0.07176
   6     533.0      111.1451        3.7286      126.4050      130.1335      18.988385       0.08107
   5     589.8      111.2597        4.1143      125.4924      129.6067      18.347019       0.09520
   4     651.6      111.4632        4.5280      124.3942      128.9222      17.459019       0.12144
   3     718.7      111.7859        4.9678      123.0910      128.0588      16.272888       0.14906
   2     792.3      112.3236        5.4301      121.5024      126.9325      14.608855       0.19085
   1     891.5      113.5124        6.0353      119.0342      125.0695      11.557156       0.25968
   0    1013.0      115.9137        6.7354      115.7432      122.4786       6.564853       0.34664



 Wavenumbers: 16000. - 22650. cm-1, ATM      1
 LEVEL PRESSURE   UPWARD FLUX   DIFDOWN FLUX  DIRDOWN FLUX  DOWNWARD FLUX   NET FLUX    HEATING RATE
          mb          W/m2          W/m2          W/m2        W/m2          W/m2       degree/day
  51    .06700      195.3749        0.0000      216.7863      216.7863      21.411425       0.00000
  50    .07753      195.3750        0.0005      216.7858      216.7862      21.411252       0.13859
  49    .09103      195.3751        0.0010      216.7850      216.7861      21.411000       0.15719
  48    0.1069      195.3752        0.0017      216.7842      216.7859      21.410664       0.17925
  47    0.1255      195.3754        0.0024      216.7832      216.7856      21.410213       0.20433
  46    0.1487      195.3757        0.0034      216.7818      216.7852      21.409549       0.24212
  45    0.1794      195.3761        0.0047      216.7799      216.7846      21.408510       0.28508
  44    0.2165      195.3767        0.0062      216.7776      216.7838      21.407102       0.32040
  43    0.2613      195.3776        0.0081      216.7747      216.7828      21.405191       0.36021
  42    0.3336      195.3793        0.0111      216.7697      216.7808      21.401558       0.42360
  41    0.4307      195.3818        0.0151      216.7628      216.7779      21.396081       0.47618
  40    0.5894      195.3868        0.0216      216.7508      216.7724      21.385636       0.55546
  39     1.339      195.4247        0.0526      216.6805      216.7331      21.308460       0.86886
  38     1.782      195.4575        0.0708      216.6294      216.7002      21.242706       1.25184
  37     2.292      195.5055        0.0919      216.5611      216.6530      21.147515       1.57662
  36     2.964      195.5837        0.1195      216.4575      216.5770      20.993272       1.93622
  35     3.853      195.7085        0.1560      216.3009      216.4569      20.748448       2.32342
  34     5.035      195.8953        0.2044      216.0739      216.2784      20.383019       2.61048
  33     6.613      196.1559        0.2691      215.7616      216.0307      19.874839       2.71673
  32     8.786      196.4958        0.3562      215.3526      215.7087      19.212992       2.57037
  31     11.80      196.9404        0.4807      214.8082      215.2888      18.348442       2.42047
  30     15.07      197.3693        0.6143      214.2707      214.8850      17.515680       2.15003
  29     18.79      197.8101        0.7651      213.7060      214.4711      16.661050       1.93771
  28     23.16      198.2745        0.9412      213.0952      214.0363      15.761808       1.73884
  27     28.12      198.7466        1.1424      212.4527      213.5951      14.848497       1.55257
  26     33.73      199.1903        1.3676      211.8121      213.1797      13.989373       1.29172
  25     40.54      199.6284        1.6399      211.1275      212.7674      13.139007       1.05497
  24     48.69      200.0612        1.9681      210.3890      212.3571      12.295854       0.87253
  23     57.69      200.4444        2.3287      209.6608      211.9895      11.545073       0.70374
  22     68.43      200.8013        2.7582      208.8823      211.6405      10.839239       0.55488
  21     81.20      201.0901        3.2705      208.0741      211.3446      10.254484       0.38640
  20     96.49      201.3074        3.8812      207.2212      211.1024       9.794932       0.25364
  19     114.6      201.4997        4.6055      206.2680      210.8735       9.373778       0.19665
  18     136.5      201.6830        5.4625      205.1793      210.6418       8.958806       0.15957
  17     162.9      201.8602        6.4807      203.9219      210.4026       8.542371       0.13311
  16     196.4      202.0019        7.7982      202.3707      210.1689       8.167038       0.09448
  15     218.7      202.0623        8.6614      201.3826      210.0440       7.981788       0.07033
  14     243.0      202.1124        9.5978      200.3241      209.9219       7.809485       0.05976
  13     269.0      202.1506       10.6102      199.1934      209.8037       7.653095       0.05073
  12     297.5      202.1763       11.7018      197.9876      209.6894       7.513131       0.04151
  11     328.5      202.1961       12.8782      196.6946      209.5728       7.376733       0.03709
  10     361.9      202.2099       14.1412      195.3128      209.4540       7.244079       0.03356
   9     398.1      202.2179       15.4966      193.8355      209.3321       7.114105       0.03028
   8     437.6      202.2219       16.9475      192.2575      209.2049       6.982997       0.02803
   7     480.5      202.2218       18.4976      190.5746      209.0722       6.850396       0.02604
   6     533.0      202.2187       20.3988      188.5121      208.9109       6.692113       0.02546
   5     589.8      202.2175       22.4399      186.2941      208.7340       6.516547       0.02606
   4     651.6      202.2276       24.6252      183.9061      208.5314       6.303776       0.02910
   3     718.7      202.2586       26.9594      181.3345      208.2939       6.035326       0.03374
   2     792.3      202.3348       29.4427      178.5581      208.0009       5.666068       0.04235
   1     891.5      202.5458       32.7654      174.7532      207.5186       4.972808       0.05899
   0    1013.0      202.9788       36.7095      170.1162      206.8257       3.846958       0.07817



 Wavenumbers: 22650. - 29000. cm-1, ATM      1
 LEVEL PRESSURE   UPWARD FLUX   DIFDOWN FLUX  DIRDOWN FLUX  DOWNWARD FLUX   NET FLUX    HEATING RATE
          mb          W/m2          W/m2          W/m2        W/m2          W/m2       degree/day
  51    .06700       80.7691        0.0000       81.8073       81.8073       1.038135       0.00000
  50    .07753       80.7691        0.0005       81.8067       81.8073       1.038135       0.00000
  49    .09103       80.7691        0.0012       81.8060       81.8072       1.038135      -0.00000
  48    0.1069       80.7691        0.0020       81.8052       81.8072       1.038135       0.00000
  47    0.1255       80.7690        0.0029       81.8043       81.8072       1.038135       0.00000
  46    0.1487       80.7690        0.0040       81.8032       81.8071       1.038135       0.00000
  45    0.1794       80.7689        0.0055       81.8016       81.8071       1.038135      -0.00000
  44    0.2165       80.7689        0.0073       81.7997       81.8070       1.038135       0.00000
  43    0.2613       80.7688        0.0094       81.7975       81.8069       1.038135       0.00000
  42    0.3336       80.7687        0.0130       81.7938       81.8068       1.038135      -0.00000
  41    0.4307       80.7685        0.0177       81.7890       81.8067       1.038135      -0.00000
  40    0.5894       80.7682        0.0254       81.7810       81.8064       1.038135       0.00000
  39     1.339       80.7670        0.0617       81.7434       81.8051       1.038135       0.00000
  38     1.782       80.7662        0.0830       81.7214       81.8044       1.038135       0.00000
  37     2.292       80.7654        0.1077       81.6958       81.8035       1.038135      -0.00000
  36     2.964       80.7642        0.1401       81.6623       81.8023       1.038135       0.00000
  35     3.853       80.7627        0.1829       81.6179       81.8008       1.038135      -0.00000
  34     5.035       80.7607        0.2397       81.5591       81.7988       1.038135       0.00000
  33     6.613       80.7580        0.3157       81.4805       81.7962       1.038135       0.00000
  32     8.786       80.7544        0.4180       81.3746       81.7926       1.038135      -0.00000
  31     11.80       80.7493        0.5642       81.2232       81.7874       1.038135       0.00000
  30     15.07       80.7437        0.7210       81.0609       81.7819       1.038135       0.00000
  29     18.79       80.7375        0.8980       80.8777       81.7756       1.038135      -0.00000
  28     23.16       80.7302        1.1044       80.6640       81.7684       1.038135       0.00000
  27     28.12       80.7219        1.3400       80.4201       81.7600       1.038135       0.00000
  26     33.73       80.7126        1.6031       80.1476       81.7507       1.038135      -0.00000
  25     40.54       80.7014        1.9202       79.8194       81.7395       1.038135       0.00000
  24     48.69       80.6879        2.3012       79.4249       81.7261       1.038135      -0.00000
  23     57.69       80.6732        2.7180       78.9933       81.7113       1.038135       0.00000
  22     68.43       80.6556        3.2121       78.4817       81.6938       1.038135       0.00000
  21     81.20       80.6349        3.7974       77.8756       81.6730       1.038135       0.00000
  20     96.49       80.6102        4.4899       77.1585       81.6484       1.038135      -0.00000
  19     114.6       80.5812        5.3050       76.3143       81.6193       1.038135       0.00000
  18     136.5       80.5470        6.2610       75.3241       81.5851       1.038135       0.00000
  17     162.9       80.5067        7.3853       74.1595       81.5448       1.038135      -0.00000
  16     196.4       80.4550        8.8203       72.6729       81.4932       1.038135       0.00000
  15     218.7       80.4215        9.7488       71.7109       81.4596       1.038135      -0.00000
  14     243.0       80.3854       10.7458       70.6777       81.4235       1.038135      -0.00000
  13     269.0       80.3466       11.8120       69.5728       81.3847       1.038135       0.00000
  12     297.5       80.3051       12.9477       68.3956       81.3433       1.038135       0.00000
  11     328.5       80.2609       14.1564       67.1426       81.2990       1.038135      -0.00000
  10     361.9       80.2137       15.4364       65.8155       81.2519       1.038135       0.00000
   9     398.1       80.1637       16.7897       64.4121       81.2018       1.038135       0.00000
   8     437.6       80.1106       18.2157       62.9330       81.1487       1.038135       0.00000
   7     480.5       80.0546       19.7134       61.3792       81.0927       1.038135      -0.00000
   6     533.0       79.9867       21.5145       59.5103       81.0248       1.038135       0.00000
   5     589.8       79.9148       23.4051       57.5478       80.9529       1.038135       0.00000
   4     651.6       79.8390       25.3813       55.4958       80.8771       1.038135       0.00000
   3     718.7       79.7592       27.4394       53.3579       80.7973       1.038135      -0.00000
   2     792.3       79.6755       29.5707       51.1430       80.7137       1.038135       0.00000
   1     891.5       79.5655       32.3352       48.2684       80.6036       1.038135       0.00000
   0    1013.0       79.4374       35.4867       44.9889       80.4756       1.038135       0.00000



 Wavenumbers: 29000. - 38000. cm-1, ATM      1
 LEVEL PRESSURE   UPWARD FLUX   DIFDOWN FLUX  DIRDOWN FLUX  DOWNWARD FLUX   NET FLUX    HEATING RATE
          mb          W/m2          W/m2          W/m2        W/m2          W/m2       degree/day
  51    .06700       12.4237        0.0000       28.8486       28.8486      16.424990       0.00000
  50    .07753       12.4235        0.0003       28.8443       28.8447      16.421174       3.05830
  49    .09103       12.4233        0.0008       28.8382       28.8389      16.415622       3.47008
  48    0.1069       12.4231        0.0013       28.8300       28.8313      16.408188       3.95728
  47    0.1255       12.4229        0.0018       28.8193       28.8211      16.398243       4.50884
  46    0.1487       12.4226        0.0026       28.8037       28.8062      16.383603       5.33648
  45    0.1794       12.4223        0.0035       28.7795       28.7831      16.360778       6.26583
  44    0.2165       12.4219        0.0047       28.7472       28.7519      16.329964       7.00966
  43    0.2613       12.4215        0.0060       28.7039       28.7100      16.288440       7.82716
  42    0.3336       12.4210        0.0083       28.6231       28.6314      16.210460       9.09173
  41    0.4307       12.4204        0.0112       28.5045       28.5158      16.095402      10.00402
  40    0.5894       12.4197        0.0159       28.2879       28.3038      15.884099      11.23682
  39     1.339       12.4216        0.0363       26.9923       27.0286      14.606977      14.37807
  38     1.782       12.4262        0.0470       26.1909       26.2378      13.811688      15.14103
  37     2.292       12.4343        0.0586       25.3320       25.3905      12.956188      14.16930
  36     2.964       12.4494        0.0730       24.3665       24.4395      11.990079      12.12759
  35     3.853       12.4753        0.0911       23.3433       23.4344      10.959030       9.78484
  34     5.035       12.5156        0.1142       22.3072       22.4214       9.905741       7.52426
  33     6.613       12.5730        0.1442       21.2984       21.4425       8.869568       5.53938
  32     8.786       12.6486        0.1834       20.3452       20.5286       7.879955       3.84330
  31     11.80       12.7487        0.2383       19.4111       19.6494       6.900666       2.74170
  30     15.07       12.8470        0.2961       18.6944       18.9905       6.143469       1.95494
  29     18.79       12.9503        0.3601       18.0758       18.4358       5.485577       1.49164
  28     23.16       13.0622        0.4335       17.5079       17.9415       4.879318       1.17231
  27     28.12       13.1796        0.5165       16.9909       17.5074       4.327730       0.93766
  26     33.73       13.2930        0.6087       16.5350       17.1437       3.850670       0.71727
  25     40.54       13.4076        0.7193       16.0958       16.8150       3.407418       0.54990
  24     48.69       13.5239        0.8518       15.6632       16.5150       2.991102       0.43082
  23     57.69       13.6294        0.9962       15.2681       16.2642       2.634807       0.33397
  22     68.43       13.7294        1.1674       14.8729       16.0402       2.310844       0.25468
  21     81.20       13.8089        1.3705       14.4863       15.8567       2.047847       0.17378
  20     96.49       13.8651        1.6125       14.0981       15.7106       1.845486       0.11169
  19     114.6       13.9127        1.8944       13.6808       15.5752       1.662495       0.08544
  18     136.5       13.9576        2.2203       13.2216       15.4419       1.484319       0.06851
  17     162.9       14.0011        2.5964       12.7114       15.3078       1.306706       0.05677
  16     196.4       14.0315        3.0707       12.1086       15.1793       1.147766       0.04001
  15     218.7       14.0422        3.3732       11.7383       15.1114       1.069249       0.02981
  14     243.0       14.0500        3.6933       11.3527       15.0460       0.995998       0.02541
  13     269.0       14.0541        4.0306       10.9530       14.9836       0.929559       0.02155
  12     297.5       14.0542        4.3842       10.5404       14.9246       0.870382       0.01755
  11     328.5       14.0529        4.7527       10.1133       14.8660       0.813132       0.01557
  10     361.9       14.0501        5.1348        9.6734       14.8082       0.758113       0.01392
   9     398.1       14.0458        5.5296        9.2216       14.7512       0.705430       0.01227
   8     437.6       14.0407        5.9353        8.7595       14.6948       0.654127       0.01097
   7     480.5       14.0344        6.3505        8.2888       14.6393       0.604929       0.00966
   6     533.0       14.0262        6.8345        7.7424       14.5769       0.550715       0.00872
   5     589.8       14.0178        7.3237        7.1918       14.5154       0.497617       0.00788
   4     651.6       14.0098        7.8145        6.6404       14.4549       0.445091       0.00718
   3     718.7       14.0024        8.3053        6.0902       14.3955       0.393100       0.00653
   2     792.3       13.9961        8.7906        5.5473       14.3378       0.341696       0.00590
   1     891.5       13.9907        9.3849        4.8833       14.2682       0.277533       0.00546
   0    1013.0       13.9896       10.0148        4.1807       14.1954       0.205834       0.00498



 Wavenumbers: 38000. - 50000. cm-1, ATM      1
 LEVEL PRESSURE   UPWARD FLUX   DIFDOWN FLUX  DIRDOWN FLUX  DOWNWARD FLUX   NET FLUX    HEATING RATE
          mb          W/m2          W/m2          W/m2        W/m2          W/m2       degree/day
  51    .06700        0.0068        0.0000        1.7794        1.7794       1.772553       0.00000
  50    .07753        0.0068        0.0001        1.7769        1.7770       1.770217       1.87279
  49    .09103        0.0067        0.0002        1.7734        1.7736       1.766880       2.08543
  48    0.1069        0.0066        0.0002        1.7688        1.7691       1.762491       2.33628
  47    0.1255        0.0065        0.0004        1.7629        1.7632       1.756714       2.61900
  46    0.1487        0.0064        0.0005        1.7542        1.7547       1.748340       3.05237
  45    0.1794        0.0063        0.0007        1.7410        1.7417       1.735461       3.53554
  44    0.2165        0.0061        0.0009        1.7235        1.7244       1.718318       3.89991
  43    0.2613        0.0059        0.0011        1.7003        1.7014       1.695554       4.29089
  42    0.3336        0.0056        0.0015        1.6576        1.6592       1.653578       4.89390
  41    0.4307        0.0052        0.0020        1.5963        1.5983       1.593086       5.25971
  40    0.5894        0.0047        0.0026        1.4879        1.4905       1.485855       5.70237
  39     1.339        0.0029        0.0038        0.9332        0.9370       0.934098       6.21179
  38     1.782        0.0022        0.0036        0.6699        0.6735       0.671269       5.00385
  37     2.292        0.0017        0.0031        0.4555        0.4585       0.456850       3.55133
  36     2.964        0.0013        0.0025        0.2897        0.2922       0.290998       2.08195
  35     3.853        0.0009        0.0020        0.1782        0.1802       0.179321       1.05984
  34     5.035        0.0007        0.0015        0.1068        0.1084       0.107712       0.51154
  33     6.613        0.0005        0.0012        0.0633        0.0644       0.063972       0.23383
  32     8.786        0.0003        0.0009        0.0371        0.0380       0.037726       0.10193
  31     11.80        0.0002        0.0006        0.0201        0.0208       0.020567       0.04804
  30     15.07        0.0001        0.0004        0.0114        0.0118       0.011695       0.02291
  29     18.79        0.0001        0.0003        0.0063        0.0066       0.006567       0.01162
  28     23.16        0.0000        0.0002        0.0034        0.0036       0.003557       0.00582
  27     28.12        0.0000        0.0001        0.0018        0.0019       0.001878       0.00285
  26     33.73        0.0000        0.0001        0.0009        0.0010       0.000992       0.00133
  25     40.54        0.0000        0.0000        0.0005        0.0005       0.000497       0.00061
  24     48.69        0.0000        0.0000        0.0002        0.0002       0.000232       0.00027
  23     57.69        0.0000        0.0000        0.0001        0.0001       0.000107       0.00012
  22     68.43        0.0000        0.0000        0.0000        0.0000       0.000045       0.00005
  21     81.20        0.0000        0.0000        0.0000        0.0000       0.000018       0.00002
  20     96.49        0.0000        0.0000        0.0000        0.0000       0.000006       0.00001
  19     114.6        0.0000        0.0000        0.0000        0.0000       0.000002       0.00000
  18     136.5        0.0000        0.0000        0.0000        0.0000       0.000000       0.00000
  17     162.9        0.0000        0.0000        0.0000        0.0000       0.000000       0.00000
  16     196.4        0.0000        0.0000        0.0000        0.0000       0.000000       0.00000
  15     218.7        0.0000        0.0000        0.0000        0.0000       0.000000       0.00000
  14     243.0        0.0000        0.0000        0.0000        0.0000       0.000000       0.00000
  13     269.0        0.0000        0.0000        0.0000        0.0000       0.000000       0.00000
  12     297.5        0.0000        0.0000        0.0000        0.0000       0.000000       0.00000
  11     328.5        0.0000        0.0000        0.0000        0.0000       0.000000       0.00000
  10     361.9        0.0000        0.0000        0.0000        0.0000       0.000000       0.00000
   9     398.1        0.0000        0.0000        0.0000        0.0000       0.000000       0.00000
   8     437.6        0.0000        0.0000        0.0000        0.0000       0.000000       0.00000
   7     480.5        0.0000        0.0000        0.0000        0.0000       0.000000       0.00000
   6     533.0        0.0000        0.0000        0.0000        0.0000       0.000000       0.00000
   5     589.8        0.0000        0.0000        0.0000        0.0000       0.000000       0.00000
   4     651.6        0.0000        0.0000        0.0000        0.0000       0.000000       0.00000
   3     718.7        0.0000        0.0000        0.0000        0.0000       0.000000       0.00000
   2     792.3        0.0000        0.0000        0.0000        0.0000       0.000000       0.00000
   1     891.5        0.0000        0.0000        0.0000        0.0000       0.000000       0.00000
   0    1013.0        0.0000        0.0000        0.0000        0.0000       0.000000       0.00000



 Wavenumbers:   820. -  2600. cm-1, ATM      1
 LEVEL PRESSURE   UPWARD FLUX   DIFDOWN FLUX  DIRDOWN FLUX  DOWNWARD FLUX   NET FLUX    HEATING RATE
          mb          W/m2          W/m2          W/m2        W/m2          W/m2       degree/day
  51    .06700        0.0118        0.0000        8.3236        8.3236       8.311866       0.00000
  50    .07753        0.0118        0.0000        8.3186        8.3186       8.306876       4.00020
  49    .09103        0.0118        0.0000        8.3176        8.3176       8.305866       0.63108
  48    0.1069        0.0118        0.0000        8.3166        8.3166       8.304828       0.55226
  47    0.1255        0.0118        0.0000        8.3154        8.3154       8.303630       0.54344
  46    0.1487        0.0118        0.0000        8.3139        8.3139       8.302130       0.54662
  45    0.1794        0.0118        0.0000        8.3119        8.3119       8.300165       0.53941
  44    0.2165        0.0118        0.0000        8.3098        8.3098       8.297987       0.49551
  43    0.2613        0.0118        0.0000        8.3074        8.3074       8.295611       0.44790
  42    0.3336        0.0118        0.0000        8.3039        8.3039       8.292108       0.40839
  41    0.4307        0.0118        0.0000        8.2998        8.2998       8.288024       0.35507
  40    0.5894        0.0118        0.0000        8.2936        8.2936       8.281878       0.32688
  39     1.339        0.0118        0.0000        8.2654        8.2654       8.253665       0.31762
  38     1.782        0.0118        0.0000        8.2496        8.2496       8.237797       0.30209
  37     2.292        0.0118        0.0000        8.2318        8.2318       8.220070       0.29361
  36     2.964        0.0118        0.0000        8.2093        8.2093       8.197580       0.28231
  35     3.853        0.0118        0.0000        8.1808        8.1808       8.169017       0.27107
  34     5.035        0.0118        0.0000        8.1450        8.1450       8.133225       0.25569
  33     6.613        0.0118        0.0000        8.1003        8.1003       8.088516       0.23901
  32     8.786        0.0118        0.0000        8.0438        8.0438       8.032051       0.21929
  31     11.80        0.0118        0.0000        7.9700        7.9700       7.958196       0.20677
  30     15.07        0.0118        0.0000        7.9020        7.9020       7.890205       0.17554
  29     18.79        0.0118        0.0000        7.8409        7.8409       7.829117       0.13851
  28     23.16        0.0118        0.0000        7.7886        7.7886       7.776860       0.10105
  27     28.12        0.0118        0.0000        7.7470        7.7470       7.735237       0.07076
  26     33.73        0.0118        0.0000        7.7138        7.7138       7.702015       0.04995
  25     40.54        0.0118        0.0000        7.6821        7.6821       7.670360       0.03927
  24     48.69        0.0118        0.0000        7.6482        7.6482       7.636465       0.03508
  23     57.69        0.0118        0.0000        7.6123        7.6123       7.600517       0.03370
  22     68.43        0.0118        0.0000        7.5701        7.5701       7.558333       0.03316
  21     81.20        0.0118        0.0000        7.5211        7.5211       7.509376       0.03235
  20     96.49        0.0118        0.0000        7.4640        7.4640       7.452291       0.03151
  19     114.6        0.0118        0.0000        7.3970        7.3970       7.385278       0.03129
  18     136.5        0.0118        0.0000        7.3193        7.3193       7.307532       0.02990
  17     162.9        0.0118        0.0000        7.2208        7.2208       7.209079       0.03147
  16     196.4        0.0118        0.0000        7.0689        7.0689       7.057166       0.03824
  15     218.7        0.0118        0.0000        6.9269        6.9269       6.915132       0.05393
  14     243.0        0.0118        0.0000        6.7163        6.7164       6.704605       0.07302
  13     269.0        0.0118        0.0000        6.4588        6.4589       6.447120       0.08353
  12     297.5        0.0118        0.0000        6.1891        6.1891       6.177331       0.08002
  11     328.5        0.0118        0.0000        5.9303        5.9303       5.918538       0.07037
  10     361.9        0.0118        0.0000        5.6329        5.6329       5.621123       0.07525
   9     398.1        0.0118        0.0000        5.2924        5.2924       5.280612       0.07933
   8     437.6        0.0118        0.0000        4.9416        4.9417       4.929841       0.07500
   7     480.5        0.0119        0.0000        4.6439        4.6440       4.632080       0.05848
   6     533.0        0.0119        0.0000        4.3980        4.3980       4.386101       0.03957
   5     589.8        0.0120        0.0000        4.2053        4.2054       4.193347       0.02861
   4     651.6        0.0122        0.0000        3.9808        3.9809       3.968720       0.03072
   3     718.7        0.0124        0.0000        3.7067        3.7068       3.694357       0.03448
   2     792.3        0.0129        0.0000        3.3924        3.3924       3.379534       0.03611
   1     891.5        0.0142        0.0000        2.9716        2.9717       2.957521       0.03591
   0    1013.0        0.0174        0.0000        2.4501        2.4502       2.432760       0.03644

  Modules and versions used in this calculation:

       rrtmg_sw.1col.f90:  $Revision$                    rrtmg_sw_init.f90:  $Revision$        
     rrtmgsw_cldprop.f90:  $Revision$                  rrtmgsw_cldprmc.f90:  NOT USED          
     rrtmg_sw_reftra.f90:  $Revision$                  rrtmg_sw_spcvrt.f90:  NOT USED          
     rrtmg_sw_spcvmc.f90:  NOT USED                    rrtmgsw_setcoef.f90:  NOT USED          
     rrtmg_sw_taumol.f90:  $Revision$                  rrtmg_sw_vrtqdr.f90:  NOT USED          
                rrtatm.f:  NOT USED                             util_xxx.f:  NOT USED          
                 extra.f:  NOT USED                       rrtmg_sw_k_g.f90:  $Revision$        

