

 Wavenumbers:   820. - 50000. cm-1, ATM      1
 LEVEL PRESSURE   UPWARD FLUX   DIFDOWN FLUX  DIRDOWN FLUX  DOWNWARD FLUX   NET FLUX    HEATING RATE
          mb          W/m2          W/m2          W/m2        W/m2          W/m2       degree/day
  51    .06700      227.1551        0.0000      375.1009      375.1009     147.945769       0.00000
  50    .07753      227.1545        0.0012      375.0850      375.0861     147.931648      11.31849
  49    .09103      227.1538        0.0027      375.0691      375.0718     147.918033       8.50977
  48    0.1069      227.1529        0.0043      375.0503      375.0547     147.901724       8.68134
  47    0.1255      227.1520        0.0063      375.0271      375.0333     147.881327       9.24706
  46    0.1487      227.1509        0.0087      374.9951      375.0038     147.852948      10.34444
  45    0.1794      227.1494        0.0121      374.9481      374.9602     147.810801      11.57033
  44    0.2165      227.1477        0.0160      374.8880      374.9041     147.756370      12.38217
  43    0.2613      227.1458        0.0207      374.8110      374.8317     147.685899      13.28346
  42    0.3336      227.1428        0.0283      374.6739      374.7022     147.559327      14.75704
  41    0.4307      227.1392        0.0383      374.4829      374.5212     147.381998      15.41840
  40    0.5894      227.1339        0.0544      374.1603      374.2147     147.080829      16.01574
  39     1.339      227.1204        0.1265      372.7072      372.8337     145.713283      15.39609
  38     1.782      227.1201        0.1669      372.0423      372.2092     145.089086      11.88370
  37     2.292      227.1266        0.2130      371.4001      371.6131     144.486466       9.98097
  36     2.964      227.1451        0.2727      370.6726      370.9453     143.800158       8.61523
  35     3.853      227.1835        0.3508      369.8338      370.1847     143.001154       7.58270
  34     5.035      227.2483        0.4536      368.8763      369.3299     142.081596       6.56894
  33     6.613      227.3425        0.5897      367.7884      368.3781     141.035568       5.59207
  32     8.786      227.4639        0.7718      366.5529      367.3247     139.860762       4.56252
  31     11.80      227.6143        1.0300      365.0715      366.1016     138.487295       3.84527
  30     15.07      227.7483        1.3050      363.7028      365.0078     137.259540       3.16983
  29     18.79      227.8752        1.6132      362.3216      363.9348     136.059574       2.72069
  28     23.16      227.9954        1.9701      360.8650      362.8351     134.839730       2.35879
  27     28.12      228.1000        2.3749      359.3549      361.7298     133.629790       2.05682
  26     33.73      228.1689        2.8245      357.8462      360.6707     132.501783       1.69599
  25     40.54      228.1964        3.3635      356.2150      359.5784     131.382004       1.38921
  24     48.69      228.1763        4.0073      354.4301      358.4374     130.261116       1.15994
  23     57.69      228.1032        4.7077      352.6362      357.3440     129.240798       0.95639
  22     68.43      227.9614        5.5332      350.6735      356.2067     128.245291       0.78260
  21     81.20      227.7172        6.5058      348.5591      355.0648     127.347642       0.59315
  20     96.49      227.3584        7.6492      346.2552      353.9044     126.545948       0.44248
  19     114.6      226.9140        8.9843      343.6521      352.6364     125.722388       0.38454
  18     136.5      226.3734       10.5344      340.7040      351.2383     124.864983       0.32969
  17     162.9      225.7231       12.3355      337.3096      349.6451     123.921952       0.30143
  16     196.4      224.8544       14.6043      333.0153      347.6196     122.765198       0.29117
  15     218.7      224.2808       16.0552      330.0224      346.0776     121.796777       0.36767
  14     243.0      223.6629       17.5979      326.4087      344.0066     120.343736       0.50396
  13     269.0      223.0008       19.2307      322.0048      341.2355     118.234695       0.68416
  12     297.5      222.2959       20.9517      316.8994      337.8511     115.555187       0.79471
  11     328.5      221.5523       22.7621      311.4330      334.1951     112.642795       0.79187
  10     361.9      220.7731       24.6572      305.5352      330.1923     109.419190       0.81560
   9     398.1      219.9602       26.6367      299.1682      325.8049     105.844743       0.83277
   8     437.6      219.1196       28.6957      292.3330      321.0287     101.909158       0.84145
   7     480.5      218.2565       30.8301      285.1356      315.9657      97.709195       0.82486
   6     533.0      217.2516       33.3606      276.4571      309.8177      92.566065       0.82737
   5     589.8      216.2507       35.9752      267.2125      303.1877      86.937050       0.83553
   4     651.6      215.3032       38.6597      257.0554      295.7151      80.411938       0.89233
   3     718.7      214.4598       41.4027      246.2528      287.6555      73.195702       0.90688
   2     792.3      213.8384       44.1847      234.5922      278.7768      64.938417       0.94702
   1     891.5      213.6445       47.6980      219.1839      266.8820      53.237502       0.99569
   0    1013.0      214.7657       51.5853      202.2380      253.8233      39.057611       0.98458



 Wavenumbers:  2600. -  3250. cm-1, ATM      1
 LEVEL PRESSURE   UPWARD FLUX   DIFDOWN FLUX  DIRDOWN FLUX  DOWNWARD FLUX   NET FLUX    HEATING RATE
          mb          W/m2          W/m2          W/m2        W/m2          W/m2       degree/day
  51    .06700        0.0170        0.0000        3.3059        3.3059       3.288877       0.00000
  50    .07753        0.0170        0.0000        3.3059        3.3059       3.288869       0.00640
  49    .09103        0.0170        0.0000        3.3059        3.3059       3.288859       0.00627
  48    0.1069        0.0170        0.0000        3.3059        3.3059       3.288847       0.00613
  47    0.1255        0.0170        0.0000        3.3059        3.3059       3.288834       0.00599
  46    0.1487        0.0170        0.0000        3.3059        3.3059       3.288817       0.00607
  45    0.1794        0.0170        0.0000        3.3058        3.3058       3.288795       0.00624
  44    0.2165        0.0170        0.0000        3.3058        3.3058       3.288768       0.00611
  43    0.2613        0.0170        0.0000        3.3058        3.3058       3.288736       0.00598
  42    0.3336        0.0170        0.0000        3.3057        3.3057       3.288683       0.00615
  41    0.4307        0.0170        0.0000        3.3057        3.3057       3.288612       0.00617
  40    0.5894        0.0170        0.0000        3.3055        3.3055       3.288493       0.00633
  39     1.339        0.0170        0.0000        3.3048        3.3048       3.287796       0.00785
  38     1.782        0.0170        0.0000        3.3043        3.3043       3.287267       0.01007
  37     2.292        0.0170        0.0000        3.3036        3.3036       3.286579       0.01140
  36     2.964        0.0170        0.0000        3.3026        3.3026       3.285595       0.01235
  35     3.853        0.0170        0.0000        3.3013        3.3013       3.284232       0.01294
  34     5.035        0.0170        0.0000        3.2994        3.2994       3.282405       0.01305
  33     6.613        0.0170        0.0000        3.2971        3.2971       3.280054       0.01257
  32     8.786        0.0170        0.0000        3.2942        3.2942       3.277177       0.01117
  31     11.80        0.0170        0.0000        3.2907        3.2907       3.273696       0.00975
  30     15.07        0.0170        0.0000        3.2877        3.2877       3.270633       0.00791
  29     18.79        0.0170        0.0000        3.2847        3.2847       3.267713       0.00662
  28     23.16        0.0170        0.0000        3.2816        3.2816       3.264609       0.00600
  27     28.12        0.0170        0.0000        3.2781        3.2781       3.261072       0.00601
  26     33.73        0.0170        0.0000        3.2737        3.2737       3.256661       0.00663
  25     40.54        0.0170        0.0000        3.2674        3.2674       3.250387       0.00778
  24     48.69        0.0170        0.0000        3.2586        3.2586       3.241564       0.00913
  23     57.69        0.0170        0.0000        3.2476        3.2476       3.230629       0.01025
  22     68.43        0.0170        0.0000        3.2336        3.2336       3.216576       0.01105
  21     81.20        0.0170        0.0000        3.2161        3.2162       3.199161       0.01151
  20     96.49        0.0170        0.0000        3.1955        3.1956       3.178553       0.01137
  19     114.6        0.0170        0.0000        3.1716        3.1717       3.154670       0.01115
  18     136.5        0.0170        0.0000        3.1459        3.1459       3.128907       0.00991
  17     162.9        0.0170        0.0001        3.1190        3.1190       3.102054       0.00858
  16     196.4        0.0170        0.0001        3.0892        3.0893       3.072339       0.00748
  15     218.7        0.0170        0.0001        3.0700        3.0701       3.053135       0.00729
  14     243.0        0.0170        0.0001        3.0462        3.0463       3.029334       0.00825
  13     269.0        0.0170        0.0001        3.0155        3.0156       2.998664       0.00995
  12     297.5        0.0170        0.0001        2.9744        2.9745       2.957516       0.01220
  11     328.5        0.0170        0.0001        2.9217        2.9218       2.904839       0.01432
  10     361.9        0.0170        0.0001        2.8543        2.8544       2.837419       0.01706
   9     398.1        0.0170        0.0001        2.7688        2.7690       2.751943       0.01991
   8     437.6        0.0170        0.0001        2.6634        2.6635       2.646501       0.02254
   7     480.5        0.0171        0.0001        2.5406        2.5408       2.523694       0.02412
   6     533.0        0.0172        0.0002        2.3863        2.3864       2.369259       0.02484
   5     589.8        0.0173        0.0002        2.2188        2.2190       2.201742       0.02487
   4     651.6        0.0174        0.0002        2.0303        2.0305       2.013032       0.02581
   3     718.7        0.0177        0.0002        1.8217        1.8219       1.804191       0.02625
   2     792.3        0.0182        0.0002        1.5904        1.5905       1.572339       0.02659
   1     891.5        0.0192        0.0002        1.2993        1.2995       1.280290       0.02485
   0    1013.0        0.0215        0.0001        1.0076        1.0077       0.986241       0.02042



 Wavenumbers:  3250. -  4000. cm-1, ATM      1
 LEVEL PRESSURE   UPWARD FLUX   DIFDOWN FLUX  DIRDOWN FLUX  DOWNWARD FLUX   NET FLUX    HEATING RATE
          mb          W/m2          W/m2          W/m2        W/m2          W/m2       degree/day
  51    .06700        0.0004        0.0000        5.5733        5.5733       5.572854       0.00000
  50    .07753        0.0004        0.0000        5.5692        5.5692       5.568731       3.30460
  49    .09103        0.0004        0.0000        5.5668        5.5668       5.566373       1.47419
  48    0.1069        0.0004        0.0000        5.5650        5.5650       5.564548       0.97132
  47    0.1255        0.0004        0.0000        5.5633        5.5633       5.562825       0.78103
  46    0.1487        0.0004        0.0000        5.5614        5.5614       5.560982       0.67189
  45    0.1794        0.0004        0.0000        5.5593        5.5593       5.558894       0.57308
  44    0.2165        0.0004        0.0000        5.5573        5.5573       5.556836       0.46828
  43    0.2613        0.0004        0.0000        5.5552        5.5552       5.554720       0.39884
  42    0.3336        0.0004        0.0000        5.5520        5.5520       5.551588       0.36515
  41    0.4307        0.0004        0.0000        5.5482        5.5482       5.547765       0.33241
  40    0.5894        0.0004        0.0000        5.5424        5.5424       5.541994       0.30690
  39     1.339        0.0004        0.0000        5.5224        5.5224       5.521966       0.22547
  38     1.782        0.0004        0.0000        5.5143        5.5143       5.513850       0.15451
  37     2.292        0.0004        0.0000        5.5064        5.5064       5.505935       0.13110
  36     2.964        0.0004        0.0000        5.4970        5.4970       5.496546       0.11786
  35     3.853        0.0004        0.0000        5.4851        5.4851       5.484655       0.11285
  34     5.035        0.0004        0.0000        5.4693        5.4694       5.468921       0.11239
  33     6.613        0.0004        0.0000        5.4480        5.4480       5.447594       0.11402
  32     8.786        0.0004        0.0000        5.4186        5.4186       5.418156       0.11432
  31     11.80        0.0004        0.0000        5.3757        5.3758       5.375335       0.11989
  30     15.07        0.0004        0.0000        5.3300        5.3300       5.329615       0.11804
  29     18.79        0.0004        0.0000        5.2802        5.2803       5.279839       0.11286
  28     23.16        0.0004        0.0000        5.2263        5.2263       5.225943       0.10422
  27     28.12        0.0004        0.0000        5.1709        5.1709       5.170543       0.09418
  26     33.73        0.0004        0.0000        5.1159        5.1159       5.115524       0.08272
  25     40.54        0.0004        0.0001        5.0557        5.0557       5.055346       0.07466
  24     48.69        0.0004        0.0001        4.9876        4.9877       4.987341       0.07037
  23     57.69        0.0004        0.0001        4.9149        4.9150       4.914618       0.06817
  22     68.43        0.0003        0.0001        4.8298        4.8299       4.829588       0.06684
  21     81.20        0.0003        0.0001        4.7321        4.7322       4.731834       0.06459
  20     96.49        0.0003        0.0001        4.6225        4.6226       4.622307       0.06045
  19     114.6        0.0003        0.0001        4.4980        4.4981       4.497815       0.05813
  18     136.5        0.0003        0.0002        4.3649        4.3651       4.364822       0.05114
  17     162.9        0.0002        0.0002        4.2130        4.2132       4.212941       0.04855
  16     196.4        0.0002        0.0002        4.0017        4.0019       4.001676       0.05318
  15     218.7        0.0002        0.0002        3.8131        3.8134       3.813192       0.07156
  14     243.0        0.0002        0.0002        3.5661        3.5663       3.566156       0.08568
  13     269.0        0.0001        0.0002        3.2435        3.2437       3.243605       0.10463
  12     297.5        0.0001        0.0002        2.8482        2.8484       2.848301       0.11724
  11     328.5        0.0001        0.0002        2.4608        2.4611       2.460977       0.10531
  10     361.9        0.0001        0.0002        2.1148        2.1150       2.114958       0.08755
   9     398.1        0.0001        0.0002        1.8066        1.8068       1.806782       0.07180
   8     437.6        0.0001        0.0002        1.5243        1.5245       1.524445       0.06037
   7     480.5        0.0000        0.0002        1.2678        1.2680       1.267987       0.05037
   6     533.0        0.0000        0.0002        0.9968        0.9969       0.996910       0.04361
   5     589.8        0.0000        0.0002        0.7354        0.7356       0.735557       0.03879
   4     651.6        0.0000        0.0001        0.4780        0.4781       0.478083       0.03521
   3     718.7        0.0000        0.0001        0.2663        0.2663       0.266333       0.02661
   2     792.3        0.0000        0.0001        0.1072        0.1072       0.107206       0.01825
   1     891.5        0.0000        0.0000        0.0140        0.0140       0.013993       0.00793
   0    1013.0        0.0000        0.0000        0.0002        0.0002       0.000223       0.00096



 Wavenumbers:  4000. -  4650. cm-1, ATM      1
 LEVEL PRESSURE   UPWARD FLUX   DIFDOWN FLUX  DIRDOWN FLUX  DOWNWARD FLUX   NET FLUX    HEATING RATE
          mb          W/m2          W/m2          W/m2        W/m2          W/m2       degree/day
  51    .06700        0.4180        0.0000        6.5447        6.5447       6.126770       0.00000
  50    .07753        0.4180        0.0000        6.5447        6.5447       6.126769       0.00080
  49    .09103        0.4180        0.0000        6.5447        6.5447       6.126768       0.00078
  48    0.1069        0.4180        0.0000        6.5447        6.5447       6.126766       0.00076
  47    0.1255        0.4180        0.0000        6.5447        6.5447       6.126765       0.00075
  46    0.1487        0.4180        0.0000        6.5447        6.5447       6.126763       0.00076
  45    0.1794        0.4180        0.0000        6.5447        6.5447       6.126760       0.00078
  44    0.2165        0.4180        0.0000        6.5447        6.5447       6.126756       0.00076
  43    0.2613        0.4180        0.0000        6.5447        6.5447       6.126752       0.00075
  42    0.3336        0.4180        0.0000        6.5447        6.5447       6.126746       0.00077
  41    0.4307        0.4180        0.0000        6.5447        6.5447       6.126737       0.00077
  40    0.5894        0.4180        0.0000        6.5447        6.5447       6.126722       0.00080
  39     1.339        0.4180        0.0000        6.5446        6.5446       6.126633       0.00101
  38     1.782        0.4180        0.0000        6.5445        6.5445       6.126563       0.00133
  37     2.292        0.4180        0.0000        6.5444        6.5444       6.126469       0.00156
  36     2.964        0.4179        0.0000        6.5443        6.5443       6.126329       0.00176
  35     3.853        0.4179        0.0000        6.5441        6.5441       6.126121       0.00197
  34     5.035        0.4179        0.0000        6.5437        6.5438       6.125815       0.00219
  33     6.613        0.4179        0.0000        6.5433        6.5433       6.125366       0.00240
  32     8.786        0.4179        0.0000        6.5426        6.5426       6.124703       0.00257
  31     11.80        0.4179        0.0000        6.5415        6.5416       6.123665       0.00291
  30     15.07        0.4179        0.0001        6.5403        6.5404       6.122451       0.00313
  29     18.79        0.4179        0.0001        6.5388        6.5389       6.120989       0.00332
  28     23.16        0.4179        0.0001        6.5370        6.5371       6.119182       0.00349
  27     28.12        0.4179        0.0001        6.5348        6.5349       6.117006       0.00370
  26     33.73        0.4178        0.0001        6.5321        6.5322       6.114338       0.00401
  25     40.54        0.4178        0.0001        6.5284        6.5286       6.110745       0.00446
  24     48.69        0.4178        0.0002        6.5236        6.5238       6.105994       0.00492
  23     57.69        0.4178        0.0002        6.5180        6.5182       6.100410       0.00523
  22     68.43        0.4177        0.0002        6.5110        6.5112       6.093479       0.00545
  21     81.20        0.4177        0.0003        6.5024        6.5027       6.085013       0.00559
  20     96.49        0.4177        0.0003        6.4921        6.4925       6.074805       0.00563
  19     114.6        0.4176        0.0004        6.4794        6.4798       6.062169       0.00590
  18     136.5        0.4176        0.0005        6.4641        6.4646       6.047067       0.00581
  17     162.9        0.4175        0.0006        6.4456        6.4462       6.028716       0.00587
  16     196.4        0.4175        0.0007        6.4204        6.4211       6.003672       0.00630
  15     218.7        0.4174        0.0008        6.4016        6.4024       5.984983       0.00710
  14     243.0        0.4174        0.0009        6.3776        6.3785       5.961048       0.00830
  13     269.0        0.4175        0.0009        6.3460        6.3470       5.929532       0.01022
  12     297.5        0.4175        0.0010        6.3040        6.3051       5.887522       0.01246
  11     328.5        0.4177        0.0011        6.2502        6.2514       5.833687       0.01464
  10     361.9        0.4179        0.0013        6.1825        6.1837       5.765824       0.01717
   9     398.1        0.4182        0.0014        6.0997        6.1010       5.682859       0.01933
   8     437.6        0.4186        0.0015        6.0020        6.0035       5.584932       0.02094
   7     480.5        0.4190        0.0016        5.8939        5.8955       5.476454       0.02130
   6     533.0        0.4197        0.0017        5.7575        5.7593       5.339529       0.02203
   5     589.8        0.4208        0.0019        5.5947        5.5966       5.175785       0.02430
   4     651.6        0.4224        0.0020        5.3746        5.3767       4.954266       0.03029
   3     718.7        0.4249        0.0021        5.0968        5.0989       4.674030       0.03522
   2     792.3        0.4291        0.0022        4.7767        4.7789       4.349813       0.03718
   1     891.5        0.4387        0.0023        4.3615        4.3639       3.925179       0.03613
   0    1013.0        0.4601        0.0024        3.8903        3.8927       3.432552       0.03421



 Wavenumbers:  4650. -  5150. cm-1, ATM      1
 LEVEL PRESSURE   UPWARD FLUX   DIFDOWN FLUX  DIRDOWN FLUX  DOWNWARD FLUX   NET FLUX    HEATING RATE
          mb          W/m2          W/m2          W/m2        W/m2          W/m2       degree/day
  51    .06700        0.0842        0.0000        6.1949        6.1949       6.110675       0.00000
  50    .07753        0.0842        0.0000        6.1947        6.1947       6.110440       0.18873
  49    .09103        0.0842        0.0000        6.1944        6.1944       6.110146       0.18339
  48    0.1069        0.0842        0.0000        6.1940        6.1940       6.109812       0.17774
  47    0.1255        0.0842        0.0000        6.1936        6.1937       6.109433       0.17196
  46    0.1487        0.0842        0.0000        6.1932        6.1932       6.108961       0.17212
  45    0.1794        0.0842        0.0000        6.1925        6.1925       6.108327       0.17399
  44    0.2165        0.0842        0.0000        6.1918        6.1918       6.107593       0.16695
  43    0.2613        0.0842        0.0000        6.1910        6.1910       6.106746       0.15966
  42    0.3336        0.0842        0.0000        6.1896        6.1896       6.105395       0.15750
  41    0.4307        0.0842        0.0000        6.1879        6.1879       6.103697       0.14767
  40    0.5894        0.0842        0.0000        6.1853        6.1853       6.101118       0.13714
  39     1.339        0.0842        0.0000        6.1758        6.1758       6.091621       0.10692
  38     1.782        0.0842        0.0000        6.1718        6.1718       6.087590       0.07673
  37     2.292        0.0842        0.0000        6.1681        6.1681       6.083908       0.06098
  36     2.964        0.0842        0.0000        6.1644        6.1644       6.080193       0.04664
  35     3.853        0.0842        0.0000        6.1607        6.1607       6.076497       0.03508
  34     5.035        0.0842        0.0000        6.1569        6.1569       6.072713       0.02703
  33     6.613        0.0842        0.0000        6.1526        6.1527       6.068481       0.02263
  32     8.786        0.0842        0.0000        6.1472        6.1473       6.063086       0.02095
  31     11.80        0.0842        0.0001        6.1392        6.1392       6.055075       0.02243
  30     15.07        0.0841        0.0001        6.1298        6.1299       6.045767       0.02403
  29     18.79        0.0841        0.0001        6.1184        6.1185       6.034338       0.02591
  28     23.16        0.0841        0.0001        6.1038        6.1040       6.019880       0.02796
  27     28.12        0.0841        0.0002        6.0860        6.0862       6.002113       0.03020
  26     33.73        0.0840        0.0002        6.0649        6.0651       5.981015       0.03172
  25     40.54        0.0840        0.0002        6.0382        6.0384       5.954426       0.03299
  24     48.69        0.0840        0.0003        6.0052        6.0055       5.921527       0.03404
  23     57.69        0.0839        0.0003        5.9691        5.9694       5.885491       0.03378
  22     68.43        0.0839        0.0004        5.9272        5.9276       5.843722       0.03284
  21     81.20        0.0838        0.0004        5.8803        5.8807       5.796892       0.03094
  20     96.49        0.0837        0.0005        5.8293        5.8299       5.746106       0.02803
  19     114.6        0.0837        0.0006        5.7756        5.7762       5.692544       0.02501
  18     136.5        0.0836        0.0007        5.7196        5.7203       5.636772       0.02145
  17     162.9        0.0835        0.0008        5.6599        5.6607       5.577219       0.01904
  16     196.4        0.0833        0.0010        5.5870        5.5880       5.504672       0.01826
  15     218.7        0.0833        0.0011        5.5386        5.5397       5.456406       0.01832
  14     243.0        0.0832        0.0012        5.4830        5.4842       5.401003       0.01922
  13     269.0        0.0831        0.0013        5.4172        5.4185       5.335403       0.02128
  12     297.5        0.0830        0.0014        5.3370        5.3384       5.255412       0.02372
  11     328.5        0.0830        0.0016        5.2431        5.2447       5.161725       0.02547
  10     361.9        0.0829        0.0017        5.1344        5.1361       5.053214       0.02745
   9     398.1        0.0829        0.0018        5.0093        5.0112       4.928306       0.02910
   8     437.6        0.0829        0.0020        4.8672        4.8692       4.786289       0.03036
   7     480.5        0.0829        0.0021        4.7087        4.7108       4.627853       0.03112
   6     533.0        0.0831        0.0023        4.5092        4.5115       4.428441       0.03208
   5     589.8        0.0833        0.0024        4.2922        4.2946       4.211361       0.03222
   4     651.6        0.0837        0.0025        4.0523        4.0548       3.971113       0.03285
   3     718.7        0.0844        0.0027        3.7955        3.7981       3.713743       0.03234
   2     792.3        0.0855        0.0027        3.5215        3.5242       3.438705       0.03154
   1     891.5        0.0879        0.0028        3.1598        3.1626       3.074719       0.03097
   0    1013.0        0.0927        0.0029        2.7738        2.7767       2.683924       0.02713



 Wavenumbers:  5150. -  6150. cm-1, ATM      1
 LEVEL PRESSURE   UPWARD FLUX   DIFDOWN FLUX  DIRDOWN FLUX  DOWNWARD FLUX   NET FLUX    HEATING RATE
          mb          W/m2          W/m2          W/m2        W/m2          W/m2       degree/day
  51    .06700        0.9719        0.0000       15.5306       15.5306      14.558723       0.00000
  50    .07753        0.9719        0.0000       15.5306       15.5306      14.558683       0.03156
  49    .09103        0.9719        0.0000       15.5305       15.5305      14.558632       0.03204
  48    0.1069        0.9719        0.0000       15.5305       15.5305      14.558571       0.03254
  47    0.1255        0.9719        0.0000       15.5304       15.5304      14.558498       0.03304
  46    0.1487        0.9719        0.0000       15.5303       15.5303      14.558403       0.03480
  45    0.1794        0.9719        0.0000       15.5302       15.5302      14.558268       0.03703
  44    0.2165        0.9719        0.0000       15.5300       15.5300      14.558102       0.03758
  43    0.2613        0.9719        0.0000       15.5298       15.5298      14.557900       0.03814
  42    0.3336        0.9719        0.0000       15.5294       15.5294      14.557555       0.04027
  41    0.4307        0.9719        0.0000       15.5290       15.5290      14.557086       0.04077
  40    0.5894        0.9719        0.0000       15.5282       15.5282      14.556301       0.04172
  39     1.339        0.9719        0.0000       15.5244       15.5244      14.552544       0.04230
  38     1.782        0.9719        0.0000       15.5222       15.5222      14.550373       0.04133
  37     2.292        0.9718        0.0001       15.5197       15.5198      14.547931       0.04045
  36     2.964        0.9718        0.0001       15.5166       15.5167      14.544850       0.03867
  35     3.853        0.9718        0.0001       15.5127       15.5128      14.540970       0.03682
  34     5.035        0.9718        0.0001       15.5077       15.5078      14.536030       0.03528
  33     6.613        0.9717        0.0002       15.5013       15.5015      14.529719       0.03374
  32     8.786        0.9717        0.0002       15.4932       15.4934      14.521698       0.03115
  31     11.80        0.9716        0.0003       15.4824       15.4827      14.511112       0.02964
  30     15.07        0.9716        0.0004       15.4720       15.4724      14.500826       0.02656
  29     18.79        0.9715        0.0005       15.4614       15.4619      14.490408       0.02362
  28     23.16        0.9714        0.0006       15.4503       15.4509      14.479507       0.02108
  27     28.12        0.9713        0.0007       15.4390       15.4397      14.468429       0.01883
  26     33.73        0.9712        0.0009       15.4278       15.4287      14.457528       0.01639
  25     40.54        0.9710        0.0010       15.4160       15.4170      14.446002       0.01430
  24     48.69        0.9709        0.0012       15.4036       15.4049      14.434018       0.01240
  23     57.69        0.9707        0.0015       15.3916       15.3931      14.422387       0.01090
  22     68.43        0.9705        0.0017       15.3787       15.3804      14.409975       0.00976
  21     81.20        0.9702        0.0020       15.3646       15.3667      14.396460       0.00893
  20     96.49        0.9699        0.0024       15.3488       15.3512      14.381291       0.00837
  19     114.6        0.9696        0.0029       15.3304       15.3333      14.363782       0.00818
  18     136.5        0.9691        0.0034       15.3087       15.3121      14.342974       0.00800
  17     162.9        0.9686        0.0041       15.2759       15.2800      14.311362       0.01010
  16     196.4        0.9680        0.0049       15.2025       15.2073      14.239335       0.01813
  15     218.7        0.9676        0.0054       15.0781       15.0835      14.115887       0.04687
  14     243.0        0.9672        0.0060       14.8131       14.8190      13.851838       0.09158
  13     269.0        0.9668        0.0065       14.3968       14.4032      13.436458       0.13475
  12     297.5        0.9664        0.0069       13.9050       13.9119      12.945568       0.14559
  11     328.5        0.9660        0.0074       13.3705       13.3779      12.411966       0.14508
  10     361.9        0.9656        0.0079       12.7670       12.7749      11.809338       0.15247
   9     398.1        0.9652        0.0083       12.1256       12.1340      11.168727       0.14925
   8     437.6        0.9650        0.0087       11.4597       11.4684      10.503406       0.14225
   7     480.5        0.9648        0.0091       10.8084       10.8174       9.852643       0.12781
   6     533.0        0.9647        0.0095       10.1222       10.1317       9.166940       0.11031
   5     589.8        0.9650        0.0098        9.5165        9.5264       8.561384       0.08988
   4     651.6        0.9659        0.0102        8.9810        8.9912       8.025317       0.07331
   3     718.7        0.9678        0.0107        8.5284        8.5391       7.571297       0.05706
   2     792.3        0.9717        0.0112        8.0678        8.0790       7.107255       0.05322
   1     891.5        0.9817        0.0118        7.4441        7.4558       6.474137       0.05388
   0    1013.0        1.0066        0.0124        6.8677        6.8801       5.873503       0.04171



 Wavenumbers:  6150. -  7700. cm-1, ATM      1
 LEVEL PRESSURE   UPWARD FLUX   DIFDOWN FLUX  DIRDOWN FLUX  DOWNWARD FLUX   NET FLUX    HEATING RATE
          mb          W/m2          W/m2          W/m2        W/m2          W/m2       degree/day
  51    .06700        1.6699        0.0000       28.7245       28.7245      27.054562       0.00000
  50    .07753        1.6699        0.0000       28.7244       28.7244      27.054505       0.04553
  49    .09103        1.6699        0.0000       28.7243       28.7243      27.054432       0.04582
  48    0.1069        1.6699        0.0000       28.7243       28.7243      27.054345       0.04613
  47    0.1255        1.6699        0.0000       28.7241       28.7242      27.054243       0.04643
  46    0.1487        1.6699        0.0000       28.7240       28.7240      27.054110       0.04850
  45    0.1794        1.6699        0.0000       28.7238       28.7238      27.053923       0.05123
  44    0.2165        1.6699        0.0000       28.7236       28.7236      27.053696       0.05163
  43    0.2613        1.6699        0.0000       28.7233       28.7233      27.053420       0.05204
  42    0.3336        1.6699        0.0000       28.7228       28.7228      27.052952       0.05462
  41    0.4307        1.6699        0.0000       28.7222       28.7222      27.052318       0.05509
  40    0.5894        1.6699        0.0001       28.7211       28.7211      27.051262       0.05616
  39     1.339        1.6698        0.0001       28.7159       28.7160      27.046202       0.05696
  38     1.782        1.6697        0.0002       28.7128       28.7130      27.043264       0.05594
  37     2.292        1.6697        0.0002       28.7094       28.7096      27.039936       0.05512
  36     2.964        1.6696        0.0003       28.7050       28.7053      27.035697       0.05321
  35     3.853        1.6695        0.0004       28.6994       28.6998      27.030294       0.05128
  34     5.035        1.6694        0.0005       28.6922       28.6927      27.023333       0.04972
  33     6.613        1.6692        0.0007       28.6829       28.6836      27.014316       0.04820
  32     8.786        1.6690        0.0009       28.6707       28.6717      27.002645       0.04533
  31     11.80        1.6687        0.0013       28.6543       28.6556      26.986864       0.04418
  30     15.07        1.6684        0.0016       28.6378       28.6394      26.971025       0.04089
  29     18.79        1.6680        0.0020       28.6204       28.6224      26.954372       0.03776
  28     23.16        1.6676        0.0025       28.6015       28.6040      26.936425       0.03470
  27     28.12        1.6671        0.0030       28.5815       28.5845      26.917472       0.03222
  26     33.73        1.6665        0.0036       28.5611       28.5647      26.898180       0.02901
  25     40.54        1.6658        0.0043       28.5385       28.5429      26.877050       0.02621
  24     48.69        1.6650        0.0052       28.5142       28.5194      26.854386       0.02345
  23     57.69        1.6641        0.0061       28.4898       28.4960      26.831870       0.02111
  22     68.43        1.6630        0.0073       28.4631       28.4704      26.807392       0.01924
  21     81.20        1.6617        0.0086       28.4335       28.4422      26.780473       0.01779
  20     96.49        1.6602        0.0103       28.4002       28.4104      26.750251       0.01668
  19     114.6        1.6583        0.0122       28.3617       28.3739      26.715508       0.01622
  18     136.5        1.6562        0.0145       28.3166       28.3311      26.674883       0.01562
  17     162.9        1.6536        0.0172       28.2525       28.2696      26.616026       0.01881
  16     196.4        1.6502        0.0206       28.1253       28.1460      26.495733       0.03028
  15     218.7        1.6481        0.0229       27.9506       27.9735      26.325425       0.06466
  14     243.0        1.6458        0.0252       27.5978       27.6230      25.977279       0.12075
  13     269.0        1.6433        0.0275       26.9675       26.9950      25.351676       0.20294
  12     297.5        1.6409        0.0297       26.1055       26.1351      24.494275       0.25430
  11     328.5        1.6383        0.0318       25.1987       25.2306      23.592231       0.24526
  10     361.9        1.6358        0.0340       24.1941       24.2281      22.592252       0.25300
   9     398.1        1.6333        0.0360       23.0566       23.0926      21.459233       0.26397
   8     437.6        1.6310        0.0378       21.8173       21.8551      20.224089       0.26408
   7     480.5        1.6289        0.0393       20.5480       20.5874      18.958436       0.24857
   6     533.0        1.6270        0.0409       19.0917       19.1326      17.505565       0.23372
   5     589.8        1.6262        0.0422       17.6406       17.6828      16.056603       0.21507
   4     651.6        1.6274        0.0430       16.1312       16.1743      14.546830       0.20647
   3     718.7        1.6323        0.0436       14.6717       14.7152      13.082951       0.18397
   2     792.3        1.6437        0.0438       13.2677       13.3115      11.667721       0.16231
   1     891.5        1.6754        0.0438       11.6659       11.7097      10.034369       0.13899
   0    1013.0        1.7556        0.0439       10.1809       10.2248       8.469173       0.10868



 Wavenumbers:  7700. -  8050. cm-1, ATM      1
 LEVEL PRESSURE   UPWARD FLUX   DIFDOWN FLUX  DIRDOWN FLUX  DOWNWARD FLUX   NET FLUX    HEATING RATE
          mb          W/m2          W/m2          W/m2        W/m2          W/m2       degree/day
  51    .06700        2.7485        0.0000        6.7884        6.7884       4.039961       0.00000
  50    .07753        2.7485        0.0000        6.7884        6.7884       4.039942       0.01560
  49    .09103        2.7485        0.0000        6.7884        6.7884       4.039917       0.01529
  48    0.1069        2.7485        0.0000        6.7884        6.7884       4.039889       0.01497
  47    0.1255        2.7485        0.0000        6.7883        6.7884       4.039857       0.01465
  46    0.1487        2.7485        0.0000        6.7883        6.7883       4.039816       0.01486
  45    0.1794        2.7485        0.0000        6.7883        6.7883       4.039761       0.01529
  44    0.2165        2.7485        0.0000        6.7882        6.7882       4.039695       0.01500
  43    0.2613        2.7485        0.0000        6.7881        6.7881       4.039616       0.01472
  42    0.3336        2.7485        0.0000        6.7880        6.7880       4.039487       0.01506
  41    0.4307        2.7485        0.0000        6.7878        6.7878       4.039316       0.01490
  40    0.5894        2.7486        0.0000        6.7876        6.7876       4.039036       0.01488
  39     1.339        2.7486        0.0001        6.7863        6.7864       4.037713       0.01490
  38     1.782        2.7487        0.0001        6.7856        6.7856       4.036936       0.01479
  37     2.292        2.7488        0.0001        6.7847        6.7848       4.036037       0.01489
  36     2.964        2.7488        0.0001        6.7836        6.7837       4.034857       0.01481
  35     3.853        2.7490        0.0002        6.7821        6.7823       4.033299       0.01479
  34     5.035        2.7491        0.0002        6.7801        6.7803       4.031231       0.01477
  33     6.613        2.7493        0.0003        6.7775        6.7778       4.028471       0.01475
  32     8.786        2.7496        0.0004        6.7739        6.7743       4.024758       0.01442
  31     11.80        2.7499        0.0006        6.7688        6.7694       4.019458       0.01484
  30     15.07        2.7504        0.0007        6.7634        6.7641       4.013785       0.01465
  29     18.79        2.7508        0.0009        6.7573        6.7582       4.007397       0.01448
  28     23.16        2.7514        0.0011        6.7502        6.7513       3.999965       0.01437
  27     28.12        2.7520        0.0013        6.7422        6.7435       3.991505       0.01438
  26     33.73        2.7527        0.0016        6.7332        6.7348       3.982087       0.01416
  25     40.54        2.7535        0.0019        6.7224        6.7243       3.970779       0.01403
  24     48.69        2.7546        0.0023        6.7095        6.7118       3.957249       0.01400
  23     57.69        2.7557        0.0027        6.6955        6.6982       3.942515       0.01381
  22     68.43        2.7571        0.0032        6.6790        6.6822       3.925141       0.01366
  21     81.20        2.7587        0.0038        6.6596        6.6634       3.904683       0.01352
  20     96.49        2.7607        0.0045        6.6368        6.6413       3.880642       0.01327
  19     114.6        2.7631        0.0053        6.6103        6.6156       3.852553       0.01312
  18     136.5        2.7659        0.0063        6.5795        6.5858       3.819872       0.01257
  17     162.9        2.7694        0.0075        6.5436        6.5511       3.781736       0.01219
  16     196.4        2.7739        0.0090        6.4985        6.5075       3.733563       0.01213
  15     218.7        2.7770        0.0100        6.4696        6.4796       3.702580       0.01176
  14     243.0        2.7803        0.0110        6.4387        6.4498       3.669422       0.01150
  13     269.0        2.7841        0.0122        6.4059        6.4181       3.634013       0.01149
  12     297.5        2.7882        0.0135        6.3710        6.3844       3.596219       0.01121
  11     328.5        2.7928        0.0148        6.3338        6.3486       3.555850       0.01098
  10     361.9        2.7979        0.0162        6.2944        6.3106       3.512729       0.01091
   9     398.1        2.8035        0.0178        6.2523        6.2701       3.466534       0.01076
   8     437.6        2.8099        0.0194        6.2073        6.2268       3.416819       0.01063
   7     480.5        2.8172        0.0212        6.1592        6.1804       3.363251       0.01052
   6     533.0        2.8266        0.0233        6.0997        6.1230       3.296389       0.01076
   5     589.8        2.8377        0.0257        6.0342        6.0598       3.222068       0.01103
   4     651.6        2.8512        0.0281        5.9603        5.9884       3.137247       0.01160
   3     718.7        2.8677        0.0307        5.8756        5.9063       3.038608       0.01240
   2     792.3        2.8888        0.0335        5.7759        5.8093       2.920518       0.01354
   1     891.5        2.9242        0.0370        5.6232        5.6602       2.735990       0.01570
   0    1013.0        2.9798        0.0411        5.4114        5.4524       2.472682       0.01828



 Wavenumbers:  8050. - 12850. cm-1, ATM      1
 LEVEL PRESSURE   UPWARD FLUX   DIFDOWN FLUX  DIRDOWN FLUX  DOWNWARD FLUX   NET FLUX    HEATING RATE
          mb          W/m2          W/m2          W/m2        W/m2          W/m2       degree/day
  51    .06700       51.7275        0.0000       95.0433       95.0433      43.315801       0.00000
  50    .07753       51.7275        0.0000       95.0433       95.0433      43.315801      -0.00000
  49    .09103       51.7275        0.0001       95.0432       95.0433      43.315801       0.00000
  48    0.1069       51.7274        0.0001       95.0431       95.0432      43.315801      -0.00000
  47    0.1255       51.7274        0.0001       95.0431       95.0432      43.315801      -0.00000
  46    0.1487       51.7274        0.0002       95.0430       95.0432      43.315801       0.00000
  45    0.1794       51.7273        0.0003       95.0428       95.0431      43.315801       0.00000
  44    0.2165       51.7273        0.0004       95.0427       95.0431      43.315801      -0.00000
  43    0.2613       51.7272        0.0005       95.0425       95.0430      43.315801       0.00000
  42    0.3336       51.7271        0.0007       95.0422       95.0429      43.315801      -0.00000
  41    0.4307       51.7270        0.0009       95.0419       95.0428      43.315801       0.00000
  40    0.5894       51.7267        0.0013       95.0412       95.0425      43.315801       0.00000
  39     1.339       51.7256        0.0031       95.0383       95.0414      43.315801       0.00000
  38     1.782       51.7249        0.0042       95.0365       95.0407      43.315801      -0.00000
  37     2.292       51.7242        0.0055       95.0345       95.0400      43.315801       0.00000
  36     2.964       51.7232        0.0071       95.0319       95.0390      43.315801       0.00000
  35     3.853       51.7219        0.0093       95.0284       95.0377      43.315801       0.00000
  34     5.035       51.7201        0.0122       95.0238       95.0359      43.315801       0.00000
  33     6.613       51.7178        0.0160       95.0176       95.0336      43.315801       0.00000
  32     8.786       51.7146        0.0212       95.0092       95.0304      43.315801      -0.00000
  31     11.80       51.7101        0.0287       94.9972       95.0259      43.315801       0.00000
  30     15.07       51.7052        0.0367       94.9843       95.0210      43.315801      -0.00000
  29     18.79       51.6997        0.0457       94.9698       95.0155      43.315801       0.00000
  28     23.16       51.6933        0.0563       94.9528       95.0091      43.315801      -0.00000
  27     28.12       51.6859        0.0684       94.9333       95.0017      43.315801      -0.00000
  26     33.73       51.6776        0.0820       94.9114       94.9934      43.315801       0.00000
  25     40.54       51.6676        0.0984       94.8850       94.9834      43.315801      -0.00000
  24     48.69       51.6556        0.1182       94.8531       94.9714      43.315801       0.00000
  23     57.69       51.6423        0.1400       94.8181       94.9581      43.315801      -0.00000
  22     68.43       51.6265        0.1660       94.7763       94.9423      43.315801       0.00000
  21     81.20       51.6076        0.1971       94.7263       94.9234      43.315801      -0.00000
  20     96.49       51.5851        0.2341       94.6668       94.9009      43.315801       0.00000
  19     114.6       51.5583        0.2781       94.5899       94.8680      43.309692       0.00285
  18     136.5       51.5266        0.3304       94.4984       94.8287      43.302132       0.00291
  17     162.9       51.4888        0.3927       94.3856       94.7784      43.289610       0.00400
  16     196.4       51.4396        0.4737       94.2236       94.6973      43.257705       0.00803
  15     218.7       51.4074        0.5270       94.0795       94.6065      43.199133       0.02224
  14     243.0       51.3725        0.5848       93.8538       94.4386      43.066114       0.04614
  13     269.0       51.3352        0.6472       93.5070       94.1542      42.818963       0.08017
  12     297.5       51.2960        0.7143       93.0333       93.7476      42.451616       0.10895
  11     328.5       51.2550        0.7866       92.4711       93.2577      42.002702       0.12206
  10     361.9       51.2127        0.8639       91.7795       92.6434      41.430682       0.14473
   9     398.1       51.1702        0.9463       90.9110       91.8573      40.687048       0.17325
   8     437.6       51.1294        1.0336       89.8233       90.8569      39.727532       0.20515
   7     480.5       51.0923        1.1255       88.5079       89.6334      38.541081       0.23301
   6     533.0       51.0593        1.2360       86.6887       87.9247      36.865402       0.26956
   5     589.8       51.0464        1.3508       84.4687       85.8195      34.773106       0.31057
   4     651.6       51.0793        1.4673       81.6686       83.1359      32.056614       0.37149
   3     718.7       51.1903        1.5842       78.3644       79.9487      28.758374       0.41450
   2     792.3       51.4491        1.6984       74.4529       76.1513      24.702195       0.46520
   1     891.5       52.1543        1.8336       69.0034       70.8370      18.682741       0.51223
   0    1013.0       53.8453        1.9750       63.0242       64.9991      11.153850       0.52277



 Wavenumbers: 12850. - 16000. cm-1, ATM      1
 LEVEL PRESSURE   UPWARD FLUX   DIFDOWN FLUX  DIRDOWN FLUX  DOWNWARD FLUX   NET FLUX    HEATING RATE
          mb          W/m2          W/m2          W/m2        W/m2          W/m2       degree/day
  51    .06700       46.2989        0.0000       59.5530       59.5530      13.254076       0.00000
  50    .07753       46.2989        0.0001       59.5522       59.5522      13.253295       0.62635
  49    .09103       46.2989        0.0001       59.5511       59.5512      13.252322       0.60842
  48    0.1069       46.2989        0.0002       59.5499       59.5501      13.251214       0.58967
  47    0.1255       46.2988        0.0003       59.5485       59.5488      13.249955       0.57087
  46    0.1487       46.2988        0.0004       59.5468       59.5472      13.248385       0.57211
  45    0.1794       46.2988        0.0006       59.5445       59.5451      13.246282       0.57725
  44    0.2165       46.2988        0.0008       59.5418       59.5426      13.243853       0.55256
  43    0.2613       46.2988        0.0011       59.5387       59.5398      13.241051       0.52828
  42    0.3336       46.2988        0.0015       59.5339       59.5354      13.236599       0.51900
  41    0.4307       46.2988        0.0020       59.5278       59.5298      13.231033       0.48397
  40    0.5894       46.2990        0.0029       59.5187       59.5216      13.222619       0.44747
  39     1.339       46.3014        0.0070       59.4814       59.4883      13.186974       0.40130
  38     1.782       46.3040        0.0094       59.4602       59.4696      13.165594       0.40703
  37     2.292       46.3081        0.0122       59.4341       59.4463      13.138150       0.45455
  36     2.964       46.3153        0.0158       59.3962       59.4120      13.096701       0.52031
  35     3.853       46.3273        0.0206       59.3401       59.3607      13.033480       0.59998
  34     5.035       46.3455        0.0270       59.2595       59.2865      12.941010       0.66057
  33     6.613       46.3711        0.0356       59.1492       59.1848      12.813673       0.68075
  32     8.786       46.4044        0.0471       59.0057       59.0527      12.648399       0.64186
  31     11.80       46.4471        0.0635       58.8162       58.8797      12.432571       0.60425
  30     15.07       46.4876        0.0811       58.6311       58.7121      12.224561       0.53704
  29     18.79       46.5283        0.1009       58.4386       58.5394      12.011143       0.48388
  28     23.16       46.5701        0.1239       58.2327       58.3567      11.786555       0.43428
  27     28.12       46.6113        0.1503       58.0194       58.1697      11.558344       0.38794
  26     33.73       46.6479        0.1797       57.8107       57.9904      11.342552       0.32445
  25     40.54       46.6809        0.2152       57.5931       57.8083      11.127340       0.26699
  24     48.69       46.7101        0.2579       57.3648       57.6227      10.912654       0.22217
  23     57.69       46.7317        0.3048       57.1468       57.4515      10.719832       0.18074
  22     68.43       46.7462        0.3605       56.9214       57.2819      10.535726       0.14473
  21     81.20       46.7480        0.4269       56.6972       57.1241      10.376125       0.10546
  20     96.49       46.7358        0.5060       56.4696       56.9756      10.239767       0.07526
  19     114.6       46.7234        0.6006       56.2149       56.8156      10.092133       0.06893
  18     136.5       46.7020        0.7126       55.9249       56.6375       9.935438       0.06025
  17     162.9       46.6704        0.8455       55.5888       56.4344       9.764026       0.05479
  16     196.4       46.6162        1.0176       55.1763       56.1938       9.577623       0.04692
  15     218.7       46.5760        1.1303       54.9137       56.0440       9.468014       0.04161
  14     243.0       46.5301        1.2526       54.6314       55.8840       9.353883       0.03958
  13     269.0       46.4785        1.3848       54.3287       55.7135       9.234973       0.03857
  12     297.5       46.4212        1.5275       54.0028       55.5303       9.109039       0.03735
  11     328.5       46.3591        1.6812       53.6502       55.3315       8.972416       0.03715
  10     361.9       46.2923        1.8464       53.2685       55.1149       8.822642       0.03789
   9     398.1       46.2212        2.0236       52.8533       54.8769       8.655713       0.03889
   8     437.6       46.1470        2.2134       52.3974       54.6108       8.463762       0.04104
   7     480.5       46.0707        2.4160       51.8959       54.3119       8.241162       0.04372
   6     533.0       45.9833        2.6641       51.2563       53.9204       7.937067       0.04892
   5     589.8       45.9014        2.9296       50.5288       53.4584       7.556943       0.05642
   4     651.6       45.8389        3.2121       49.6722       52.8843       7.045367       0.06996
   3     718.7       45.8044        3.5095       48.6904       52.1999       6.395544       0.08166
   2     792.3       45.8268        3.8184       47.5452       51.3636       5.536811       0.09849
   1     891.5       45.9944        4.2165       45.8534       50.0700       4.075625       0.12434
   0    1013.0       46.4517        4.6665       43.6955       48.3620       1.910300       0.15035



 Wavenumbers: 16000. - 22650. cm-1, ATM      1
 LEVEL PRESSURE   UPWARD FLUX   DIFDOWN FLUX  DIRDOWN FLUX  DOWNWARD FLUX   NET FLUX    HEATING RATE
          mb          W/m2          W/m2          W/m2        W/m2          W/m2       degree/day
  51    .06700       82.6032        0.0000       94.9507       94.9507      12.347493       0.00000
  50    .07753       82.6031        0.0003       94.9501       94.9505      12.347373       0.09633
  49    .09103       82.6030        0.0008       94.9494       94.9502      12.347198       0.10925
  48    0.1069       82.6028        0.0012       94.9485       94.9498      12.346964       0.12458
  47    0.1255       82.6027        0.0018       94.9475       94.9493      12.346650       0.14201
  46    0.1487       82.6025        0.0025       94.9462       94.9487      12.346189       0.16828
  45    0.1794       82.6023        0.0034       94.9443       94.9477      12.345467       0.19813
  44    0.2165       82.6020        0.0046       94.9420       94.9465      12.344488       0.22268
  43    0.2613       82.6018        0.0059       94.9391       94.9450      12.343160       0.25034
  42    0.3336       82.6016        0.0081       94.9341       94.9422      12.340635       0.29439
  41    0.4307       82.6014        0.0111       94.9272       94.9382      12.336829       0.33092
  40    0.5894       82.6014        0.0159       94.9151       94.9310      12.329571       0.38598
  39     1.339       82.6075        0.0386       94.8449       94.8835      12.275958       0.60359
  38     1.782       82.6155        0.0519       94.7939       94.8458      12.230300       0.86925
  37     2.292       82.6288        0.0674       94.7257       94.7930      12.164232       1.09426
  36     2.964       82.6525        0.0876       94.6222       94.7098      12.057252       1.34291
  35     3.853       82.6928        0.1143       94.4661       94.5804      11.887631       1.60974
  34     5.035       82.7549        0.1497       94.2400       94.3898      11.634854       1.80573
  33     6.613       82.8425        0.1970       93.9296       94.1266      11.284131       1.87497
  32     8.786       82.9559        0.2604       93.5242       93.7846      10.828735       1.76859
  31     11.80       83.1012        0.3510       92.9864       93.3374      10.236227       1.65884
  30     15.07       83.2372        0.4478       92.4575       92.9053       9.668043       1.46694
  29     18.79       83.3732        0.5568       91.9039       92.4607       9.087549       1.31616
  28     23.16       83.5113        0.6836       91.3074       91.9910       8.479627       1.17552
  27     28.12       83.6454        0.8281       90.6826       91.5106       7.865244       1.04441
  26     33.73       83.7609        0.9892       90.0619       91.0511       7.290172       0.86464
  25     40.54       83.8605        1.1831       89.4012       90.5843       6.723788       0.70266
  24     48.69       83.9421        1.4160       88.6912       90.1072       6.165104       0.57815
  23     57.69       83.9945        1.6707       87.9939       89.6646       5.670182       0.46392
  22     68.43       84.0168        1.9728       87.2512       89.2241       5.207244       0.36393
  21     81.20       83.9886        2.3313       86.4830       88.8142       4.825658       0.25215
  20     96.49       83.9044        2.7563       85.6753       88.4317       4.527258       0.16470
  19     114.6       83.7798        3.2575       84.7768       88.0342       4.254459       0.12738
  18     136.5       83.6160        3.8464       83.7568       87.6032       3.987139       0.10279
  17     162.9       83.4074        4.5405       82.5874       87.1279       3.720538       0.08522
  16     196.4       83.1059        5.4300       81.1579       86.5879       3.481989       0.06005
  15     218.7       82.8975        6.0077       80.2548       86.2625       3.365001       0.04442
  14     243.0       82.6672        6.6298       79.2942       85.9239       3.256738       0.03755
  13     269.0       82.4140        7.2972       78.2757       85.5730       3.158985       0.03171
  12     297.5       82.1373        8.0109       77.1984       85.2093       3.071970       0.02581
  11     328.5       81.8389        8.7731       76.0534       84.8265       2.987659       0.02292
  10     361.9       81.5187        9.5835       74.8413       84.4249       2.906160       0.02062
   9     398.1       81.1762       10.4442       73.5588       84.0030       2.826820       0.01848
   8     437.6       80.8118       11.3553       72.2039       83.5591       2.747338       0.01699
   7     480.5       80.4255       12.3170       70.7761       83.0930       2.667556       0.01567
   6     533.0       79.9570       13.4801       69.0501       82.5302       2.573199       0.01518
   5     589.8       79.4625       14.7089       67.2233       81.9323       2.469770       0.01535
   4     651.6       78.9457       16.0017       65.2904       81.2921       2.346341       0.01688
   3     718.7       78.4105       17.3565       63.2479       80.6044       2.193898       0.01916
   2     792.3       77.8665       18.7682       61.0882       79.8565       1.990007       0.02338
   1     891.5       77.1923       20.6088       58.2063       78.8151       1.622812       0.03125
   0    1013.0       76.4776       22.7210       54.8188       77.5399       1.062296       0.03892



 Wavenumbers: 22650. - 29000. cm-1, ATM      1
 LEVEL PRESSURE   UPWARD FLUX   DIFDOWN FLUX  DIRDOWN FLUX  DOWNWARD FLUX   NET FLUX    HEATING RATE
          mb          W/m2          W/m2          W/m2        W/m2          W/m2       degree/day
  51    .06700       35.5645        0.0000       35.8309       35.8309       0.266395       0.00000
  50    .07753       35.5644        0.0004       35.8304       35.8308       0.266395       0.00000
  49    .09103       35.5642        0.0009       35.8297       35.8306       0.266395       0.00000
  48    0.1069       35.5639        0.0014       35.8289       35.8303       0.266395       0.00000
  47    0.1255       35.5637        0.0021       35.8280       35.8301       0.266395      -0.00000
  46    0.1487       35.5633        0.0029       35.8268       35.8297       0.266395       0.00000
  45    0.1794       35.5629        0.0040       35.8252       35.8293       0.266395       0.00000
  44    0.2165       35.5623        0.0053       35.8234       35.8287       0.266395       0.00000
  43    0.2613       35.5617        0.0069       35.8212       35.8281       0.266395       0.00000
  42    0.3336       35.5606        0.0095       35.8175       35.8270       0.266395       0.00000
  41    0.4307       35.5591        0.0129       35.8126       35.8255       0.266395       0.00000
  40    0.5894       35.5568        0.0185       35.8047       35.8232       0.266395      -0.00000
  39     1.339       35.5457        0.0450       35.7671       35.8121       0.266395       0.00000
  38     1.782       35.5392        0.0605       35.7451       35.8056       0.266395      -0.00000
  37     2.292       35.5317        0.0785       35.7196       35.7981       0.266395       0.00000
  36     2.964       35.5218        0.1021       35.6861       35.7882       0.266395       0.00000
  35     3.853       35.5088        0.1333       35.6419       35.7752       0.266395      -0.00000
  34     5.035       35.4915        0.1747       35.5833       35.7579       0.266395       0.00000
  33     6.613       35.4685        0.2298       35.5051       35.7349       0.266395       0.00000
  32     8.786       35.4375        0.3040       35.3999       35.7039       0.266395       0.00000
  31     11.80       35.3932        0.4098       35.2498       35.6596       0.266395      -0.00000
  30     15.07       35.3459        0.5230       35.0893       35.6123       0.266395       0.00000
  29     18.79       35.2927        0.6504       34.9087       35.5591       0.266395       0.00000
  28     23.16       35.2308        0.7984       34.6988       35.4972       0.266395       0.00000
  27     28.12       35.1604        0.9667       34.4601       35.4268       0.266395      -0.00000
  26     33.73       35.0821        1.1538       34.1947       35.3485       0.266395       0.00000
  25     40.54       34.9883        1.3781       33.8766       35.2547       0.266395       0.00000
  24     48.69       34.8763        1.6460       33.4967       35.1427       0.266395      -0.00000
  23     57.69       34.7546        1.9369       33.0841       35.0210       0.266395       0.00000
  22     68.43       34.6115        2.2790       32.5989       34.8779       0.266395       0.00000
  21     81.20       34.4437        2.6802       32.0299       34.7101       0.266395      -0.00000
  20     96.49       34.2474        3.1493       31.3645       34.5138       0.266395       0.00000
  19     114.6       34.0195        3.6938       30.5921       34.2859       0.266395       0.00000
  18     136.5       33.7565        4.3219       29.7009       34.0229       0.266395       0.00000
  17     162.9       33.4531        5.0463       28.6733       33.7195       0.266395       0.00000
  16     196.4       33.0753        5.9482       27.3935       33.3417       0.266395      -0.00000
  15     218.7       32.8361        6.5187       26.5838       33.1025       0.266395       0.00000
  14     243.0       32.5841        7.1200       25.7305       32.8505       0.266395       0.00000
  13     269.0       32.3198        7.7499       24.8364       32.5862       0.266395       0.00000
  12     297.5       32.0444        8.4063       23.9045       32.3108       0.266395      -0.00000
  11     328.5       31.7581        9.0883       22.9362       32.0245       0.266395       0.00000
  10     361.9       31.4624        9.7923       21.9365       31.7288       0.266395       0.00000
   9     398.1       31.1579       10.5167       20.9076       31.4243       0.266395      -0.00000
   8     437.6       30.8464       11.2574       19.8554       31.1127       0.266395      -0.00000
   7     480.5       30.5293       12.0106       18.7851       30.7957       0.266395       0.00000
   6     533.0       30.1611       12.8844       17.5431       30.4275       0.266395      -0.00000
   5     589.8       29.7897       13.7647       16.2913       30.0561       0.266395       0.00000
   4     651.6       29.4184       14.6435       15.0414       29.6848       0.266395      -0.00000
   3     718.7       29.0498       15.5146       13.8016       29.3162       0.266395      -0.00000
   2     792.3       28.6866       16.3710       12.5821       28.9530       0.266395       0.00000
   1     891.5       28.2435       17.4133       11.0965       28.5099       0.266395      -0.00000
   0    1013.0       27.7752       18.5105        9.5311       28.0416       0.266395       0.00000



 Wavenumbers: 29000. - 38000. cm-1, ATM      1
 LEVEL PRESSURE   UPWARD FLUX   DIFDOWN FLUX  DIRDOWN FLUX  DOWNWARD FLUX   NET FLUX    HEATING RATE
          mb          W/m2          W/m2          W/m2        W/m2          W/m2       degree/day
  51    .06700        5.0376        0.0000       12.6355       12.6355       7.597876       0.00000
  50    .07753        5.0374        0.0003       12.6312       12.6315       7.594079       3.04409
  49    .09103        5.0371        0.0007       12.6250       12.6257       7.588561       3.44882
  48    0.1069        5.0368        0.0011       12.6169       12.6180       7.581187       3.92500
  47    0.1255        5.0365        0.0016       12.6062       12.6078       7.571349       4.45997
  46    0.1487        5.0360        0.0022       12.5908       12.5930       7.556923       5.25859
  45    0.1794        5.0355        0.0030       12.5670       12.5700       7.534561       6.13896
  44    0.2165        5.0348        0.0040       12.5354       12.5394       7.504617       6.81172
  43    0.2613        5.0340        0.0052       12.4936       12.4987       7.464706       7.52296
  42    0.3336        5.0328        0.0071       12.4169       12.4240       7.391162       8.57455
  41    0.4307        5.0313        0.0095       12.3074       12.3169       7.285611       9.17740
  40    0.5894        5.0289        0.0134       12.1166       12.1300       7.101073       9.81351
  39     1.339        5.0205        0.0297       11.1819       11.2115       6.191003      10.24573
  38     1.782        5.0173        0.0380       10.7276       10.7655       5.748237       8.42956
  37     2.292        5.0149        0.0469       10.2900       10.3369       5.322029       7.05911
  36     2.964        5.0135        0.0578        9.8130        9.8708       4.857251       5.83436
  35     3.853        5.0143        0.0713        9.3032        9.3745       4.360203       4.71708
  34     5.035        5.0179        0.0881        8.7876        8.8757       3.857889       3.58832
  33     6.613        5.0244        0.1094        8.2878        8.3973       3.372861       2.59296
  32     8.786        5.0334        0.1369        7.8152        7.9522       2.918751       1.76360
  31     11.80        5.0445        0.1746        7.3499        7.5246       2.480044       1.22824
  30     15.07        5.0542        0.2135        6.9885        7.2021       2.147847       0.85767
  29     18.79        5.0633        0.2558        6.6702        6.9261       1.862738       0.64643
  28     23.16        5.0719        0.3035        6.3730        6.6765       1.604610       0.49914
  27     28.12        5.0790        0.3561        6.0976        6.4536       1.374613       0.39098
  26     33.73        5.0824        0.4134        5.8505        6.2639       1.181472       0.29039
  25     40.54        5.0810        0.4809        5.6085        6.0894       1.008413       0.21470
  24     48.69        5.0743        0.5600        5.3660        5.9260       0.851642       0.16223
  23     57.69        5.0622        0.6444        5.1406        5.7850       0.722726       0.12084
  22     68.43        5.0427        0.7419        4.9103        5.6523       0.609606       0.08893
  21     81.20        5.0116        0.8550        4.6780        5.5331       0.521516       0.05821
  20     96.49        4.9680        0.9853        4.4386        5.4239       0.455967       0.03618
  19     114.6        4.9151        1.1328        4.1813        5.3140       0.398909       0.02664
  18     136.5        4.8543        1.2975        3.9022        5.1996       0.345379       0.02058
  17     162.9        4.7854        1.4801        3.5996        5.0797       0.294305       0.01633
  16     196.4        4.6990        1.6983        3.2513        4.9496       0.250622       0.01100
  15     218.7        4.6451        1.8310        3.0439        4.8749       0.229797       0.00791
  14     243.0        4.5897        1.9662        2.8344        4.8005       0.210879       0.00656
  13     269.0        4.5331        2.1027        2.6246        4.7272       0.194185       0.00542
  12     297.5        4.4756        2.2397        2.4156        4.6553       0.179701       0.00430
  11     328.5        4.4182        2.3758        2.2085        4.5843       0.166068       0.00371
  10     361.9        4.3616        2.5096        2.0053        4.5149       0.153315       0.00323
   9     398.1        4.3060        2.6402        1.8072        4.4475       0.141417       0.00277
   8     437.6        4.2522        2.7664        1.6159        4.3823       0.130122       0.00241
   7     480.5        4.2003        2.8874        1.4325        4.3199       0.119556       0.00208
   6     533.0        4.1442        3.0180        1.2344        4.2524       0.108206       0.00183
   5     589.8        4.0920        3.1387        1.0506        4.1894       0.097373       0.00161
   4     651.6        4.0443        3.2489        0.8823        4.1312       0.086904       0.00143
   3     718.7        4.0014        3.3478        0.7303        4.0781       0.076762       0.00127
   2     792.3        3.9635        3.4350        0.5954        4.0304       0.066921       0.00113
   1     891.5        3.9233        3.5278        0.4504        3.9782       0.054869       0.00103
   0    1013.0        3.8883        3.6096        0.3204        3.9299       0.041657       0.00092



 Wavenumbers: 38000. - 50000. cm-1, ATM      1
 LEVEL PRESSURE   UPWARD FLUX   DIFDOWN FLUX  DIRDOWN FLUX  DOWNWARD FLUX   NET FLUX    HEATING RATE
          mb          W/m2          W/m2          W/m2        W/m2          W/m2       degree/day
  51    .06700        0.0050        0.0000        0.7793        0.7793       0.774343       0.00000
  50    .07753        0.0049        0.0001        0.7769        0.7770       0.772011       1.86903
  49    .09103        0.0049        0.0002        0.7734        0.7736       0.768690       2.07617
  48    0.1069        0.0048        0.0002        0.7689        0.7691       0.764335       2.31806
  47    0.1255        0.0047        0.0004        0.7630        0.7633       0.758629       2.58687
  46    0.1487        0.0046        0.0005        0.7545        0.7550       0.750410       2.99580
  45    0.1794        0.0044        0.0007        0.7416        0.7423       0.737892       3.43662
  44    0.2165        0.0042        0.0009        0.7248        0.7257       0.721456       3.73875
  43    0.2613        0.0040        0.0011        0.7030        0.7041       0.700037       4.03749
  42    0.3336        0.0037        0.0015        0.6640        0.6654       0.661723       4.46697
  41    0.4307        0.0033        0.0019        0.6106        0.6125       0.609121       4.57369
  40    0.5894        0.0028        0.0024        0.5240        0.5264       0.523571       4.54940
  39     1.339        0.0014        0.0029        0.2158        0.2188       0.217390       3.44704
  38     1.782        0.0009        0.0026        0.1319        0.1344       0.133499       1.59716
  37     2.292        0.0007        0.0021        0.0812        0.0833       0.082647       0.84223
  36     2.964        0.0004        0.0017        0.0469        0.0486       0.048146       0.43309
  35     3.853        0.0003        0.0013        0.0253        0.0266       0.026346       0.20689
  34     5.035        0.0002        0.0009        0.0130        0.0139       0.013782       0.08975
  33     6.613        0.0001        0.0007        0.0060        0.0066       0.006565       0.03858
  32     8.786        0.0000        0.0004        0.0023        0.0028       0.002724       0.01492
  31     11.80        0.0000        0.0002        0.0007        0.0009       0.000935       0.00501
  30     15.07        0.0000        0.0001        0.0002        0.0004       0.000355       0.00150
  29     18.79        0.0000        0.0001        0.0001        0.0001       0.000139       0.00049
  28     23.16        0.0000        0.0000        0.0000        0.0001       0.000055       0.00016
  27     28.12        0.0000        0.0000        0.0000        0.0000       0.000022       0.00006
  26     33.73        0.0000        0.0000        0.0000        0.0000       0.000009       0.00002
  25     40.54        0.0000        0.0000        0.0000        0.0000       0.000004       0.00001
  24     48.69        0.0000        0.0000        0.0000        0.0000       0.000001       0.00000
  23     57.69        0.0000        0.0000        0.0000        0.0000       0.000001       0.00000
  22     68.43        0.0000        0.0000        0.0000        0.0000       0.000000       0.00000
  21     81.20        0.0000        0.0000        0.0000        0.0000       0.000000       0.00000
  20     96.49        0.0000        0.0000        0.0000        0.0000       0.000000       0.00000
  19     114.6        0.0000        0.0000        0.0000        0.0000       0.000000       0.00000
  18     136.5        0.0000        0.0000        0.0000        0.0000       0.000000       0.00000
  17     162.9        0.0000        0.0000        0.0000        0.0000       0.000000       0.00000
  16     196.4        0.0000        0.0000        0.0000        0.0000       0.000000       0.00000
  15     218.7        0.0000        0.0000        0.0000        0.0000       0.000000       0.00000
  14     243.0        0.0000        0.0000        0.0000        0.0000       0.000000       0.00000
  13     269.0        0.0000        0.0000        0.0000        0.0000       0.000000       0.00000
  12     297.5        0.0000        0.0000        0.0000        0.0000       0.000000       0.00000
  11     328.5        0.0000        0.0000        0.0000        0.0000       0.000000       0.00000
  10     361.9        0.0000        0.0000        0.0000        0.0000       0.000000       0.00000
   9     398.1        0.0000        0.0000        0.0000        0.0000       0.000000       0.00000
   8     437.6        0.0000        0.0000        0.0000        0.0000       0.000000       0.00000
   7     480.5        0.0000        0.0000        0.0000        0.0000       0.000000       0.00000
   6     533.0        0.0000        0.0000        0.0000        0.0000       0.000000       0.00000
   5     589.8        0.0000        0.0000        0.0000        0.0000       0.000000       0.00000
   4     651.6        0.0000        0.0000        0.0000        0.0000       0.000000       0.00000
   3     718.7        0.0000        0.0000        0.0000        0.0000       0.000000       0.00000
   2     792.3        0.0000        0.0000        0.0000        0.0000       0.000000       0.00000
   1     891.5        0.0000        0.0000        0.0000        0.0000       0.000000       0.00000
   0    1013.0        0.0000        0.0000        0.0000        0.0000       0.000000       0.00000



 Wavenumbers:   820. -  2600. cm-1, ATM      1
 LEVEL PRESSURE   UPWARD FLUX   DIFDOWN FLUX  DIRDOWN FLUX  DOWNWARD FLUX   NET FLUX    HEATING RATE
          mb          W/m2          W/m2          W/m2        W/m2          W/m2       degree/day
  51    .06700        0.0083        0.0000        3.6457        3.6457       3.637362       0.00000
  50    .07753        0.0083        0.0000        3.6431        3.6431       3.634755       2.08949
  49    .09103        0.0083        0.0000        3.6423        3.6423       3.633941       0.50933
  48    0.1069        0.0083        0.0000        3.6414        3.6414       3.633049       0.47443
  47    0.1255        0.0083        0.0000        3.6404        3.6404       3.632093       0.43349
  46    0.1487        0.0083        0.0000        3.6393        3.6393       3.630994       0.40067
  45    0.1794        0.0083        0.0000        3.6380        3.6380       3.629676       0.36172
  44    0.2165        0.0083        0.0000        3.6366        3.6366       3.628313       0.31015
  43    0.2613        0.0083        0.0000        3.6352        3.6352       3.626858       0.27426
  42    0.3336        0.0083        0.0000        3.6329        3.6329       3.624606       0.26259
  41    0.4307        0.0083        0.0000        3.6300        3.6300       3.621677       0.25463
  40    0.5894        0.0083        0.0000        3.6252        3.6252       3.616873       0.25546
  39     1.339        0.0083        0.0000        3.6036        3.6036       3.595287       0.24302
  38     1.782        0.0083        0.0000        3.5917        3.5917       3.583416       0.22600
  37     2.292        0.0083        0.0000        3.5787        3.5787       3.570417       0.21531
  36     2.964        0.0083        0.0000        3.5629        3.5629       3.554544       0.19925
  35     3.853        0.0083        0.0000        3.5436        3.5436       3.535231       0.18329
  34     5.035        0.0083        0.0000        3.5197        3.5197       3.511414       0.17013
  33     6.613        0.0083        0.0000        3.4905        3.4905       3.482142       0.15649
  32     8.786        0.0083        0.0000        3.4561        3.4561       3.447734       0.13363
  31     11.80        0.0083        0.0000        3.4184        3.4184       3.410118       0.10531
  30     15.07        0.0083        0.0000        3.3908        3.3908       3.382435       0.07147
  29     18.79        0.0083        0.0000        3.3691        3.3691       3.360754       0.04916
  28     23.16        0.0083        0.0000        3.3495        3.3495       3.341176       0.03786
  27     28.12        0.0083        0.0000        3.3295        3.3296       3.321233       0.03390
  26     33.73        0.0083        0.0000        3.3084        3.3084       3.300049       0.03185
  25     40.54        0.0083        0.0000        3.2838        3.2838       3.275529       0.03042
  24     48.69        0.0083        0.0000        3.2557        3.2558       3.247438       0.02907
  23     57.69        0.0083        0.0000        3.2263        3.2263       3.217941       0.02765
  22     68.43        0.0083        0.0000        3.1930        3.1930       3.184644       0.02618
  21     81.20        0.0083        0.0000        3.1559        3.1559       3.147631       0.02446
  20     96.49        0.0083        0.0000        3.1151        3.1151       3.106807       0.02253
  19     114.6        0.0083        0.0000        3.0701        3.0701       3.061761       0.02103
  18     136.5        0.0083        0.0000        3.0215        3.0215       3.013202       0.01867
  17     162.9        0.0083        0.0000        2.9653        2.9653       2.957025       0.01796
  16     196.4        0.0083        0.0000        2.8882        2.8882       2.879873       0.01942
  15     218.7        0.0083        0.0000        2.8251        2.8251       2.816829       0.02394
  14     243.0        0.0083        0.0000        2.7419        2.7419       2.733645       0.02885
  13     269.0        0.0083        0.0000        2.6401        2.6401       2.631843       0.03302
  12     297.5        0.0083        0.0000        2.4999        2.5000       2.491653       0.04158
  11     328.5        0.0083        0.0000        2.3346        2.3346       2.326280       0.04496
  10     361.9        0.0083        0.0000        2.1625        2.1626       2.154263       0.04352
   9     398.1        0.0083        0.0000        2.0113        2.0113       2.002966       0.03525
   8     437.6        0.0083        0.0000        1.8958        1.8959       1.887528       0.02468
   7     480.5        0.0084        0.0000        1.8115        1.8115       1.803128       0.01658
   6     533.0        0.0084        0.0000        1.7211        1.7211       1.712764       0.01454
   5     589.8        0.0084        0.0000        1.6174        1.6174       1.608963       0.01541
   4     651.6        0.0085        0.0000        1.4929        1.4929       1.484429       0.01703
   3     718.7        0.0087        0.0000        1.3622        1.3622       1.353578       0.01644
   2     792.3        0.0090        0.0000        1.2214        1.2215       1.212531       0.01618
   1     891.5        0.0097        0.0000        1.0060        1.0061       0.996384       0.01839
   0    1013.0        0.0115        0.0000        0.7162        0.7163       0.704814       0.02025

  Modules and versions used in this calculation:

       rrtmg_sw.1col.f90:  $Revision$                    rrtmg_sw_init.f90:  $Revision$        
     rrtmgsw_cldprop.f90:  $Revision$                  rrtmgsw_cldprmc.f90:  NOT USED          
     rrtmg_sw_reftra.f90:  $Revision$                  rrtmg_sw_spcvrt.f90:  NOT USED          
     rrtmg_sw_spcvmc.f90:  NOT USED                    rrtmgsw_setcoef.f90:  NOT USED          
     rrtmg_sw_taumol.f90:  $Revision$                  rrtmg_sw_vrtqdr.f90:  NOT USED          
                rrtatm.f:  NOT USED                             util_xxx.f:  NOT USED          
                 extra.f:  NOT USED                       rrtmg_sw_k_g.f90:  $Revision$        

