

 Wavenumbers:   820. - 50000. cm-1, ATM      1
 LEVEL PRESSURE   UPWARD FLUX   DIFDOWN FLUX  DIRDOWN FLUX  DOWNWARD FLUX   NET FLUX    HEATING RATE
          mb          W/m2          W/m2          W/m2        W/m2          W/m2       degree/day
  51    .06700      124.8329        0.0000      212.8837      212.8837      88.050833       0.00000
  50    .07753      124.8321        0.0011      212.8696      212.8707      88.038516       9.87177
  49    .09103      124.8312        0.0024      212.8547      212.8571      88.025839       7.92356
  48    0.1069      124.8302        0.0039      212.8366      212.8405      88.010350       8.24490
  47    0.1255      124.8290        0.0057      212.8143      212.8200      87.991003       8.77124
  46    0.1487      124.8275        0.0079      212.7838      212.7917      87.964161       9.78419
  45    0.1794      124.8255        0.0109      212.7391      212.7499      87.924426      10.90800
  44    0.2165      124.8232        0.0144      212.6822      212.6966      87.873396      11.60849
  43    0.2613      124.8206        0.0186      212.6100      212.6286      87.808009      12.32524
  42    0.3336      124.8163        0.0254      212.4840      212.5094      87.693163      13.38986
  41    0.4307      124.8108        0.0343      212.3156      212.3499      87.539057      13.39918
  40    0.5894      124.8024        0.0485      212.0481      212.0966      87.294270      13.01747
  39     1.339      124.7699        0.1116      211.0386      211.1502      86.380317      10.28946
  38     1.782      124.7554        0.1471      210.6101      210.7572      86.001869       7.20503
  37     2.292      124.7423        0.1876      210.1762      210.3638      85.621447       6.30078
  36     2.964      124.7307        0.2399      209.6618      209.9016      85.170898       5.65575
  35     3.853      124.7231        0.3080      209.0436      209.3516      84.628566       5.14682
  34     5.035      124.7206        0.3974      208.3066      208.7040      83.983392       4.60886
  33     6.613      124.7222        0.5154      207.4377      207.9531      83.230930       4.02266
  32     8.786      124.7225        0.6725      206.4183      207.0908      82.368270       3.35026
  31     11.80      124.7127        0.8944      205.1602      206.0545      81.341828       2.87371
  30     15.07      124.6899        1.1292      203.9769      205.1061      80.416217       2.38975
  29     18.79      124.6535        1.3911      202.7716      204.1627      79.509212       2.05646
  28     23.16      124.5986        1.6928      201.4937      203.1865      78.587857       1.78160
  27     28.12      124.5216        2.0330      200.1638      202.1968      77.675232       1.55140
  26     33.73      124.4136        2.4086      198.8301      201.2387      76.825089       1.27821
  25     40.54      124.2584        2.8558      197.3839      200.2397      75.981287       1.04683
  24     48.69      124.0489        3.3860      195.8012      199.1872      75.138281       0.87238
  23     57.69      123.7985        3.9579      194.2158      198.1736      74.375134       0.71534
  22     68.43      123.4796        4.6257      192.4915      197.1173      73.637668       0.57975
  21     81.20      123.0709        5.4044      190.6487      196.0531      72.982123       0.43317
  20     96.49      122.5621        6.3090      188.6593      194.9683      72.406203       0.31787
  19     114.6      121.9654        7.3515      186.4304      193.7819      71.816539       0.27533
  18     136.5      121.2715        8.5437      183.9344      192.4781      71.206559       0.23455
  17     162.9      120.4690        9.9050      181.1037      191.0087      70.539795       0.21312
  16     196.4      119.4541       11.5866      177.5894      189.1759      69.721859       0.20588
  15     218.7      118.8086       12.6417      175.1774      187.8191      69.010444       0.27010
  14     243.0      118.1281       13.7476      172.2971      186.0448      67.916699       0.37935
  13     269.0      117.4143       14.9006      168.9042      183.8048      66.390523       0.49508
  12     297.5      116.6699       16.0971      165.0862      181.1833      64.513438       0.55672
  11     328.5      115.8975       17.3360      161.0176      178.3536      62.456067       0.55939
  10     361.9      115.1018       18.6108      156.7158      175.3266      60.224886       0.56451
   9     398.1      114.2845       19.9192      152.2030      172.1221      57.837590       0.55619
   8     437.6      113.4502       21.2566      147.4574      168.7140      55.263769       0.55030
   7     480.5      112.6033       22.6176      142.5485      165.1661      52.562788       0.53046
   6     533.0      111.6251       24.1992      136.7558      160.9550      49.329916       0.52007
   5     589.8      110.6500       25.7969      130.7239      156.5209      45.870814       0.51344
   4     651.6      109.7015       27.3998      124.1948      151.5946      41.893136       0.54396
   3     718.7      108.8030       28.9980      117.2894      146.2874      37.484448       0.55405
   2     792.3      108.0063       30.5753      109.9957      140.5710      32.564670       0.56424
   1     891.5      107.2591       32.5034      100.6633      133.1667      25.907601       0.56648
   0    1013.0      106.9558       34.5517       90.6090      125.1607      18.204922       0.53484



 Wavenumbers:  2600. -  3250. cm-1, ATM      1
 LEVEL PRESSURE   UPWARD FLUX   DIFDOWN FLUX  DIRDOWN FLUX  DOWNWARD FLUX   NET FLUX    HEATING RATE
          mb          W/m2          W/m2          W/m2        W/m2          W/m2       degree/day
  51    .06700        0.0099        0.0000        1.8762        1.8762       1.866319       0.00000
  50    .07753        0.0099        0.0000        1.8762        1.8762       1.866311       0.00640
  49    .09103        0.0099        0.0000        1.8762        1.8762       1.866301       0.00626
  48    0.1069        0.0099        0.0000        1.8762        1.8762       1.866289       0.00612
  47    0.1255        0.0099        0.0000        1.8762        1.8762       1.866276       0.00598
  46    0.1487        0.0099        0.0000        1.8762        1.8762       1.866259       0.00606
  45    0.1794        0.0099        0.0000        1.8761        1.8761       1.866237       0.00622
  44    0.2165        0.0099        0.0000        1.8761        1.8761       1.866210       0.00608
  43    0.2613        0.0099        0.0000        1.8761        1.8761       1.866178       0.00595
  42    0.3336        0.0099        0.0000        1.8760        1.8760       1.866126       0.00611
  41    0.4307        0.0099        0.0000        1.8760        1.8760       1.866056       0.00612
  40    0.5894        0.0099        0.0000        1.8758        1.8759       1.865938       0.00625
  39     1.339        0.0099        0.0000        1.8752        1.8752       1.865260       0.00764
  38     1.782        0.0099        0.0000        1.8747        1.8747       1.864758       0.00956
  37     2.292        0.0099        0.0000        1.8740        1.8740       1.864119       0.01057
  36     2.964        0.0099        0.0000        1.8731        1.8731       1.863237       0.01107
  35     3.853        0.0099        0.0000        1.8720        1.8720       1.862068       0.01109
  34     5.035        0.0099        0.0000        1.8705        1.8705       1.860595       0.01053
  33     6.613        0.0099        0.0000        1.8688        1.8688       1.858850       0.00933
  32     8.786        0.0099        0.0000        1.8668        1.8668       1.856909       0.00753
  31     11.80        0.0099        0.0000        1.8646        1.8646       1.854735       0.00609
  30     15.07        0.0099        0.0000        1.8627        1.8627       1.852802       0.00499
  29     18.79        0.0099        0.0000        1.8606        1.8606       1.850744       0.00467
  28     23.16        0.0099        0.0000        1.8581        1.8581       1.848234       0.00485
  27     28.12        0.0099        0.0000        1.8550        1.8550       1.845086       0.00535
  26     33.73        0.0099        0.0000        1.8509        1.8509       1.841003       0.00614
  25     40.54        0.0099        0.0000        1.8451        1.8451       1.835187       0.00721
  24     48.69        0.0099        0.0000        1.8371        1.8371       1.827174       0.00829
  23     57.69        0.0099        0.0000        1.8275        1.8275       1.817600       0.00897
  22     68.43        0.0099        0.0000        1.8157        1.8157       1.805830       0.00925
  21     81.20        0.0099        0.0000        1.8020        1.8021       1.792180       0.00902
  20     96.49        0.0099        0.0000        1.7871        1.7871       1.777243       0.00824
  19     114.6        0.0099        0.0000        1.7714        1.7714       1.761531       0.00734
  18     136.5        0.0099        0.0000        1.7560        1.7561       1.746227       0.00588
  17     162.9        0.0099        0.0001        1.7413        1.7413       1.731468       0.00472
  16     196.4        0.0098        0.0001        1.7249        1.7250       1.715116       0.00412
  15     218.7        0.0098        0.0001        1.7130        1.7130       1.703203       0.00452
  14     243.0        0.0098        0.0001        1.6960        1.6961       1.686248       0.00588
  13     269.0        0.0098        0.0001        1.6718        1.6719       1.662076       0.00784
  12     297.5        0.0098        0.0001        1.6372        1.6373       1.627466       0.01026
  11     328.5        0.0098        0.0001        1.5923        1.5924       1.582599       0.01220
  10     361.9        0.0098        0.0001        1.5368        1.5369       1.527043       0.01406
   9     398.1        0.0098        0.0001        1.4705        1.4706       1.460799       0.01543
   8     437.6        0.0098        0.0001        1.3950        1.3951       1.385260       0.01615
   7     480.5        0.0099        0.0001        1.3137        1.3138       1.303962       0.01597
   6     533.0        0.0099        0.0001        1.2169        1.2171       1.207197       0.01557
   5     589.8        0.0099        0.0002        1.1118        1.1120       1.102051       0.01561
   4     651.6        0.0100        0.0002        0.9896        0.9897       0.979708       0.01673
   3     718.7        0.0101        0.0002        0.8589        0.8590       0.848910       0.01644
   2     792.3        0.0103        0.0002        0.7265        0.7267       0.716370       0.01520
   1     891.5        0.0107        0.0001        0.5686        0.5688       0.558043       0.01347
   0    1013.0        0.0116        0.0001        0.4129        0.4130       0.401350       0.01088



 Wavenumbers:  3250. -  4000. cm-1, ATM      1
 LEVEL PRESSURE   UPWARD FLUX   DIFDOWN FLUX  DIRDOWN FLUX  DOWNWARD FLUX   NET FLUX    HEATING RATE
          mb          W/m2          W/m2          W/m2        W/m2          W/m2       degree/day
  51    .06700        0.0004        0.0000        3.1631        3.1631       3.162647       0.00000
  50    .07753        0.0004        0.0000        3.1598        3.1598       3.159427       2.58085
  49    .09103        0.0004        0.0000        3.1582        3.1582       3.157827       0.99974
  48    0.1069        0.0004        0.0000        3.1569        3.1569       3.156489       0.71244
  47    0.1255        0.0004        0.0000        3.1557        3.1557       3.155268       0.55323
  46    0.1487        0.0004        0.0000        3.1544        3.1544       3.154028       0.45221
  45    0.1794        0.0004        0.0000        3.1530        3.1530       3.152636       0.38212
  44    0.2165        0.0004        0.0000        3.1516        3.1516       3.151194       0.32806
  43    0.2613        0.0004        0.0000        3.1500        3.1500       3.149595       0.30136
  42    0.3336        0.0004        0.0000        3.1475        3.1475       3.147095       0.29150
  41    0.4307        0.0004        0.0000        3.1445        3.1445       3.144051       0.26465
  40    0.5894        0.0004        0.0000        3.1401        3.1401       3.139725       0.23005
  39     1.339        0.0004        0.0000        3.1267        3.1267       3.126284       0.15132
  38     1.782        0.0004        0.0000        3.1210        3.1210       3.120553       0.10909
  37     2.292        0.0004        0.0000        3.1149        3.1149       3.114480       0.10060
  36     2.964        0.0004        0.0000        3.1072        3.1072       3.106845       0.09584
  35     3.853        0.0004        0.0000        3.0973        3.0973       3.096946       0.09394
  34     5.035        0.0004        0.0000        3.0843        3.0843       3.083867       0.09343
  33     6.613        0.0004        0.0000        3.0668        3.0668       3.066417       0.09329
  32     8.786        0.0004        0.0000        3.0432        3.0432       3.042828       0.09161
  31     11.80        0.0004        0.0000        3.0105        3.0105       3.010093       0.09165
  30     15.07        0.0004        0.0000        2.9779        2.9780       2.977574       0.08396
  29     18.79        0.0004        0.0000        2.9451        2.9452       2.944787       0.07434
  28     23.16        0.0004        0.0000        2.9115        2.9115       2.911127       0.06509
  27     28.12        0.0004        0.0000        2.8770        2.8771       2.876721       0.05849
  26     33.73        0.0004        0.0000        2.8410        2.8410       2.840647       0.05424
  25     40.54        0.0003        0.0001        2.7983        2.7984       2.798027       0.05287
  24     48.69        0.0003        0.0001        2.7478        2.7479       2.747553       0.05223
  23     57.69        0.0003        0.0001        2.6941        2.6942       2.693873       0.05032
  22     68.43        0.0003        0.0001        2.6340        2.6341       2.633752       0.04726
  21     81.20        0.0003        0.0001        2.5684        2.5685       2.568183       0.04333
  20     96.49        0.0003        0.0001        2.4980        2.4981       2.497841       0.03882
  19     114.6        0.0003        0.0001        2.4193        2.4194       2.419186       0.03673
  18     136.5        0.0002        0.0002        2.3377        2.3379       2.337666       0.03135
  17     162.9        0.0002        0.0002        2.2503        2.2505       2.250320       0.02792
  16     196.4        0.0002        0.0002        2.1389        2.1391       2.138918       0.02804
  15     218.7        0.0002        0.0002        2.0363        2.0365       2.036340       0.03895
  14     243.0        0.0001        0.0002        1.8844        1.8847       1.884527       0.05265
  13     269.0        0.0001        0.0002        1.6674        1.6676       1.667486       0.07041
  12     297.5        0.0001        0.0002        1.4170        1.4173       1.417162       0.07424
  11     328.5        0.0001        0.0002        1.1978        1.1981       1.198002       0.05959
  10     361.9        0.0001        0.0002        1.0115        1.0117       1.011630       0.04715
   9     398.1        0.0000        0.0002        0.8467        0.8469       0.846822       0.03840
   8     437.6        0.0000        0.0002        0.6950        0.6952       0.695131       0.03243
   7     480.5        0.0000        0.0002        0.5571        0.5573       0.557310       0.02707
   6     533.0        0.0000        0.0002        0.4089        0.4091       0.409078       0.02385
   5     589.8        0.0000        0.0001        0.2723        0.2725       0.272469       0.02028
   4     651.6        0.0000        0.0001        0.1521        0.1522       0.152200       0.01645
   3     718.7        0.0000        0.0001        0.0619        0.0620       0.061958       0.01134
   2     792.3        0.0000        0.0000        0.0129        0.0129       0.012927       0.00562
   1     891.5        0.0000        0.0000        0.0004        0.0004       0.000371       0.00107
   0    1013.0        0.0000        0.0000        0.0000        0.0000       0.000002       0.00003



 Wavenumbers:  4000. -  4650. cm-1, ATM      1
 LEVEL PRESSURE   UPWARD FLUX   DIFDOWN FLUX  DIRDOWN FLUX  DOWNWARD FLUX   NET FLUX    HEATING RATE
          mb          W/m2          W/m2          W/m2        W/m2          W/m2       degree/day
  51    .06700        0.2692        0.0000        3.7144        3.7144       3.445183       0.00000
  50    .07753        0.2692        0.0000        3.7144        3.7144       3.445183       0.00080
  49    .09103        0.2692        0.0000        3.7144        3.7144       3.445181       0.00078
  48    0.1069        0.2692        0.0000        3.7144        3.7144       3.445180       0.00076
  47    0.1255        0.2692        0.0000        3.7144        3.7144       3.445178       0.00075
  46    0.1487        0.2692        0.0000        3.7144        3.7144       3.445176       0.00076
  45    0.1794        0.2692        0.0000        3.7144        3.7144       3.445173       0.00078
  44    0.2165        0.2692        0.0000        3.7144        3.7144       3.445170       0.00076
  43    0.2613        0.2692        0.0000        3.7144        3.7144       3.445166       0.00075
  42    0.3336        0.2692        0.0000        3.7144        3.7144       3.445159       0.00077
  41    0.4307        0.2692        0.0000        3.7143        3.7143       3.445150       0.00077
  40    0.5894        0.2692        0.0000        3.7143        3.7143       3.445136       0.00079
  39     1.339        0.2692        0.0000        3.7142        3.7142       3.445046       0.00100
  38     1.782        0.2692        0.0000        3.7142        3.7142       3.444977       0.00133
  37     2.292        0.2692        0.0000        3.7141        3.7141       3.444883       0.00155
  36     2.964        0.2692        0.0000        3.7139        3.7139       3.444743       0.00176
  35     3.853        0.2692        0.0000        3.7137        3.7137       3.444536       0.00196
  34     5.035        0.2692        0.0000        3.7134        3.7134       3.444231       0.00218
  33     6.613        0.2692        0.0000        3.7129        3.7130       3.443784       0.00239
  32     8.786        0.2692        0.0000        3.7123        3.7123       3.443128       0.00255
  31     11.80        0.2692        0.0000        3.7112        3.7113       3.442104       0.00287
  30     15.07        0.2691        0.0001        3.7100        3.7101       3.440914       0.00307
  29     18.79        0.2691        0.0001        3.7086        3.7086       3.439489       0.00323
  28     23.16        0.2691        0.0001        3.7068        3.7069       3.437742       0.00338
  27     28.12        0.2691        0.0001        3.7047        3.7048       3.435655       0.00355
  26     33.73        0.2691        0.0001        3.7021        3.7022       3.433119       0.00381
  25     40.54        0.2691        0.0001        3.6986        3.6988       3.429736       0.00420
  24     48.69        0.2690        0.0002        3.6942        3.6943       3.425317       0.00457
  23     57.69        0.2690        0.0002        3.6890        3.6892       3.420179       0.00482
  22     68.43        0.2690        0.0002        3.6826        3.6828       3.413867       0.00496
  21     81.20        0.2689        0.0003        3.6749        3.6752       3.406233       0.00504
  20     96.49        0.2689        0.0003        3.6656        3.6660       3.397099       0.00504
  19     114.6        0.2688        0.0004        3.6543        3.6547       3.385883       0.00524
  18     136.5        0.2688        0.0005        3.6408        3.6413       3.372558       0.00512
  17     162.9        0.2687        0.0006        3.6245        3.6251       3.356427       0.00516
  16     196.4        0.2686        0.0007        3.6025        3.6032       3.334579       0.00550
  15     218.7        0.2686        0.0008        3.5863        3.5871       3.318519       0.00610
  14     243.0        0.2685        0.0008        3.5660        3.5669       3.298376       0.00699
  13     269.0        0.2685        0.0009        3.5398        3.5407       3.272227       0.00848
  12     297.5        0.2685        0.0010        3.5049        3.5060       3.237470       0.01031
  11     328.5        0.2685        0.0011        3.4614        3.4625       3.193983       0.01182
  10     361.9        0.2686        0.0012        3.4091        3.4104       3.141789       0.01321
   9     398.1        0.2687        0.0013        3.3493        3.3506       3.081943       0.01394
   8     437.6        0.2688        0.0015        3.2821        3.2835       3.014693       0.01438
   7     480.5        0.2690        0.0016        3.2077        3.2093       2.940297       0.01461
   6     533.0        0.2693        0.0017        3.1084        3.1101       2.840826       0.01600
   5     589.8        0.2697        0.0018        2.9851        2.9869       2.717181       0.01835
   4     651.6        0.2704        0.0020        2.8280        2.8299       2.559516       0.02156
   3     718.7        0.2715        0.0021        2.6505        2.6526       2.381091       0.02242
   2     792.3        0.2733        0.0022        2.4616        2.4637       2.190428       0.02187
   1     891.5        0.2774        0.0022        2.2091        2.2113       1.933939       0.02183
   0    1013.0        0.2861        0.0023        1.9279        1.9302       1.644122       0.02012



 Wavenumbers:  4650. -  5150. cm-1, ATM      1
 LEVEL PRESSURE   UPWARD FLUX   DIFDOWN FLUX  DIRDOWN FLUX  DOWNWARD FLUX   NET FLUX    HEATING RATE
          mb          W/m2          W/m2          W/m2        W/m2          W/m2       degree/day
  51    .06700        0.0554        0.0000        3.5158        3.5158       3.460424       0.00000
  50    .07753        0.0554        0.0000        3.5156        3.5156       3.460189       0.18818
  49    .09103        0.0554        0.0000        3.5153        3.5153       3.459899       0.18167
  48    0.1069        0.0554        0.0000        3.5150        3.5150       3.459570       0.17473
  47    0.1255        0.0554        0.0000        3.5146        3.5146       3.459201       0.16759
  46    0.1487        0.0554        0.0000        3.5142        3.5142       3.458745       0.16602
  45    0.1794        0.0554        0.0000        3.5135        3.5135       3.458142       0.16557
  44    0.2165        0.0554        0.0000        3.5129        3.5129       3.457455       0.15625
  43    0.2613        0.0554        0.0000        3.5121        3.5121       3.456678       0.14657
  42    0.3336        0.0554        0.0000        3.5109        3.5109       3.455469       0.14088
  41    0.4307        0.0554        0.0000        3.5094        3.5094       3.454006       0.12722
  40    0.5894        0.0554        0.0000        3.5073        3.5073       3.451902       0.11188
  39     1.339        0.0554        0.0000        3.5006        3.5006       3.445244       0.07496
  38     1.782        0.0554        0.0000        3.4982        3.4982       3.442849       0.04560
  37     2.292        0.0554        0.0000        3.4962        3.4962       3.440799       0.03396
  36     2.964        0.0554        0.0000        3.4941        3.4941       3.438735       0.02591
  35     3.853        0.0554        0.0000        3.4919        3.4919       3.436491       0.02130
  34     5.035        0.0554        0.0000        3.4891        3.4892       3.433781       0.01936
  33     6.613        0.0554        0.0000        3.4855        3.4856       3.430213       0.01907
  32     8.786        0.0554        0.0000        3.4805        3.4806       3.425220       0.01939
  31     11.80        0.0553        0.0001        3.4729        3.4730       3.417623       0.02127
  30     15.07        0.0553        0.0001        3.4641        3.4642       3.408872       0.02259
  29     18.79        0.0553        0.0001        3.4535        3.4536       3.398320       0.02392
  28     23.16        0.0553        0.0001        3.4404        3.4406       3.385281       0.02521
  27     28.12        0.0553        0.0002        3.4248        3.4250       3.369722       0.02645
  26     33.73        0.0552        0.0002        3.4070        3.4072       3.351930       0.02675
  25     40.54        0.0552        0.0002        3.3854        3.3857       3.330462       0.02663
  24     48.69        0.0552        0.0003        3.3603        3.3606       3.305403       0.02593
  23     57.69        0.0551        0.0003        3.3344        3.3347       3.279614       0.02417
  22     68.43        0.0551        0.0004        3.3064        3.3068       3.251736       0.02192
  21     81.20        0.0550        0.0004        3.2770        3.2775       3.222463       0.01934
  20     96.49        0.0549        0.0005        3.2465        3.2470       3.192111       0.01675
  19     114.6        0.0548        0.0006        3.2143        3.2149       3.160068       0.01496
  18     136.5        0.0547        0.0007        3.1786        3.1793       3.124552       0.01366
  17     162.9        0.0546        0.0008        3.1362        3.1370       3.082382       0.01348
  16     196.4        0.0545        0.0010        3.0790        3.0800       3.025482       0.01432
  15     218.7        0.0544        0.0011        3.0391        3.0401       2.985752       0.01508
  14     243.0        0.0543        0.0012        2.9928        2.9939       2.939649       0.01599
  13     269.0        0.0542        0.0013        2.9385        2.9398       2.885576       0.01754
  12     297.5        0.0541        0.0014        2.8737        2.8751       2.820985       0.01916
  11     328.5        0.0540        0.0015        2.8003        2.8018       2.747837       0.01989
  10     361.9        0.0539        0.0017        2.7187        2.7203       2.666422       0.02060
   9     398.1        0.0538        0.0018        2.6288        2.6306       2.576754       0.02089
   8     437.6        0.0538        0.0019        2.5313        2.5332       2.479467       0.02080
   7     480.5        0.0537        0.0020        2.4273        2.4294       2.375673       0.02038
   6     533.0        0.0537        0.0022        2.3023        2.3045       2.250800       0.02009
   5     589.8        0.0537        0.0023        2.1703        2.1726       2.118888       0.01958
   4     651.6        0.0538        0.0024        2.0263        2.0287       1.974917       0.01969
   3     718.7        0.0540        0.0025        1.8728        1.8754       1.821343       0.01930
   2     792.3        0.0544        0.0026        1.7124        1.7151       1.660631       0.01843
   1     891.5        0.0554        0.0027        1.5115        1.5142       1.458765       0.01718
   0    1013.0        0.0573        0.0027        1.3050        1.3077       1.250440       0.01447



 Wavenumbers:  5150. -  6150. cm-1, ATM      1
 LEVEL PRESSURE   UPWARD FLUX   DIFDOWN FLUX  DIRDOWN FLUX  DOWNWARD FLUX   NET FLUX    HEATING RATE
          mb          W/m2          W/m2          W/m2        W/m2          W/m2       degree/day
  51    .06700        0.6514        0.0000        8.8142        8.8142       8.162837       0.00000
  50    .07753        0.6514        0.0000        8.8142        8.8142       8.162798       0.03155
  49    .09103        0.6514        0.0000        8.8141        8.8141       8.162747       0.03203
  48    0.1069        0.6514        0.0000        8.8141        8.8141       8.162686       0.03252
  47    0.1255        0.6514        0.0000        8.8140        8.8140       8.162613       0.03301
  46    0.1487        0.6514        0.0000        8.8139        8.8139       8.162518       0.03476
  45    0.1794        0.6514        0.0000        8.8137        8.8137       8.162383       0.03696
  44    0.2165        0.6514        0.0000        8.8136        8.8136       8.162218       0.03748
  43    0.2613        0.6514        0.0000        8.8134        8.8134       8.162016       0.03801
  42    0.3336        0.6514        0.0000        8.8130        8.8130       8.161673       0.04008
  41    0.4307        0.6514        0.0000        8.8126        8.8126       8.161207       0.04051
  40    0.5894        0.6514        0.0000        8.8118        8.8118       8.160430       0.04132
  39     1.339        0.6513        0.0000        8.8081        8.8081       8.156749       0.04144
  38     1.782        0.6513        0.0000        8.8059        8.8060       8.154651       0.03994
  37     2.292        0.6513        0.0001        8.8036        8.8036       8.152317       0.03866
  36     2.964        0.6513        0.0001        8.8006        8.8007       8.149411       0.03647
  35     3.853        0.6513        0.0001        8.7970        8.7971       8.145814       0.03414
  34     5.035        0.6513        0.0001        8.7924        8.7926       8.141324       0.03208
  33     6.613        0.6512        0.0002        8.7868        8.7870       8.135741       0.02985
  32     8.786        0.6512        0.0002        8.7799        8.7801       8.128924       0.02648
  31     11.80        0.6511        0.0003        8.7712        8.7715       8.120357       0.02398
  30     15.07        0.6510        0.0004        8.7631        8.7635       8.112462       0.02038
  29     18.79        0.6509        0.0005        8.7553        8.7558       8.104871       0.01721
  28     23.16        0.6508        0.0006        8.7476        8.7482       8.097365       0.01451
  27     28.12        0.6507        0.0007        8.7401        8.7408       8.090125       0.01231
  26     33.73        0.6506        0.0008        8.7331        8.7339       8.083308       0.01025
  25     40.54        0.6504        0.0010        8.7257        8.7267       8.076300       0.00869
  24     48.69        0.6503        0.0012        8.7181        8.7194       8.069094       0.00746
  23     57.69        0.6501        0.0014        8.7107        8.7121       8.062046       0.00661
  22     68.43        0.6498        0.0017        8.7025        8.7042       8.054327       0.00607
  21     81.20        0.6496        0.0020        8.6931        8.6951       8.045564       0.00579
  20     96.49        0.6492        0.0024        8.6820        8.6844       8.035185       0.00573
  19     114.6        0.6489        0.0029        8.6684        8.6713       8.022410       0.00597
  18     136.5        0.6484        0.0034        8.6512        8.6546       8.006180       0.00624
  17     162.9        0.6479        0.0040        8.6238        8.6279       7.980000       0.00837
  16     196.4        0.6472        0.0048        8.5590        8.5638       7.916672       0.01594
  15     218.7        0.6467        0.0054        8.4500        8.4554       7.808654       0.04101
  14     243.0        0.6463        0.0059        8.2426        8.2485       7.602226       0.07160
  13     269.0        0.6458        0.0064        7.9619        7.9683       7.322510       0.09074
  12     297.5        0.6453        0.0068        7.6196        7.6265       6.981178       0.10124
  11     328.5        0.6448        0.0073        7.2354        7.2427       6.597842       0.10423
  10     361.9        0.6444        0.0077        6.8367        6.8444       6.200087       0.10064
   9     398.1        0.6439        0.0081        6.4364        6.4445       5.800602       0.09307
   8     437.6        0.6435        0.0085        6.0429        6.0514       5.407878       0.08397
   7     480.5        0.6431        0.0088        5.6871        5.6959       5.052736       0.06975
   6     533.0        0.6428        0.0092        5.3400        5.3492       4.706407       0.05571
   5     589.8        0.6427        0.0096        5.0535        5.0630       4.420396       0.04245
   4     651.6        0.6428        0.0099        4.7969        4.8068       4.163982       0.03507
   3     718.7        0.6435        0.0104        4.5389        4.5492       3.905706       0.03246
   2     792.3        0.6453        0.0108        4.2494        4.2602       3.614936       0.03335
   1     891.5        0.6499        0.0114        3.9180        3.9294       3.279481       0.02855
   0    1013.0        0.6606        0.0119        3.6297        3.6417       2.981079       0.02072



 Wavenumbers:  6150. -  7700. cm-1, ATM      1
 LEVEL PRESSURE   UPWARD FLUX   DIFDOWN FLUX  DIRDOWN FLUX  DOWNWARD FLUX   NET FLUX    HEATING RATE
          mb          W/m2          W/m2          W/m2        W/m2          W/m2       degree/day
  51    .06700        1.0244        0.0000       16.3022       16.3022      15.277812       0.00000
  50    .07753        1.0244        0.0000       16.3022       16.3022      15.277755       0.04553
  49    .09103        1.0244        0.0000       16.3021       16.3021      15.277682       0.04581
  48    0.1069        1.0244        0.0000       16.3020       16.3020      15.277595       0.04611
  47    0.1255        1.0244        0.0000       16.3019       16.3019      15.277493       0.04640
  46    0.1487        1.0244        0.0000       16.3017       16.3018      15.277360       0.04846
  45    0.1794        1.0244        0.0000       16.3015       16.3016      15.277174       0.05117
  44    0.2165        1.0244        0.0000       16.3013       16.3013      15.276947       0.05154
  43    0.2613        1.0244        0.0000       16.3010       16.3011      15.276672       0.05193
  42    0.3336        1.0244        0.0000       16.3005       16.3006      15.276205       0.05446
  41    0.4307        1.0244        0.0000       16.2999       16.2999      15.275574       0.05486
  40    0.5894        1.0243        0.0001       16.2988       16.2989      15.274524       0.05583
  39     1.339        1.0243        0.0001       16.2937       16.2938      15.269527       0.05626
  38     1.782        1.0242        0.0002       16.2907       16.2909      15.266650       0.05478
  37     2.292        1.0242        0.0002       16.2873       16.2876      15.263412       0.05361
  36     2.964        1.0241        0.0003       16.2831       16.2834      15.259323       0.05133
  35     3.853        1.0240        0.0004       16.2778       16.2782      15.254165       0.04895
  34     5.035        1.0239        0.0005       16.2710       16.2715      15.247610       0.04683
  33     6.613        1.0237        0.0007       16.2623       16.2630      15.239269       0.04459
  32     8.786        1.0235        0.0009       16.2513       16.2522      15.228714       0.04099
  31     11.80        1.0232        0.0012       16.2368       16.2381      15.214884       0.03872
  30     15.07        1.0229        0.0016       16.2227       16.2243      15.201461       0.03465
  29     18.79        1.0225        0.0020       16.2084       16.2104      15.187903       0.03074
  28     23.16        1.0220        0.0025       16.1934       16.1958      15.173784       0.02730
  27     28.12        1.0215        0.0030       16.1780       16.1810      15.159438       0.02439
  26     33.73        1.0209        0.0036       16.1627       16.1663      15.145360       0.02117
  25     40.54        1.0203        0.0043       16.1464       16.1507      15.130465       0.01848
  24     48.69        1.0194        0.0051       16.1292       16.1344      15.114950       0.01606
  23     57.69        1.0185        0.0061       16.1123       16.1184      15.099889       0.01412
  22     68.43        1.0174        0.0072       16.0940       16.1012      15.083743       0.01269
  21     81.20        1.0161        0.0085       16.0736       16.0821      15.065995       0.01173
  20     96.49        1.0146        0.0101       16.0502       16.0604      15.045791       0.01115
  19     114.6        1.0127        0.0120       16.0226       16.0346      15.021850       0.01118
  18     136.5        1.0106        0.0143       15.9890       16.0033      14.992724       0.01120
  17     162.9        1.0080        0.0170       15.9394       15.9563      14.948384       0.01417
  16     196.4        1.0046        0.0204       15.8366       15.8570      14.852446       0.02415
  15     218.7        1.0024        0.0226       15.6897       15.7123      14.709933       0.05411
  14     243.0        1.0001        0.0249       15.3964       15.4212      14.421174       0.10015
  13     269.0        0.9976        0.0271       14.9290       14.9561      13.958496       0.15009
  12     297.5        0.9951        0.0292       14.3489       14.3781      13.383002       0.17069
  11     328.5        0.9925        0.0313       13.7151       13.7464      12.753836       0.17107
  10     361.9        0.9899        0.0333       13.0115       13.0448      12.054856       0.17685
   9     398.1        0.9873        0.0352       12.2683       12.3035      11.316170       0.17210
   8     437.6        0.9848        0.0368       11.4989       11.5357      10.550887       0.16362
   7     480.5        0.9823        0.0382       10.7403       10.7785       9.796205       0.14822
   6     533.0        0.9797        0.0397        9.9069        9.9466       8.966833       0.13342
   5     589.8        0.9775        0.0408        9.0985        9.1393       8.161799       0.11949
   4     651.6        0.9763        0.0415        8.2694        8.3108       7.334586       0.11312
   3     718.7        0.9765        0.0419        7.4772        7.5191       6.542602       0.09953
   2     792.3        0.9794        0.0420        6.7227        6.7647       5.785321       0.08685
   1     891.5        0.9897        0.0419        5.8763        5.9182       4.928501       0.07291
   0    1013.0        1.0170        0.0418        5.0999        5.1417       4.124682       0.05581



 Wavenumbers:  7700. -  8050. cm-1, ATM      1
 LEVEL PRESSURE   UPWARD FLUX   DIFDOWN FLUX  DIRDOWN FLUX  DOWNWARD FLUX   NET FLUX    HEATING RATE
          mb          W/m2          W/m2          W/m2        W/m2          W/m2       degree/day
  51    .06700        1.5070        0.0000        3.8527        3.8527       2.345650       0.00000
  50    .07753        1.5070        0.0000        3.8527        3.8527       2.345632       0.01496
  49    .09103        1.5070        0.0000        3.8527        3.8527       2.345608       0.01466
  48    0.1069        1.5070        0.0000        3.8526        3.8526       2.345581       0.01435
  47    0.1255        1.5070        0.0000        3.8526        3.8526       2.345550       0.01404
  46    0.1487        1.5071        0.0000        3.8526        3.8526       2.345511       0.01425
  45    0.1794        1.5071        0.0000        3.8525        3.8525       2.345458       0.01466
  44    0.2165        1.5071        0.0000        3.8524        3.8524       2.345395       0.01438
  43    0.2613        1.5071        0.0000        3.8524        3.8524       2.345320       0.01411
  42    0.3336        1.5071        0.0000        3.8522        3.8523       2.345196       0.01443
  41    0.4307        1.5071        0.0000        3.8521        3.8521       2.345032       0.01427
  40    0.5894        1.5071        0.0000        3.8518        3.8518       2.344764       0.01426
  39     1.339        1.5071        0.0001        3.8505        3.8506       2.343496       0.01427
  38     1.782        1.5071        0.0001        3.8498        3.8499       2.342753       0.01416
  37     2.292        1.5072        0.0001        3.8489        3.8490       2.341893       0.01424
  36     2.964        1.5072        0.0001        3.8478        3.8480       2.340765       0.01416
  35     3.853        1.5072        0.0002        3.8463        3.8465       2.339278       0.01412
  34     5.035        1.5073        0.0002        3.8444        3.8446       2.337305       0.01409
  33     6.613        1.5074        0.0003        3.8417        3.8420       2.334677       0.01405
  32     8.786        1.5075        0.0004        3.8382        3.8386       2.331149       0.01370
  31     11.80        1.5076        0.0005        3.8332        3.8337       2.326127       0.01406
  30     15.07        1.5078        0.0007        3.8279        3.8285       2.320771       0.01383
  29     18.79        1.5080        0.0008        3.8219        3.8227       2.314763       0.01362
  28     23.16        1.5082        0.0010        3.8149        3.8160       2.307804       0.01346
  27     28.12        1.5084        0.0012        3.8071        3.8083       2.299922       0.01340
  26     33.73        1.5087        0.0015        3.7984        3.7999       2.291197       0.01312
  25     40.54        1.5090        0.0018        3.7880        3.7898       2.280788       0.01291
  24     48.69        1.5094        0.0021        3.7757        3.7778       2.268427       0.01279
  23     57.69        1.5099        0.0025        3.7624        3.7650       2.255080       0.01251
  22     68.43        1.5104        0.0030        3.7469        3.7499       2.239489       0.01226
  21     81.20        1.5111        0.0035        3.7289        3.7324       2.221329       0.01200
  20     96.49        1.5119        0.0042        3.7079        3.7121       2.200240       0.01164
  19     114.6        1.5128        0.0049        3.6838        3.6887       2.175930       0.01135
  18     136.5        1.5140        0.0058        3.6562        3.6620       2.148076       0.01071
  17     162.9        1.5154        0.0069        3.6246        3.6315       2.116160       0.01020
  16     196.4        1.5172        0.0083        3.5854        3.5937       2.076492       0.00998
  15     218.7        1.5185        0.0092        3.5607        3.5698       2.051360       0.00954
  14     243.0        1.5199        0.0101        3.5345        3.5446       2.024768       0.00922
  13     269.0        1.5214        0.0112        3.5069        3.5181       1.996667       0.00912
  12     297.5        1.5231        0.0123        3.4778        3.4901       1.966929       0.00882
  11     328.5        1.5251        0.0135        3.4470        3.4605       1.935425       0.00857
  10     361.9        1.5273        0.0148        3.4145        3.4293       1.902024       0.00845
   9     398.1        1.5297        0.0162        3.3800        3.3961       1.866435       0.00829
   8     437.6        1.5325        0.0176        3.3431        3.3608       1.828260       0.00816
   7     480.5        1.5357        0.0192        3.3037        3.3229       1.787186       0.00807
   6     533.0        1.5399        0.0211        3.2548        3.2759       1.736016       0.00823
   5     589.8        1.5450        0.0231        3.2010        3.2241       1.679136       0.00844
   4     651.6        1.5512        0.0253        3.1401        3.1654       1.614155       0.00889
   3     718.7        1.5590        0.0275        3.0701        3.0976       1.538575       0.00950
   2     792.3        1.5691        0.0298        2.9874        3.0172       1.448144       0.01037
   1     891.5        1.5864        0.0328        2.8608        2.8936       1.307250       0.01199
   0    1013.0        1.6136        0.0362        2.6849        2.7211       1.107479       0.01387



 Wavenumbers:  8050. - 12850. cm-1, ATM      1
 LEVEL PRESSURE   UPWARD FLUX   DIFDOWN FLUX  DIRDOWN FLUX  DOWNWARD FLUX   NET FLUX    HEATING RATE
          mb          W/m2          W/m2          W/m2        W/m2          W/m2       degree/day
  51    .06700       28.5687        0.0000       53.9406       53.9406      25.371891       0.00000
  50    .07753       28.5687        0.0000       53.9406       53.9406      25.371891       0.00000
  49    .09103       28.5687        0.0001       53.9405       53.9406      25.371891      -0.00000
  48    0.1069       28.5687        0.0001       53.9405       53.9405      25.371891       0.00000
  47    0.1255       28.5686        0.0001       53.9404       53.9405      25.371891       0.00000
  46    0.1487       28.5686        0.0002       53.9403       53.9405      25.371891      -0.00000
  45    0.1794       28.5685        0.0003       53.9402       53.9404      25.371891       0.00000
  44    0.2165       28.5685        0.0003       53.9400       53.9404      25.371891       0.00000
  43    0.2613       28.5684        0.0004       53.9398       53.9403      25.371891      -0.00000
  42    0.3336       28.5683        0.0006       53.9396       53.9402      25.371891       0.00000
  41    0.4307       28.5681        0.0008       53.9392       53.9400      25.371891      -0.00000
  40    0.5894       28.5678        0.0012       53.9385       53.9397      25.371891      -0.00000
  39     1.339       28.5665        0.0029       53.9356       53.9384      25.371891       0.00000
  38     1.782       28.5658        0.0038       53.9339       53.9377      25.371891       0.00000
  37     2.292       28.5649        0.0050       53.9318       53.9368      25.371891      -0.00000
  36     2.964       28.5638        0.0065       53.9292       53.9357      25.371891       0.00000
  35     3.853       28.5623        0.0085       53.9257       53.9342      25.371891      -0.00000
  34     5.035       28.5603        0.0111       53.9211       53.9322      25.371891       0.00000
  33     6.613       28.5576        0.0146       53.9149       53.9295      25.371891      -0.00000
  32     8.786       28.5540        0.0194       53.9065       53.9259      25.371891       0.00000
  31     11.80       28.5488        0.0262       53.8945       53.9207      25.371891       0.00000
  30     15.07       28.5432        0.0335       53.8817       53.9151      25.371891      -0.00000
  29     18.79       28.5369        0.0417       53.8671       53.9088      25.371891       0.00000
  28     23.16       28.5296        0.0514       53.8501       53.9015      25.371891       0.00000
  27     28.12       28.5212        0.0624       53.8306       53.8931      25.371891       0.00000
  26     33.73       28.5117        0.0748       53.8088       53.8836      25.371891      -0.00000
  25     40.54       28.5003        0.0898       53.7824       53.8722      25.371891      -0.00000
  24     48.69       28.4865        0.1078       53.7506       53.8584      25.371891       0.00000
  23     57.69       28.4714        0.1277       53.7156       53.8433      25.371891       0.00000
  22     68.43       28.4533        0.1514       53.6739       53.8252      25.371891       0.00000
  21     81.20       28.4318        0.1796       53.6241       53.8037      25.371891       0.00000
  20     96.49       28.4061        0.2133       53.5647       53.7780      25.371891      -0.00000
  19     114.6       28.3756        0.2534       53.4881       53.7415      25.365858       0.00282
  18     136.5       28.3394        0.3009       53.3970       53.6978      25.358435       0.00285
  17     162.9       28.2962        0.3575       53.2850       53.6425      25.346233       0.00390
  16     196.4       28.2402        0.4310       53.1248       53.5558      25.315641       0.00770
  15     218.7       28.2034        0.4792       52.9855       53.4647      25.261284       0.02064
  14     243.0       28.1636        0.5315       52.7776       53.3091      25.145569       0.04013
  13     269.0       28.1206        0.5879       52.4822       53.0702      24.949522       0.06360
  12     297.5       28.0748        0.6484       52.0946       52.7430      24.668169       0.08345
  11     328.5       28.0260        0.7133       51.6197       52.3331      24.307049       0.09819
  10     361.9       27.9745        0.7825       51.0345       51.8171      23.842588       0.11751
   9     398.1       27.9206        0.8560       50.3205       51.1765      23.255951       0.13667
   8     437.6       27.8651        0.9335       49.4505       50.3840      22.518927       0.15758
   7     480.5       27.8088        1.0145       48.4248       49.4393      21.630528       0.17448
   6     533.0       27.7455        1.1112       47.0638       48.1749      20.429434       0.19322
   5     589.8       27.6876        1.2107       45.4790       46.6897      19.002161       0.21185
   4     651.6       27.6456        1.3105       43.5302       44.8408      17.195229       0.24710
   3     718.7       27.6324        1.4092       41.2593       42.6685      15.036060       0.27135
   2     792.3       27.6754        1.5034       38.6919       40.1952      12.519783       0.28859
   1     891.5       27.8717        1.6118       35.3137       36.9254       9.053782       0.29494
   0    1013.0       28.4041        1.7211       31.7269       33.4480       5.043964       0.27842



 Wavenumbers: 12850. - 16000. cm-1, ATM      1
 LEVEL PRESSURE   UPWARD FLUX   DIFDOWN FLUX  DIRDOWN FLUX  DOWNWARD FLUX   NET FLUX    HEATING RATE
          mb          W/m2          W/m2          W/m2        W/m2          W/m2       degree/day
  51    .06700       25.1705        0.0000       33.7986       33.7986       8.628079       0.00000
  50    .07753       25.1704        0.0001       33.7977       33.7978       8.627307       0.61876
  49    .09103       25.1704        0.0001       33.7966       33.7968       8.626359       0.59266
  48    0.1069       25.1704        0.0002       33.7955       33.7957       8.625297       0.56512
  47    0.1255       25.1703        0.0003       33.7941       33.7944       8.624112       0.53732
  46    0.1487       25.1703        0.0004       33.7925       33.7929       8.622662       0.52862
  45    0.1794       25.1702        0.0006       33.7904       33.7909       8.620772       0.51886
  44    0.2165       25.1701        0.0007       33.7880       33.7887       8.618652       0.48216
  43    0.2613       25.1700        0.0010       33.7853       33.7863       8.616288       0.44570
  42    0.3336       25.1699        0.0013       33.7812       33.7825       8.612682       0.42036
  41    0.4307       25.1697        0.0018       33.7763       33.7781       8.608391       0.37307
  40    0.5894       25.1695        0.0026       33.7691       33.7717       8.602217       0.32834
  39     1.339       25.1692        0.0062       33.7390       33.7452       8.576014       0.29500
  38     1.782       25.1697        0.0083       33.7202       33.7285       8.558780       0.32812
  37     2.292       25.1709        0.0108       33.6956       33.7065       8.535548       0.38477
  36     2.964       25.1734        0.0141       33.6588       33.6729       8.499563       0.45173
  35     3.853       25.1779        0.0184       33.6037       33.6221       8.444200       0.52540
  34     5.035       25.1851        0.0241       33.5243       33.5484       8.363241       0.57834
  33     6.613       25.1955        0.0316       33.4160       33.4476       8.252149       0.59390
  32     8.786       25.2087        0.0418       33.2757       33.3175       8.108781       0.55679
  31     11.80       25.2253        0.0563       33.0919       33.1482       7.922938       0.52030
  30     15.07       25.2402        0.0718       32.9138       32.9856       7.745362       0.45847
  29     18.79       25.2545        0.0892       32.7300       32.8192       7.564737       0.40953
  28     23.16       25.2683        0.1094       32.5353       32.6447       7.376416       0.36415
  27     28.12       25.2806        0.1324       32.3350       32.4674       7.186835       0.32227
  26     33.73       25.2895        0.1580       32.1408       32.2989       7.009375       0.26682
  25     40.54       25.2945        0.1889       31.9397       32.1286       6.834105       0.21744
  24     48.69       25.2951        0.2259       31.7297       31.9555       6.660446       0.17971
  23     57.69       25.2904        0.2663       31.5290       31.7954       6.504948       0.14576
  22     68.43       25.2791        0.3143       31.3211       31.6355       6.356363       0.11681
  21     81.20       25.2578        0.3713       31.1137       31.4850       6.227267       0.08530
  20     96.49       25.2251        0.4390       30.9026       31.3416       6.116443       0.06117
  19     114.6       25.1884        0.5196       30.6645       31.1841       5.995745       0.05636
  18     136.5       25.1415        0.6147       30.3951       31.0098       5.868369       0.04898
  17     162.9       25.0826        0.7272       30.0867       30.8139       5.731267       0.04382
  16     196.4       24.9998        0.8720       29.7145       30.5865       5.586732       0.03638
  15     218.7       24.9432        0.9665       29.4810       30.4475       5.504297       0.03130
  14     243.0       24.8808        1.0686       29.2323       30.3009       5.420166       0.02918
  13     269.0       24.8124        1.1787       28.9676       30.1463       5.333949       0.02797
  12     297.5       24.7379        1.2970       28.6845       29.9815       5.243608       0.02679
  11     328.5       24.6576        1.4240       28.3793       29.8034       5.145794       0.02660
  10     361.9       24.5715        1.5598       28.0502       29.6101       5.038547       0.02713
   9     398.1       24.4797        1.7049       27.6940       29.3989       4.919159       0.02781
   8     437.6       24.3825        1.8593       27.3060       29.1654       4.782843       0.02915
   7     480.5       24.2804        2.0233       26.8845       28.9078       4.627415       0.03053
   6     533.0       24.1583        2.2228       26.3563       28.5791       4.420807       0.03324
   5     589.8       24.0331        2.4347       25.7701       28.2048       4.171676       0.03698
   4     651.6       23.9106        2.6583       25.1009       27.7593       3.848653       0.04417
   3     718.7       23.7951        2.8913       24.3572       27.2485       3.453410       0.04967
   2     792.3       23.6992        3.1306       23.5104       26.6410       2.941819       0.05867
   1     891.5       23.6325        3.4336       22.2802       25.7138       2.081270       0.07323
   0    1013.0       23.6641        3.7673       20.7348       24.5021       0.837972       0.08633



 Wavenumbers: 16000. - 22650. cm-1, ATM      1
 LEVEL PRESSURE   UPWARD FLUX   DIFDOWN FLUX  DIRDOWN FLUX  DOWNWARD FLUX   NET FLUX    HEATING RATE
          mb          W/m2          W/m2          W/m2        W/m2          W/m2       degree/day
  51    .06700       44.6877        0.0000       53.8881       53.8881       9.200348       0.00000
  50    .07753       44.6875        0.0003       53.8875       53.8878       9.200246       0.08222
  49    .09103       44.6873        0.0007       53.8868       53.8874       9.200096       0.09326
  48    0.1069       44.6871        0.0011       53.8859       53.8870       9.199897       0.10634
  47    0.1255       44.6868        0.0016       53.8849       53.8864       9.199629       0.12122
  46    0.1487       44.6865        0.0022       53.8835       53.8857       9.199235       0.14364
  45    0.1794       44.6860        0.0030       53.8816       53.8847       9.198619       0.16912
  44    0.2165       44.6855        0.0040       53.8793       53.8833       9.197784       0.19007
  43    0.2613       44.6850        0.0052       53.8764       53.8816       9.196650       0.21367
  42    0.3336       44.6841        0.0071       53.8715       53.8786       9.194495       0.25126
  41    0.4307       44.6830        0.0097       53.8645       53.8742       9.191247       0.28243
  40    0.5894       44.6814        0.0139       53.8525       53.8664       9.185053       0.32939
  39     1.339       44.6768        0.0339       53.7823       53.8162       9.139318       0.51489
  38     1.782       44.6765        0.0455       53.7313       53.7769       9.100393       0.74106
  37     2.292       44.6782        0.0591       53.6632       53.7223       9.044103       0.93231
  36     2.964       44.6838        0.0768       53.5600       53.6368       8.953042       1.14309
  35     3.853       44.6958        0.1002       53.4045       53.5047       8.808868       1.36824
  34     5.035       44.7164        0.1311       53.1798       53.3109       8.594478       1.53151
  33     6.613       44.7464        0.1723       52.8720       53.0443       8.297922       1.58539
  32     8.786       44.7844        0.2275       52.4713       52.6989       7.914429       1.48935
  31     11.80       44.8303        0.3060       51.9424       52.2484       7.418137       1.38946
  30     15.07       44.8694        0.3896       51.4248       51.8145       6.945067       1.22138
  29     18.79       44.9046        0.4834       50.8859       51.3693       6.464653       1.08925
  28     23.16       44.9354        0.5920       50.3082       50.9002       5.964725       0.96670
  27     28.12       44.9587        0.7152       49.7064       50.4215       5.462840       0.85317
  26     33.73       44.9673        0.8518       49.1117       49.9635       4.996196       0.70161
  25     40.54       44.9578        1.0156       48.4819       49.4975       4.539672       0.56637
  24     48.69       44.9272        1.2111       47.8086       49.0197       4.092487       0.46277
  23     57.69       44.8755        1.4238       47.1508       48.5745       3.699082       0.36876
  22     68.43       44.7945        1.6744       46.4538       48.1282       3.333623       0.28730
  21     81.20       44.6716        1.9698       45.7362       47.7061       3.034451       0.19769
  20     96.49       44.5014        2.3177       44.9858       47.3035       2.802078       0.12825
  19     114.6       44.2901        2.7245       44.1560       46.8805       2.590337       0.09887
  18     136.5       44.0357        3.1981       43.2220       46.4201       2.384416       0.07918
  17     162.9       43.7315        3.7503       42.1621       45.9123       2.180799       0.06508
  16     196.4       43.3303        4.4487       40.8820       45.3307       2.000425       0.04540
  15     218.7       43.0667        4.8969       40.0825       44.9794       1.912745       0.03329
  14     243.0       42.7828        5.3749       39.2401       44.6150       1.832169       0.02795
  13     269.0       42.4785        5.8824       38.3561       44.2384       1.759948       0.02343
  12     297.5       42.1540        6.4188       37.4313       43.8501       1.696151       0.01892
  11     328.5       41.8102        6.9849       36.4601       43.4450       1.634837       0.01667
  10     361.9       41.4481        7.5790       35.4451       43.0241       1.576080       0.01487
   9     398.1       41.0676        8.2011       34.3859       42.5870       1.519404       0.01320
   8     437.6       40.6701        8.8499       33.2835       42.1333       1.463188       0.01202
   7     480.5       40.2564        9.5237       32.1401       41.6638       1.407369       0.01096
   6     533.0       39.7646       10.3235       30.7833       41.1068       1.342221       0.01048
   5     589.8       39.2559       11.1509       29.3770       40.5278       1.271948       0.01043
   4     651.6       38.7343       12.0011       27.9230       39.9241       1.189875       0.01122
   3     718.7       38.2032       12.8704       26.4240       39.2944       1.091210       0.01240
   2     792.3       37.6703       13.7508       24.8835       38.6343       0.963998       0.01459
   1     891.5       37.0116       14.8612       22.8962       37.7574       0.745761       0.01857
   0    1013.0       36.3108       16.0809       20.6634       36.7443       0.433583       0.02168



 Wavenumbers: 22650. - 29000. cm-1, ATM      1
 LEVEL PRESSURE   UPWARD FLUX   DIFDOWN FLUX  DIRDOWN FLUX  DOWNWARD FLUX   NET FLUX    HEATING RATE
          mb          W/m2          W/m2          W/m2        W/m2          W/m2       degree/day
  51    .06700       20.2260        0.0000       20.3354       20.3354       0.109407       0.00000
  50    .07753       20.2258        0.0003       20.3348       20.3352       0.109407      -0.00000
  49    .09103       20.2255        0.0008       20.3341       20.3349       0.109407       0.00000
  48    0.1069       20.2252        0.0013       20.3334       20.3346       0.109407       0.00000
  47    0.1255       20.2249        0.0018       20.3324       20.3343       0.109407      -0.00000
  46    0.1487       20.2244        0.0025       20.3313       20.3338       0.109407       0.00000
  45    0.1794       20.2238        0.0035       20.3297       20.3332       0.109407       0.00000
  44    0.2165       20.2231        0.0047       20.3278       20.3325       0.109407       0.00000
  43    0.2613       20.2222        0.0060       20.3256       20.3316       0.109407       0.00000
  42    0.3336       20.2208        0.0083       20.3219       20.3302       0.109407       0.00000
  41    0.4307       20.2190        0.0113       20.3171       20.3284       0.109407      -0.00000
  40    0.5894       20.2159        0.0162       20.3092       20.3253       0.109407       0.00000
  39     1.339       20.2015        0.0393       20.2716       20.3110       0.109407      -0.00000
  38     1.782       20.1931        0.0529       20.2496       20.3025       0.109407       0.00000
  37     2.292       20.1834        0.0686       20.2242       20.2928       0.109407       0.00000
  36     2.964       20.1706        0.0892       20.1908       20.2800       0.109407      -0.00000
  35     3.853       20.1537        0.1163       20.1468       20.2631       0.109407       0.00000
  34     5.035       20.1313        0.1523       20.0884       20.2407       0.109407      -0.00000
  33     6.613       20.1015        0.2002       20.0107       20.2110       0.109407      -0.00000
  32     8.786       20.0616        0.2645       19.9065       20.1710       0.109407       0.00000
  31     11.80       20.0047        0.3560       19.7582       20.1141       0.109407       0.00000
  30     15.07       19.9441        0.4534       19.6001       20.0535       0.109407       0.00000
  29     18.79       19.8763        0.5627       19.4230       19.9857       0.109407      -0.00000
  28     23.16       19.7977        0.6890       19.2181       19.9071       0.109407       0.00000
  27     28.12       19.7088        0.8320       18.9863       19.8182       0.109407       0.00000
  26     33.73       19.6107        0.9899       18.7301       19.7201       0.109407       0.00000
  25     40.54       19.4938        1.1779       18.4253       19.6032       0.109407       0.00000
  24     48.69       19.3554        1.4005       18.0643       19.4648       0.109407      -0.00000
  23     57.69       19.2065        1.6400       17.6759       19.3159       0.109407       0.00000
  22     68.43       19.0333        1.9184       17.2244       19.1428       0.109407       0.00000
  21     81.20       18.8329        2.2406       16.7017       18.9424       0.109407      -0.00000
  20     96.49       18.6022        2.6116       16.1001       18.7117       0.109407       0.00000
  19     114.6       18.3393        3.0343       15.4144       18.4487       0.109407       0.00000
  18     136.5       18.0425        3.5114       14.6405       18.1519       0.109407      -0.00000
  17     162.9       17.7092        4.0469       13.7717       17.8186       0.109407      -0.00000
  16     196.4       17.3065        4.6938       12.7221       17.4159       0.109407       0.00000
  15     218.7       17.0597        5.0902       12.0789       17.1691       0.109407      -0.00000
  14     243.0       16.8057        5.4979       11.4173       16.9151       0.109407       0.00000
  13     269.0       16.5467        5.9137       10.7424       16.6561       0.109407      -0.00000
  12     297.5       16.2841        6.3349       10.0585       16.3935       0.109407      -0.00000
  11     328.5       16.0192        6.7598        9.3688       16.1286       0.109407       0.00000
  10     361.9       15.7548        7.1835        8.6807       15.8642       0.109407       0.00000
   9     398.1       15.4924        7.6040        7.9978       15.6018       0.109407       0.00000
   8     437.6       15.2334        8.0185        7.3243       15.3428       0.109407      -0.00000
   7     480.5       14.9803        8.4234        6.6663       15.0897       0.109407       0.00000
   6     533.0       14.6994        8.8722        5.9366       14.8088       0.109407       0.00000
   5     589.8       14.4311        9.3005        5.2400       14.5405       0.109407      -0.00000
   4     651.6       14.1773        9.7049        4.5818       14.2867       0.109407       0.00000
   3     718.7       13.9399       10.0825        3.9667       14.0493       0.109407       0.00000
   2     792.3       13.7203       10.4308        3.3989       13.8297       0.109407       0.00000
   1     891.5       13.4718       10.8236        2.7577       13.5813       0.109407       0.00000
   0    1013.0       13.2329       11.1991        2.1432       13.3423       0.109407      -0.00000



 Wavenumbers: 29000. - 38000. cm-1, ATM      1
 LEVEL PRESSURE   UPWARD FLUX   DIFDOWN FLUX  DIRDOWN FLUX  DOWNWARD FLUX   NET FLUX    HEATING RATE
          mb          W/m2          W/m2          W/m2        W/m2          W/m2       degree/day
  51    .06700        2.6542        0.0000        7.1711        7.1711       4.516881       0.00000
  50    .07753        2.6540        0.0003        7.1668        7.1671       4.513091       3.03759
  49    .09103        2.6537        0.0006        7.1607        7.1613       4.507596       3.43464
  48    0.1069        2.6534        0.0010        7.1526        7.1536       4.500272       3.89823
  47    0.1255        2.6530        0.0015        7.1420        7.1435       4.490537       4.41355
  46    0.1487        2.6525        0.0021        7.1267        7.1288       4.476333       5.17748
  45    0.1794        2.6518        0.0029        7.1035        7.1063       4.454484       5.99794
  44    0.2165        2.6511        0.0038        7.0729        7.0766       4.425546       6.58303
  43    0.2613        2.6502        0.0049        7.0329        7.0377       4.387534       7.16500
  42    0.3336        2.6488        0.0066        6.9612        6.9678       4.318987       7.99190
  41    0.4307        2.6470        0.0089        6.8625        6.8714       4.224388       8.22517
  40    0.5894        2.6442        0.0125        6.7001        6.7125       4.068356       8.29760
  39     1.339        2.6332        0.0269        6.0396        6.0665       3.433235       7.15030
  38     1.782        2.6280        0.0343        5.7576        5.7919       3.163836       5.12893
  37     2.292        2.6229        0.0421        5.4858        5.5279       2.905006       4.28689
  36     2.964        2.6174        0.0516        5.1887        5.2403       2.622863       3.54175
  35     3.853        2.6117        0.0631        4.8731        4.9362       2.324459       2.83191
  34     5.035        2.6060        0.0773        4.5547        4.6320       2.026043       2.13176
  33     6.613        2.5999        0.0950        4.2472        4.3422       1.742316       1.51681
  32     8.786        2.5926        0.1174        3.9547        4.0721       1.479461       1.02083
  31     11.80        2.5827        0.1476        3.6609        3.8085       1.225824       0.71011
  30     15.07        2.5723        0.1780        3.4310        3.6091       1.036747       0.48816
  29     18.79        2.5609        0.2106        3.2292        3.4398       0.878922       0.35784
  28     23.16        2.5477        0.2466        3.0421        3.2887       0.740945       0.26680
  27     28.12        2.5328        0.2858        2.8686        3.1544       0.621622       0.20284
  26     33.73        2.5154        0.3277        2.7116        3.0393       0.523907       0.14692
  25     40.54        2.4936        0.3761        2.5555        2.9316       0.438045       0.10652
  24     48.69        2.4670        0.4316        2.3969        2.8285       0.361585       0.07912
  23     57.69        2.4377        0.4895        2.2480        2.7375       0.299736       0.05797
  22     68.43        2.4032        0.5546        2.0949        2.6495       0.246353       0.04197
  21     81.20        2.3617        0.6280        1.9393        2.5673       0.205585       0.02694
  20     96.49        2.3133        0.7097        1.7796        2.4893       0.175954       0.01635
  19     114.6        2.2596        0.7988        1.6116        2.4104       0.150840       0.01173
  18     136.5        2.2018        0.8937        1.4361        2.3298       0.127992       0.00879
  17     162.9        2.1407        0.9937        1.2539        2.2476       0.106936       0.00673
  16     196.4        2.0711        1.1056        1.0550        2.1607       0.089580       0.00437
  15     218.7        2.0310        1.1696        0.9429        2.1125       0.081554       0.00305
  14     243.0        1.9920        1.2315        0.8350        2.0665       0.074427       0.00247
  13     269.0        1.9545        1.2907        0.7321        2.0228       0.068268       0.00200
  12     297.5        1.9189        1.3467        0.6352        1.9819       0.063035       0.00155
  11     328.5        1.8855        1.3989        0.5448        1.9437       0.058200       0.00131
  10     361.9        1.8547        1.4468        0.4617        1.9085       0.053745       0.00113
   9     398.1        1.8267        1.4901        0.3863        1.8764       0.049648       0.00095
   8     437.6        1.8016        1.5287        0.3188        1.8474       0.045800       0.00082
   7     480.5        1.7795        1.5624        0.2593        1.8217       0.042227       0.00070
   6     533.0        1.7577        1.5953        0.2008        1.7961       0.038406       0.00061
   5     589.8        1.7396        1.6222        0.1522        1.7744       0.034765       0.00054
   4     651.6        1.7250        1.6435        0.1127        1.7562       0.031239       0.00048
   3     718.7        1.7135        1.6599        0.0814        1.7413       0.027806       0.00043
   2     792.3        1.7048        1.6720        0.0573        1.7292       0.024453       0.00038
   1     891.5        1.6971        1.6820        0.0354        1.7175       0.020307       0.00035
   0    1013.0        1.6921        1.6881        0.0197        1.7078       0.015712       0.00032



 Wavenumbers: 38000. - 50000. cm-1, ATM      1
 LEVEL PRESSURE   UPWARD FLUX   DIFDOWN FLUX  DIRDOWN FLUX  DOWNWARD FLUX   NET FLUX    HEATING RATE
          mb          W/m2          W/m2          W/m2        W/m2          W/m2       degree/day
  51    .06700        0.0038        0.0000        0.4423        0.4423       0.438508       0.00000
  50    .07753        0.0037        0.0001        0.4399        0.4399       0.436181       1.86523
  49    .09103        0.0037        0.0002        0.4364        0.4365       0.432877       2.06506
  48    0.1069        0.0036        0.0002        0.4319        0.4321       0.428565       2.29509
  47    0.1255        0.0035        0.0004        0.4261        0.4264       0.422950       2.54560
  46    0.1487        0.0034        0.0005        0.4178        0.4183       0.414932       2.92266
  45    0.1794        0.0032        0.0007        0.4054        0.4061       0.402878       3.30909
  44    0.2165        0.0030        0.0009        0.3895        0.3904       0.387355       3.53117
  43    0.2613        0.0028        0.0011        0.3693        0.3704       0.367590       3.72559
  42    0.3336        0.0025        0.0014        0.3348        0.3362       0.333660       3.95591
  41    0.4307        0.0022        0.0017        0.2905        0.2922       0.290065       3.79056
  40    0.5894        0.0017        0.0021        0.2259        0.2281       0.226383       3.38650
  39     1.339        0.0007        0.0023        0.0665        0.0688       0.068137       1.78157
  38     1.782        0.0004        0.0019        0.0377        0.0396       0.039194       0.55101
  37     2.292        0.0003        0.0016        0.0212        0.0227       0.022476       0.27690
  36     2.964        0.0001        0.0012        0.0109        0.0121       0.011965       0.13195
  35     3.853        0.0001        0.0009        0.0051        0.0059       0.005875       0.05780
  34     5.035        0.0000        0.0006        0.0019        0.0025       0.002515       0.02400
  33     6.613        0.0000        0.0004        0.0006        0.0010       0.000955       0.00834
  32     8.786        0.0000        0.0002        0.0001        0.0004       0.000359       0.00232
  31     11.80        0.0000        0.0001        0.0000        0.0001       0.000137       0.00062
  30     15.07        0.0000        0.0001        0.0000        0.0001       0.000065       0.00019
  29     18.79        0.0000        0.0000        0.0000        0.0000       0.000032       0.00007
  28     23.16        0.0000        0.0000        0.0000        0.0000       0.000016       0.00003
  27     28.12        0.0000        0.0000        0.0000        0.0000       0.000007       0.00001
  26     33.73        0.0000        0.0000        0.0000        0.0000       0.000003       0.00001
  25     40.54        0.0000        0.0000        0.0000        0.0000       0.000002       0.00000
  24     48.69        0.0000        0.0000        0.0000        0.0000       0.000001       0.00000
  23     57.69        0.0000        0.0000        0.0000        0.0000       0.000000       0.00000
  22     68.43        0.0000        0.0000        0.0000        0.0000       0.000000       0.00000
  21     81.20        0.0000        0.0000        0.0000        0.0000       0.000000       0.00000
  20     96.49        0.0000        0.0000        0.0000        0.0000       0.000000       0.00000
  19     114.6        0.0000        0.0000        0.0000        0.0000       0.000000       0.00000
  18     136.5        0.0000        0.0000        0.0000        0.0000       0.000000       0.00000
  17     162.9        0.0000        0.0000        0.0000        0.0000       0.000000       0.00000
  16     196.4        0.0000        0.0000        0.0000        0.0000       0.000000       0.00000
  15     218.7        0.0000        0.0000        0.0000        0.0000       0.000000       0.00000
  14     243.0        0.0000        0.0000        0.0000        0.0000       0.000000       0.00000
  13     269.0        0.0000        0.0000        0.0000        0.0000       0.000000       0.00000
  12     297.5        0.0000        0.0000        0.0000        0.0000       0.000000       0.00000
  11     328.5        0.0000        0.0000        0.0000        0.0000       0.000000       0.00000
  10     361.9        0.0000        0.0000        0.0000        0.0000       0.000000       0.00000
   9     398.1        0.0000        0.0000        0.0000        0.0000       0.000000       0.00000
   8     437.6        0.0000        0.0000        0.0000        0.0000       0.000000       0.00000
   7     480.5        0.0000        0.0000        0.0000        0.0000       0.000000       0.00000
   6     533.0        0.0000        0.0000        0.0000        0.0000       0.000000       0.00000
   5     589.8        0.0000        0.0000        0.0000        0.0000       0.000000       0.00000
   4     651.6        0.0000        0.0000        0.0000        0.0000       0.000000       0.00000
   3     718.7        0.0000        0.0000        0.0000        0.0000       0.000000       0.00000
   2     792.3        0.0000        0.0000        0.0000        0.0000       0.000000       0.00000
   1     891.5        0.0000        0.0000        0.0000        0.0000       0.000000       0.00000
   0    1013.0        0.0000        0.0000        0.0000        0.0000       0.000000       0.00000



 Wavenumbers:   820. -  2600. cm-1, ATM      1
 LEVEL PRESSURE   UPWARD FLUX   DIFDOWN FLUX  DIRDOWN FLUX  DOWNWARD FLUX   NET FLUX    HEATING RATE
          mb          W/m2          W/m2          W/m2        W/m2          W/m2       degree/day
  51    .06700        0.0042        0.0000        2.0691        2.0691       2.064847       0.00000
  50    .07753        0.0042        0.0000        2.0673        2.0673       2.063101       1.39972
  49    .09103        0.0042        0.0000        2.0666        2.0666       2.062369       0.45699
  48    0.1069        0.0042        0.0000        2.0658        2.0658       2.061631       0.39309
  47    0.1255        0.0042        0.0000        2.0651        2.0651       2.060897       0.33256
  46    0.1487        0.0042        0.0000        2.0643        2.0643       2.060104       0.28929
  45    0.1794        0.0042        0.0000        2.0634        2.0634       2.059173       0.25549
  44    0.2165        0.0042        0.0000        2.0624        2.0624       2.058173       0.22750
  43    0.2613        0.0042        0.0000        2.0612        2.0612       2.057024       0.21660
  42    0.3336        0.0042        0.0000        2.0593        2.0593       2.055118       0.22220
  41    0.4307        0.0042        0.0000        2.0568        2.0568       2.052593       0.21954
  40    0.5894        0.0042        0.0000        2.0528        2.0528       2.048545       0.21526
  39     1.339        0.0042        0.0000        2.0349        2.0349       2.030709       0.20081
  38     1.782        0.0042        0.0000        2.0254        2.0254       2.021178       0.18145
  37     2.292        0.0042        0.0000        2.0153        2.0153       2.011112       0.16673
  36     2.964        0.0042        0.0000        2.0033        2.0033       1.999107       0.15070
  35     3.853        0.0042        0.0000        1.9888        1.9888       1.984569       0.13796
  34     5.035        0.0042        0.0000        1.9713        1.9713       1.967104       0.12476
  33     6.613        0.0042        0.0000        1.9516        1.9516       1.947339       0.10566
  32     8.786        0.0042        0.0000        1.9313        1.9313       1.927071       0.07872
  31     11.80        0.0042        0.0000        1.9118        1.9118       1.907571       0.05459
  30     15.07        0.0042        0.0000        1.8970        1.8970       1.892823       0.03808
  29     18.79        0.0042        0.0000        1.8829        1.8829       1.878694       0.03203
  28     23.16        0.0042        0.0000        1.8673        1.8673       1.863121       0.03011
  27     28.12        0.0042        0.0000        1.8502        1.8502       1.845958       0.02918
  26     33.73        0.0042        0.0000        1.8320        1.8320       1.827747       0.02738
  25     40.54        0.0042        0.0000        1.8114        1.8114       1.807201       0.02549
  24     48.69        0.0042        0.0000        1.7888        1.7888       1.784548       0.02344
  23     57.69        0.0042        0.0000        1.7660        1.7660       1.761789       0.02133
  22     68.43        0.0042        0.0000        1.7415        1.7415       1.737286       0.01926
  21     81.20        0.0042        0.0000        1.7158        1.7158       1.711576       0.01699
  20     96.49        0.0042        0.0000        1.6891        1.6891       1.684919       0.01471
  19     114.6        0.0042        0.0000        1.6617        1.6617       1.657493       0.01281
  18     136.5        0.0042        0.0000        1.6341        1.6342       1.629957       0.01059
  17     162.9        0.0042        0.0000        1.6042        1.6042       1.600012       0.00957
  16     196.4        0.0042        0.0000        1.5645        1.5646       1.560369       0.00998
  15     218.7        0.0042        0.0000        1.5316        1.5316       1.527396       0.01252
  14     243.0        0.0042        0.0000        1.4822        1.4822       1.477994       0.01713
  13     269.0        0.0042        0.0000        1.4086        1.4086       1.404391       0.02388
  12     297.5        0.0042        0.0000        1.3030        1.3031       1.298876       0.03129
  11     328.5        0.0042        0.0000        1.1954        1.1954       1.191257       0.02926
  10     361.9        0.0042        0.0000        1.1048        1.1049       1.100669       0.02292
   9     398.1        0.0042        0.0000        1.0387        1.0387       1.034494       0.01542
   8     437.6        0.0042        0.0000        0.9862        0.9862       0.982028       0.01122
   7     480.5        0.0042        0.0000        0.9366        0.9367       0.932474       0.00973
   6     533.0        0.0042        0.0000        0.8767        0.8767       0.872485       0.00965
   5     589.8        0.0042        0.0000        0.8131        0.8132       0.808938       0.00943
   4     651.6        0.0043        0.0000        0.7439        0.7439       0.739670       0.00947
   3     718.7        0.0043        0.0000        0.6707        0.6707       0.666370       0.00921
   2     792.3        0.0045        0.0000        0.5809        0.5809       0.576453       0.01031
   1     891.5        0.0048        0.0000        0.4355        0.4355       0.430723       0.01240
   0    1013.0        0.0056        0.0000        0.2606        0.2607       0.255129       0.01219

  Modules and versions used in this calculation:

       rrtmg_sw.1col.f90:  $Revision$                    rrtmg_sw_init.f90:  $Revision$        
     rrtmgsw_cldprop.f90:  $Revision$                  rrtmgsw_cldprmc.f90:  NOT USED          
     rrtmg_sw_reftra.f90:  $Revision$                  rrtmg_sw_spcvrt.f90:  NOT USED          
     rrtmg_sw_spcvmc.f90:  NOT USED                    rrtmgsw_setcoef.f90:  NOT USED          
     rrtmg_sw_taumol.f90:  $Revision$                  rrtmg_sw_vrtqdr.f90:  NOT USED          
                rrtatm.f:  NOT USED                             util_xxx.f:  NOT USED          
                 extra.f:  NOT USED                       rrtmg_sw_k_g.f90:  $Revision$        

