

 Wavenumbers:   820. - 50000. cm-1, ATM      1
 LEVEL PRESSURE   UPWARD FLUX   DIFDOWN FLUX  DIRDOWN FLUX  DOWNWARD FLUX   NET FLUX    HEATING RATE
          mb          W/m2          W/m2          W/m2        W/m2          W/m2       degree/day
  51    .06700      666.7277        0.0000     1100.9501     1100.9501     434.222381       0.00000
  50    .07753      666.7277        0.0017     1100.9294     1100.9311     434.203325      15.27366
  49    .09103      666.7278        0.0038     1100.9107     1100.9145     434.186660      10.41622
  48    0.1069      666.7280        0.0062     1100.8895     1100.8957     434.167786      10.04662
  47    0.1255      666.7282        0.0090     1100.8642     1100.8731     434.144937      10.35881
  46    0.1487      666.7286        0.0125     1100.8297     1100.8421     434.113562      11.43653
  45    0.1794      666.7293        0.0172     1100.7790     1100.7962     434.066949      12.79637
  44    0.2165      666.7303        0.0229     1100.7138     1100.7367     434.006402      13.77336
  43    0.2613      666.7318        0.0296     1100.6296     1100.6591     433.927376      14.89610
  42    0.3336      666.7347        0.0406     1100.4774     1100.5179     433.783224      16.80667
  41    0.4307      666.7394        0.0551     1100.2597     1100.3148     433.575462      18.06446
  40    0.5894      666.7487        0.0786     1099.8712     1099.9499     433.201209      19.90226
  39     1.339      666.8232        0.1865     1097.6161     1097.8025     430.979317      25.01448
  38     1.782      666.8888        0.2476     1096.2253     1096.4729     429.584073      26.56320
  37     2.292      666.9847        0.3173     1094.7274     1095.0446     428.059935      25.24369
  36     2.964      667.1410        0.4079     1093.0381     1093.4460     426.305008      22.02964
  35     3.853      667.3901        0.5270     1091.2408     1091.7678     424.377710      18.29041
  34     5.035      667.7629        0.6845     1089.3708     1090.0552     422.292324      14.89713
  33     6.613      668.2832        0.8941     1087.4199     1088.3140     420.030800      12.09011
  32     8.786      668.9643        1.1759     1085.3732     1086.5491     417.584821       9.49930
  31     11.80      669.8607        1.5779     1083.0794     1084.6573     414.796576       7.80621
  30     15.07      670.7330        2.0085     1081.0637     1083.0722     412.339164       6.34456
  29     18.79      671.6379        2.4937     1079.1000     1081.5936     409.955789       5.40385
  28     23.16      672.6021        3.0592     1077.0907     1080.1499     407.547781       4.65631
  27     28.12      673.5959        3.7047     1075.0600     1078.7647     405.168774       4.04415
  26     33.73      674.5474        4.4269     1073.0759     1077.5028     402.955429       3.32782
  25     40.54      675.5080        5.2990     1070.9672     1076.2662     400.758181       2.72593
  24     48.69      676.4824        6.3495     1068.6911     1075.0407     398.558228       2.27661
  23     57.69      677.3729        7.5024     1066.4278     1073.9301     396.557254       1.87561
  22     68.43      678.2360        8.8739     1063.9684     1072.8424     394.606441       1.53360
  21     81.20      678.9863       10.5077     1061.3283     1071.8361     392.849833       1.16074
  20     96.49      679.6185       12.4529     1058.4424     1070.8953     391.276748       0.86823
  19     114.6      680.2538       14.7546     1055.1476     1069.9021     389.648361       0.76034
  18     136.5      680.9122       17.4662     1051.3642     1068.8304     387.918147       0.66531
  17     162.9      681.6103       20.6743     1046.9287     1067.6030     385.992667       0.61546
  16     196.4      682.3226       24.7970     1041.1499     1065.9468     383.624185       0.59618
  15     218.7      682.7206       27.4875     1036.9273     1064.4148     381.694199       0.73274
  14     243.0      683.1222       30.3928     1031.6918     1062.0845     378.962332       0.94750
  13     269.0      683.5267       33.5188     1025.0834     1058.6022     375.075536       1.26086
  12     297.5      683.9385       36.8713     1016.9021     1053.7734     369.834890       1.55432
  11     328.5      684.3770       40.4635     1007.8944     1048.3579     363.980994       1.59166
  10     361.9      684.8476       44.2965      998.1745     1042.4710     357.623372       1.60854
   9     398.1      685.3611       48.3823      987.4796     1035.8619     350.500771       1.65941
   8     437.6      685.9371       52.7248      975.4831     1028.2078     342.270748       1.75963
   7     480.5      686.5932       57.3293      962.3001     1019.6294     333.036224       1.81363
   6     533.0      687.4858       62.9275      945.8539     1008.7814     321.295554       1.88870
   5     589.8      688.6213       68.8783      927.7158      996.5941     307.972841       1.97753
   4     651.6      690.2195       75.1777      906.9083      982.0860     291.866517       2.20258
   3     718.7      692.5351       81.8257      884.1138      965.9395     273.404443       2.32017
   2     792.3      696.1738       88.8078      859.2080      948.0158     251.841949       2.47298
   1     891.5      704.2794       98.0080      825.6264      923.6344     219.355030       2.76448
   0    1013.0      723.5773      108.7279      786.7408      895.4687     171.891472       3.29564



 Wavenumbers:  2600. -  3250. cm-1, ATM      1
 LEVEL PRESSURE   UPWARD FLUX   DIFDOWN FLUX  DIRDOWN FLUX  DOWNWARD FLUX   NET FLUX    HEATING RATE
          mb          W/m2          W/m2          W/m2        W/m2          W/m2       degree/day
  51    .06700        1.8997        0.0000        9.7031        9.7031       7.803387       0.00000
  50    .07753        1.8997        0.0000        9.7031        9.7031       7.803379       0.00640
  49    .09103        1.8997        0.0000        9.7031        9.7031       7.803369       0.00627
  48    0.1069        1.8997        0.0000        9.7031        9.7031       7.803357       0.00613
  47    0.1255        1.8997        0.0000        9.7031        9.7031       7.803344       0.00600
  46    0.1487        1.8997        0.0000        9.7031        9.7031       7.803327       0.00608
  45    0.1794        1.8997        0.0000        9.7030        9.7030       7.803305       0.00625
  44    0.2165        1.8997        0.0000        9.7030        9.7030       7.803278       0.00613
  43    0.2613        1.8997        0.0000        9.7030        9.7030       7.803246       0.00601
  42    0.3336        1.8997        0.0000        9.7029        9.7029       7.803193       0.00618
  41    0.4307        1.8997        0.0000        9.7029        9.7029       7.803121       0.00622
  40    0.5894        1.8997        0.0000        9.7027        9.7027       7.803001       0.00639
  39     1.339        1.8997        0.0000        9.7020        9.7020       7.802286       0.00804
  38     1.782        1.8997        0.0000        9.7015        9.7015       7.801734       0.01053
  37     2.292        1.8997        0.0000        9.7007        9.7007       7.800998       0.01218
  36     2.964        1.8997        0.0000        9.6997        9.6997       7.799919       0.01355
  35     3.853        1.8997        0.0000        9.6981        9.6981       7.798356       0.01483
  34     5.035        1.8997        0.0000        9.6959        9.6959       7.796127       0.01592
  33     6.613        1.8997        0.0000        9.6927        9.6927       7.793006       0.01668
  32     8.786        1.8997        0.0000        9.6884        9.6884       7.788702       0.01672
  31     11.80        1.8997        0.0000        9.6823        9.6824       7.782619       0.01703
  30     15.07        1.8997        0.0000        9.6761        9.6761       7.776365       0.01615
  29     18.79        1.8997        0.0000        9.6696        9.6696       7.769824       0.01483
  28     23.16        1.8997        0.0000        9.6626        9.6626       7.762873       0.01344
  27     28.12        1.8997        0.0000        9.6554        9.6554       7.755678       0.01223
  26     33.73        1.8998        0.0000        9.6477        9.6477       7.747984       0.01157
  25     40.54        1.8998        0.0000        9.6384        9.6385       7.738705       0.01151
  24     48.69        1.8998        0.0000        9.6270        9.6270       7.727255       0.01185
  23     57.69        1.8998        0.0000        9.6137        9.6138       7.713957       0.01246
  22     68.43        1.8998        0.0000        9.5967        9.5968       7.696934       0.01338
  21     81.20        1.8999        0.0000        9.5749        9.5750       7.675052       0.01446
  20     96.49        1.9000        0.0000        9.5472        9.5472       7.647234       0.01535
  19     114.6        1.9001        0.0001        9.5116        9.5117       7.611562       0.01666
  18     136.5        1.9003        0.0001        9.4682        9.4683       7.568049       0.01673
  17     162.9        1.9005        0.0001        9.4161        9.4161       7.515648       0.01675
  16     196.4        1.9009        0.0001        9.3486        9.3487       7.447772       0.01709
  15     218.7        1.9013        0.0001        9.3017        9.3018       7.400458       0.01796
  14     243.0        1.9020        0.0001        9.2444        9.2445       7.342464       0.02011
  13     269.0        1.9031        0.0001        9.1726        9.1727       7.269588       0.02364
  12     297.5        1.9048        0.0001        9.0846        9.0847       7.179948       0.02659
  11     328.5        1.9071        0.0001        8.9855        8.9856       7.078591       0.02756
  10     361.9        1.9102        0.0002        8.8745        8.8747       6.964511       0.02886
   9     398.1        1.9144        0.0002        8.7449        8.7451       6.830688       0.03118
   8     437.6        1.9202        0.0002        8.5865        8.5867       6.666454       0.03511
   7     480.5        1.9281        0.0002        8.3880        8.3882       6.460155       0.04052
   6     533.0        1.9407        0.0002        8.1031        8.1034       6.162701       0.04785
   5     589.8        1.9594        0.0002        7.7424        7.7427       5.783263       0.05632
   4     651.6        1.9893        0.0002        7.2924        7.2927       5.303389       0.06562
   3     718.7        2.0362        0.0002        6.7927        6.7929       4.756764       0.06870
   2     792.3        2.1145        0.0002        6.2465        6.2468       4.132266       0.07162
   1     891.5        2.2999        0.0002        5.4927        5.4929       3.193042       0.07992
   0    1013.0        2.8000        0.0002        4.6134        4.6137       1.813631       0.09578



 Wavenumbers:  3250. -  4000. cm-1, ATM      1
 LEVEL PRESSURE   UPWARD FLUX   DIFDOWN FLUX  DIRDOWN FLUX  DOWNWARD FLUX   NET FLUX    HEATING RATE
          mb          W/m2          W/m2          W/m2        W/m2          W/m2       degree/day
  51    .06700        0.0015        0.0000       16.3580       16.3580      16.356566       0.00000
  50    .07753        0.0015        0.0000       16.3526       16.3526      16.351080       4.39745
  49    .09103        0.0015        0.0000       16.3478       16.3478      16.346320       2.97509
  48    0.1069        0.0015        0.0000       16.3440       16.3440      16.342473       2.04780
  47    0.1255        0.0015        0.0000       16.3406       16.3406      16.339143       1.50966
  46    0.1487        0.0015        0.0000       16.3372       16.3372      16.335746       1.23832
  45    0.1794        0.0015        0.0000       16.3333       16.3333      16.331813       1.07954
  44    0.2165        0.0015        0.0000       16.3292       16.3292      16.327731       0.92864
  43    0.2613        0.0015        0.0000       16.3249       16.3249      16.323424       0.81188
  42    0.3336        0.0015        0.0000       16.3187       16.3187      16.317258       0.71892
  41    0.4307        0.0015        0.0000       16.3119       16.3119      16.310406       0.59575
  40    0.5894        0.0015        0.0000       16.3025       16.3025      16.301048       0.49766
  39     1.339        0.0015        0.0000       16.2683       16.2683      16.266780       0.38579
  38     1.782        0.0015        0.0000       16.2520       16.2521      16.250576       0.30850
  37     2.292        0.0015        0.0000       16.2359       16.2359      16.234459       0.26694
  36     2.964        0.0015        0.0000       16.2177       16.2177      16.216190       0.22933
  35     3.853        0.0015        0.0000       16.1965       16.1965      16.195055       0.20058
  34     5.035        0.0015        0.0000       16.1712       16.1712      16.169771       0.18061
  33     6.613        0.0015        0.0000       16.1395       16.1395      16.138064       0.16951
  32     8.786        0.0015        0.0000       16.0971       16.0972      16.095694       0.16455
  31     11.80        0.0015        0.0000       16.0348       16.0349      16.033393       0.17442
  30     15.07        0.0015        0.0000       15.9651       15.9651      15.963674       0.18000
  29     18.79        0.0015        0.0000       15.8834       15.8834      15.881971       0.18525
  28     23.16        0.0014        0.0000       15.7858       15.7859      15.784407       0.18866
  27     28.12        0.0014        0.0000       15.6737       15.6738      15.672323       0.19054
  26     33.73        0.0014        0.0000       15.5508       15.5508      15.549413       0.18480
  25     40.54        0.0014        0.0001       15.4093       15.4093      15.407907       0.17555
  24     48.69        0.0014        0.0001       15.2527       15.2527      15.251329       0.16203
  23     57.69        0.0014        0.0001       15.0976       15.0977      15.096264       0.14535
  22     68.43        0.0014        0.0001       14.9309       14.9310      14.929602       0.13102
  21     81.20        0.0014        0.0001       14.7482       14.7483      14.746957       0.12069
  20     96.49        0.0014        0.0001       14.5408       14.5409      14.539548       0.11447
  19     114.6        0.0013        0.0001       14.2906       14.2908      14.289422       0.11679
  18     136.5        0.0013        0.0002       14.0017       14.0019      14.000545       0.11108
  17     162.9        0.0013        0.0002       13.6545       13.6547      13.653383       0.11097
  16     196.4        0.0012        0.0002       13.1514       13.1516      13.150403       0.12661
  15     218.7        0.0012        0.0002       12.6838       12.6840      12.682784       0.17754
  14     243.0        0.0012        0.0003       12.0340       12.0342      12.033024       0.22536
  13     269.0        0.0012        0.0003       11.1789       11.1791      11.177964       0.27738
  12     297.5        0.0011        0.0003       10.1790       10.1792      10.178092       0.29655
  11     328.5        0.0011        0.0003        9.1931        9.1934       9.192227       0.26805
  10     361.9        0.0011        0.0002        8.2235        8.2237       8.222578       0.24533
   9     398.1        0.0011        0.0002        7.2597        7.2600       7.258849       0.22453
   8     437.6        0.0011        0.0002        6.3301        6.3303       6.329216       0.19876
   7     480.5        0.0011        0.0002        5.4881        5.4883       5.487189       0.16537
   6     533.0        0.0012        0.0002        4.6003        4.6005       4.599382       0.14282
   5     589.8        0.0012        0.0002        3.7540        3.7541       3.752892       0.12565
   4     651.6        0.0014        0.0001        2.8963        2.8964       2.895015       0.11732
   3     718.7        0.0019        0.0001        2.0745        2.0746       2.072740       0.10334
   2     792.3        0.0030        0.0001        1.3232        1.3233       1.320212       0.08631
   1     891.5        0.0093        0.0000        0.6071        0.6071       0.597826       0.06147
   0    1013.0        0.0898        0.0000        0.1480        0.1480       0.058187       0.03747



 Wavenumbers:  4000. -  4650. cm-1, ATM      1
 LEVEL PRESSURE   UPWARD FLUX   DIFDOWN FLUX  DIRDOWN FLUX  DOWNWARD FLUX   NET FLUX    HEATING RATE
          mb          W/m2          W/m2          W/m2        W/m2          W/m2       degree/day
  51    .06700        7.1105        0.0000       19.2093       19.2093      12.098829       0.00000
  50    .07753        7.1105        0.0000       19.2093       19.2093      12.098828       0.00080
  49    .09103        7.1105        0.0000       19.2093       19.2093      12.098826       0.00078
  48    0.1069        7.1105        0.0000       19.2093       19.2093      12.098825       0.00076
  47    0.1255        7.1105        0.0000       19.2093       19.2093      12.098823       0.00075
  46    0.1487        7.1105        0.0000       19.2093       19.2093      12.098821       0.00076
  45    0.1794        7.1105        0.0000       19.2093       19.2093      12.098818       0.00078
  44    0.2165        7.1105        0.0000       19.2093       19.2093      12.098815       0.00076
  43    0.2613        7.1105        0.0000       19.2093       19.2093      12.098811       0.00075
  42    0.3336        7.1105        0.0000       19.2093       19.2093      12.098804       0.00077
  41    0.4307        7.1105        0.0000       19.2093       19.2093      12.098796       0.00077
  40    0.5894        7.1105        0.0000       19.2092       19.2092      12.098781       0.00080
  39     1.339        7.1105        0.0000       19.2091       19.2091      12.098691       0.00101
  38     1.782        7.1105        0.0000       19.2091       19.2091      12.098621       0.00133
  37     2.292        7.1105        0.0000       19.2090       19.2090      12.098527       0.00156
  36     2.964        7.1105        0.0000       19.2088       19.2088      12.098387       0.00176
  35     3.853        7.1105        0.0000       19.2086       19.2086      12.098178       0.00198
  34     5.035        7.1104        0.0000       19.2083       19.2083      12.097871       0.00220
  33     6.613        7.1104        0.0000       19.2078       19.2079      12.097418       0.00242
  32     8.786        7.1104        0.0000       19.2071       19.2072      12.096749       0.00260
  31     11.80        7.1104        0.0001       19.2061       19.2061      12.095695       0.00295
  30     15.07        7.1104        0.0001       19.2048       19.2049      12.094456       0.00320
  29     18.79        7.1104        0.0001       19.2033       19.2034      12.092953       0.00341
  28     23.16        7.1104        0.0001       19.2014       19.2015      12.091081       0.00362
  27     28.12        7.1104        0.0001       19.1991       19.1993      12.088808       0.00387
  26     33.73        7.1105        0.0002       19.1963       19.1964      12.085993       0.00423
  25     40.54        7.1105        0.0002       19.1924       19.1926      12.082156       0.00476
  24     48.69        7.1105        0.0002       19.1873       19.1875      12.077014       0.00532
  23     57.69        7.1106        0.0003       19.1812       19.1815      12.070880       0.00575
  22     68.43        7.1107        0.0003       19.1735       19.1738      12.063144       0.00608
  21     81.20        7.1108        0.0004       19.1639       19.1644      12.053543       0.00634
  20     96.49        7.1110        0.0005       19.1523       19.1528      12.041777       0.00649
  19     114.6        7.1113        0.0006       19.1377       19.1383      12.026955       0.00692
  18     136.5        7.1118        0.0007       19.1201       19.1208      12.008961       0.00692
  17     162.9        7.1125        0.0008       19.0984       19.0993      11.986740       0.00710
  16     196.4        7.1137        0.0010       19.0686       19.0696      11.955816       0.00778
  15     218.7        7.1149        0.0011       19.0456       19.0467      11.931859       0.00910
  14     243.0        7.1166        0.0012       19.0147       19.0159      11.899289       0.01130
  13     269.0        7.1192        0.0014       18.9709       18.9723      11.853086       0.01499
  12     297.5        7.1230        0.0015       18.9109       18.9124      11.789415       0.01888
  11     328.5        7.1283        0.0016       18.8370       18.8387      11.710331       0.02150
  10     361.9        7.1353        0.0018       18.7444       18.7462      11.610919       0.02515
   9     398.1        7.1439        0.0020       18.6234       18.6254      11.481492       0.03015
   8     437.6        7.1547        0.0021       18.4624       18.4645      11.309787       0.03671
   7     480.5        7.1683        0.0023       18.2581       18.2605      11.092195       0.04273
   6     533.0        7.1885        0.0026       17.9743       17.9768      10.788314       0.04888
   5     589.8        7.2168        0.0028       17.6416       17.6443      10.427515       0.05355
   4     651.6        7.2602        0.0030       17.2417       17.2447       9.984488       0.06059
   3     718.7        7.3282        0.0032       16.7550       16.7582       9.430066       0.06968
   2     792.3        7.4417        0.0035       16.1032       16.1067       8.665003       0.08774
   1     891.5        7.7090        0.0037       15.0614       15.0651       7.356159       0.11138
   0    1013.0        8.4020        0.0039       13.8403       13.8442       5.442146       0.13290



 Wavenumbers:  4650. -  5150. cm-1, ATM      1
 LEVEL PRESSURE   UPWARD FLUX   DIFDOWN FLUX  DIRDOWN FLUX  DOWNWARD FLUX   NET FLUX    HEATING RATE
          mb          W/m2          W/m2          W/m2        W/m2          W/m2       degree/day
  51    .06700        5.1290        0.0000       18.1825       18.1825      13.053488       0.00000
  50    .07753        5.1290        0.0000       18.1823       18.1823      13.053252       0.18920
  49    .09103        5.1290        0.0000       18.1820       18.1820      13.052956       0.18489
  48    0.1069        5.1290        0.0000       18.1816       18.1816      13.052617       0.18038
  47    0.1255        5.1290        0.0000       18.1812       18.1812      13.052229       0.17583
  46    0.1487        5.1290        0.0000       18.1807       18.1807      13.051742       0.17759
  45    0.1794        5.1290        0.0000       18.1801       18.1801      13.051080       0.18164
  44    0.2165        5.1290        0.0000       18.1793       18.1793      13.050303       0.17684
  43    0.2613        5.1290        0.0000       18.1784       18.1784      13.049390       0.17201
  42    0.3336        5.1290        0.0000       18.1769       18.1769      13.047899       0.17382
  41    0.4307        5.1290        0.0000       18.1750       18.1750      13.045957       0.16888
  40    0.5894        5.1290        0.0000       18.1719       18.1719      13.042868       0.16429
  39     1.339        5.1290        0.0000       18.1585       18.1585      13.029519       0.15028
  38     1.782        5.1290        0.0000       18.1515       18.1516      13.022556       0.13257
  37     2.292        5.1290        0.0000       18.1442       18.1442      13.015230       0.12134
  36     2.964        5.1290        0.0000       18.1356       18.1357      13.006660       0.10758
  35     3.853        5.1290        0.0000       18.1259       18.1259      12.996884       0.09277
  34     5.035        5.1290        0.0000       18.1150       18.1151      12.986077       0.07720
  33     6.613        5.1290        0.0000       18.1035       18.1035      12.974504       0.06187
  32     8.786        5.1290        0.0001       18.0912       18.0913      12.962299       0.04740
  31     11.80        5.1290        0.0001       18.0775       18.0776      12.948565       0.03845
  30     15.07        5.1290        0.0001       18.0648       18.0649      12.935893       0.03272
  29     18.79        5.1291        0.0001       18.0511       18.0512      12.922134       0.03120
  28     23.16        5.1291        0.0002       18.0345       18.0346      12.905534       0.03210
  27     28.12        5.1292        0.0002       18.0141       18.0143      12.885162       0.03463
  26     33.73        5.1293        0.0002       17.9895       17.9897      12.860429       0.03719
  25     40.54        5.1294        0.0003       17.9571       17.9574      12.827938       0.04031
  24     48.69        5.1296        0.0004       17.9149       17.9152      12.785604       0.04381
  23     57.69        5.1299        0.0004       17.8654       17.8658      12.735917       0.04657
  22     68.43        5.1303        0.0005       17.8034       17.8039      12.673656       0.04895
  21     81.20        5.1308        0.0006       17.7267       17.7273      12.596493       0.05099
  20     96.49        5.1315        0.0007       17.6338       17.6345      12.503045       0.05158
  19     114.6        5.1325        0.0008       17.5244       17.5252      12.392738       0.05151
  18     136.5        5.1339        0.0010       17.3990       17.3999      12.266069       0.04871
  17     162.9        5.1358        0.0011       17.2579       17.2590      12.123208       0.04566
  16     196.4        5.1388        0.0014       17.0896       17.0909      11.952188       0.04305
  15     218.7        5.1411        0.0015       16.9865       16.9880      11.846860       0.03999
  14     243.0        5.1442        0.0017       16.8780       16.8797      11.735510       0.03862
  13     269.0        5.1484        0.0018       16.7610       16.7629      11.614519       0.03925
  12     297.5        5.1543        0.0020       16.6299       16.6319      11.477628       0.04060
  11     328.5        5.1620        0.0022       16.4836       16.4859      11.323888       0.04180
  10     361.9        5.1719        0.0024       16.3183       16.3208      11.148846       0.04429
   9     398.1        5.1848        0.0026       16.1276       16.1303      10.945452       0.04739
   8     437.6        5.2016        0.0029       15.9043       15.9072      10.705566       0.05129
   7     480.5        5.2233        0.0031       15.6421       15.6451      10.421857       0.05572
   6     533.0        5.2562        0.0033       15.2857       15.2890      10.032798       0.06259
   5     589.8        5.3017        0.0036       14.8560       14.8596       9.557909       0.07049
   4     651.6        5.3684        0.0039       14.3254       14.3292       8.960886       0.08164
   3     718.7        5.4672        0.0041       13.6974       13.7015       8.234324       0.09131
   2     792.3        5.6192        0.0043       12.9830       12.9873       7.368147       0.09934
   1     891.5        5.9441        0.0046       12.0153       12.0199       6.075728       0.10998
   0    1013.0        6.6481        0.0048       10.9494       10.9542       4.306111       0.12287



 Wavenumbers:  5150. -  6150. cm-1, ATM      1
 LEVEL PRESSURE   UPWARD FLUX   DIFDOWN FLUX  DIRDOWN FLUX  DOWNWARD FLUX   NET FLUX    HEATING RATE
          mb          W/m2          W/m2          W/m2        W/m2          W/m2       degree/day
  51    .06700       12.4478        0.0000       45.5836       45.5836      33.135813       0.00000
  50    .07753       12.4478        0.0000       45.5835       45.5835      33.135774       0.03162
  49    .09103       12.4478        0.0000       45.5835       45.5835      33.135722       0.03210
  48    0.1069       12.4478        0.0000       45.5834       45.5834      33.135661       0.03261
  47    0.1255       12.4478        0.0000       45.5833       45.5833      33.135588       0.03312
  46    0.1487       12.4478        0.0000       45.5833       45.5833      33.135492       0.03490
  45    0.1794       12.4478        0.0000       45.5831       45.5831      33.135357       0.03715
  44    0.2165       12.4478        0.0000       45.5829       45.5830      33.135191       0.03772
  43    0.2613       12.4478        0.0000       45.5827       45.5827      33.134988       0.03831
  42    0.3336       12.4478        0.0000       45.5824       45.5824      33.134641       0.04049
  41    0.4307       12.4478        0.0000       45.5819       45.5819      33.134168       0.04106
  40    0.5894       12.4478        0.0000       45.5811       45.5811      33.133376       0.04212
  39     1.339       12.4478        0.0000       45.5773       45.5773      33.129546       0.04312
  38     1.782       12.4477        0.0001       45.5750       45.5751      33.127305       0.04267
  37     2.292       12.4477        0.0001       45.5724       45.5725      33.124758       0.04218
  36     2.964       12.4477        0.0001       45.5692       45.5693      33.121506       0.04082
  35     3.853       12.4477        0.0001       45.5650       45.5651      33.117348       0.03946
  34     5.035       12.4478        0.0002       45.5595       45.5597      33.111952       0.03855
  33     6.613       12.4478        0.0002       45.5524       45.5526      33.104880       0.03781
  32     8.786       12.4478        0.0003       45.5431       45.5434      33.095594       0.03607
  31     11.80       12.4478        0.0004       45.5302       45.5306      33.082808       0.03580
  30     15.07       12.4479        0.0005       45.5171       45.5176      33.069719       0.03379
  29     18.79       12.4479        0.0006       45.5030       45.5036      33.055740       0.03170
  28     23.16       12.4480        0.0008       45.4875       45.4883      33.040325       0.02981
  27     28.12       12.4481        0.0009       45.4709       45.4718      33.023702       0.02826
  26     33.73       12.4482        0.0011       45.4535       45.4546      33.006398       0.02602
  25     40.54       12.4484        0.0013       45.4341       45.4354      32.987046       0.02401
  24     48.69       12.4487        0.0016       45.4129       45.4145      32.965816       0.02197
  23     57.69       12.4490        0.0019       45.3914       45.3932      32.944236       0.02023
  22     68.43       12.4495        0.0022       45.3675       45.3697      32.920293       0.01882
  21     81.20       12.4500        0.0027       45.3408       45.3434      32.893419       0.01776
  20     96.49       12.4507        0.0032       45.3101       45.3133      32.862535       0.01705
  19     114.6       12.4516        0.0038       45.2744       45.2782      32.826593       0.01678
  18     136.5       12.4527        0.0045       45.2324       45.2368      32.784171       0.01631
  17     162.9       12.4540        0.0053       45.1691       45.1744      32.720456       0.02037
  16     196.4       12.4558        0.0064       45.0344       45.0408      32.584980       0.03410
  15     218.7       12.4571        0.0071       44.8396       44.8467      32.389546       0.07420
  14     243.0       12.4587        0.0078       44.4717       44.4795      32.020882       0.12786
  13     269.0       12.4606        0.0085       43.7909       43.7994      31.338824       0.22126
  12     297.5       12.4631        0.0092       42.7682       42.7774      30.314323       0.30386
  11     328.5       12.4662        0.0100       41.6811       41.6911      29.224910       0.29621
  10     361.9       12.4701        0.0107       40.5428       40.5535      28.083387       0.28882
   9     398.1       12.4752        0.0115       39.2256       39.2370      26.761873       0.30788
   8     437.6       12.4818        0.0122       37.6768       37.6890      25.207188       0.33240
   7     480.5       12.4904        0.0129       36.0014       36.0143      23.523885       0.33059
   6     533.0       12.5043        0.0137       34.0053       34.0190      21.514768       0.32320
   5     589.8       12.5255        0.0145       31.9528       31.9674      19.441892       0.30768
   4     651.6       12.5619        0.0154       29.8577       29.8730      17.311095       0.29139
   3     718.7       12.6252        0.0163       28.0037       28.0200      15.394833       0.24082
   2     792.3       12.7422        0.0173       26.4524       26.4697      13.727581       0.19122
   1     891.5       13.0550        0.0186       24.8448       24.8635      11.808479       0.16331
   0    1013.0       14.0312        0.0201       23.0994       23.1195       9.088267       0.18888



 Wavenumbers:  6150. -  7700. cm-1, ATM      1
 LEVEL PRESSURE   UPWARD FLUX   DIFDOWN FLUX  DIRDOWN FLUX  DOWNWARD FLUX   NET FLUX    HEATING RATE
          mb          W/m2          W/m2          W/m2        W/m2          W/m2       degree/day
  51    .06700       18.7397        0.0000       84.3086       84.3086      65.568878       0.00000
  50    .07753       18.7397        0.0000       84.3085       84.3085      65.568822       0.04553
  49    .09103       18.7397        0.0000       84.3084       84.3084      65.568748       0.04583
  48    0.1069       18.7397        0.0000       84.3083       84.3083      65.568661       0.04615
  47    0.1255       18.7397        0.0000       84.3082       84.3082      65.568559       0.04646
  46    0.1487       18.7397        0.0000       84.3081       84.3081      65.568426       0.04854
  45    0.1794       18.7397        0.0000       84.3079       84.3079      65.568239       0.05129
  44    0.2165       18.7397        0.0000       84.3077       84.3077      65.568012       0.05170
  43    0.2613       18.7397        0.0000       84.3074       84.3074      65.567735       0.05214
  42    0.3336       18.7397        0.0000       84.3069       84.3069      65.567265       0.05477
  41    0.4307       18.7397        0.0000       84.3062       84.3063      65.566629       0.05529
  40    0.5894       18.7397        0.0001       84.3051       84.3052      65.565568       0.05645
  39     1.339       18.7396        0.0002       84.2999       84.3000      65.560453       0.05758
  38     1.782       18.7396        0.0002       84.2968       84.2970      65.557461       0.05696
  37     2.292       18.7395        0.0003       84.2933       84.2936      65.554053       0.05646
  36     2.964       18.7395        0.0004       84.2888       84.2892      65.549680       0.05489
  35     3.853       18.7394        0.0005       84.2830       84.2835      65.544054       0.05339
  34     5.035       18.7393        0.0007       84.2754       84.2760      65.536721       0.05239
  33     6.613       18.7392        0.0009       84.2654       84.2663      65.527072       0.05158
  32     8.786       18.7390        0.0012       84.2522       84.2534      65.514327       0.04950
  31     11.80       18.7388        0.0016       84.2339       84.2354      65.496615       0.04959
  30     15.07       18.7386        0.0020       84.2148       84.2168      65.478263       0.04738
  29     18.79       18.7383        0.0025       84.1942       84.1967      65.458380       0.04508
  28     23.16       18.7380        0.0031       84.1710       84.1741      65.436118       0.04305
  27     28.12       18.7376        0.0037       84.1456       84.1493      65.411726       0.04146
  26     33.73       18.7372        0.0045       84.1186       84.1230      65.385887       0.03885
  25     40.54       18.7367        0.0054       84.0878       84.0931      65.356489       0.03647
  24     48.69       18.7360        0.0065       84.0532       84.0596      65.323564       0.03407
  23     57.69       18.7354        0.0076       84.0173       84.0249      65.289535       0.03190
  22     68.43       18.7346        0.0091       83.9767       83.9858      65.251189       0.03014
  21     81.20       18.7336        0.0108       83.9304       83.9412      65.207536       0.02885
  20     96.49       18.7325        0.0128       83.8767       83.8895      65.156985       0.02790
  19     114.6       18.7311        0.0152       83.8136       83.8288      65.097667       0.02770
  18     136.5       18.7296        0.0180       83.7388       83.7568      65.027222       0.02709
  17     162.9       18.7277        0.0214       83.6305       83.6519      64.924154       0.03294
  16     196.4       18.7254        0.0258       83.4087       83.4345      64.709092       0.05413
  15     218.7       18.7240        0.0286       83.0958       83.1244      64.400382       0.11721
  14     243.0       18.7227        0.0315       82.5353       82.5669      63.844193       0.19290
  13     269.0       18.7218        0.0345       81.6126       81.6471      62.925349       0.29807
  12     297.5       18.7216        0.0375       80.1276       80.1651      61.443431       0.43952
  11     328.5       18.7225        0.0405       78.2771       78.3176      59.595097       0.50256
  10     361.9       18.7250        0.0436       76.2290       76.2726      57.547606       0.51804
   9     398.1       18.7299        0.0467       73.9892       74.0359      55.305975       0.52225
   8     437.6       18.7386        0.0496       71.3975       71.4472      52.708513       0.55535
   7     480.5       18.7529        0.0525       68.4460       68.4984      49.745507       0.58192
   6     533.0       18.7801        0.0556       64.7473       64.8028      46.022744       0.59887
   5     589.8       18.8275        0.0584       60.7535       60.8120      41.984437       0.59942
   4     651.6       18.9174        0.0609       56.3005       56.3614      37.443960       0.62092
   3     718.7       19.0808        0.0631       51.8118       51.8748      32.794074       0.58436
   2     792.3       19.3883        0.0650       47.3873       47.4523      28.064005       0.54249
   1     891.5       20.1999        0.0673       42.2160       42.2833      22.083369       0.50892
   0    1013.0       22.6604        0.0699       37.2681       37.3379      14.677540       0.51422



 Wavenumbers:  7700. -  8050. cm-1, ATM      1
 LEVEL PRESSURE   UPWARD FLUX   DIFDOWN FLUX  DIRDOWN FLUX  DOWNWARD FLUX   NET FLUX    HEATING RATE
          mb          W/m2          W/m2          W/m2        W/m2          W/m2       degree/day
  51    .06700        9.9453        0.0000       19.9246       19.9246       9.979360       0.00000
  50    .07753        9.9453        0.0000       19.9246       19.9246       9.979335       0.01980
  49    .09103        9.9453        0.0000       19.9246       19.9246       9.979304       0.01940
  48    0.1069        9.9453        0.0000       19.9246       19.9246       9.979268       0.01899
  47    0.1255        9.9453        0.0000       19.9245       19.9245       9.979227       0.01859
  46    0.1487        9.9453        0.0000       19.9245       19.9245       9.979176       0.01886
  45    0.1794        9.9453        0.0000       19.9244       19.9244       9.979105       0.01941
  44    0.2165        9.9454        0.0000       19.9244       19.9244       9.979021       0.01904
  43    0.2613        9.9454        0.0000       19.9243       19.9243       9.978922       0.01868
  42    0.3336        9.9454        0.0000       19.9242       19.9242       9.978758       0.01912
  41    0.4307        9.9455        0.0000       19.9240       19.9240       9.978541       0.01891
  40    0.5894        9.9456        0.0000       19.9237       19.9238       9.978185       0.01889
  39     1.339        9.9460        0.0001       19.9225       19.9226       9.976504       0.01892
  38     1.782        9.9463        0.0001       19.9217       19.9218       9.975517       0.01880
  37     2.292        9.9466        0.0001       19.9209       19.9210       9.974373       0.01894
  36     2.964        9.9471        0.0002       19.9197       19.9199       9.972872       0.01885
  35     3.853        9.9476        0.0002       19.9182       19.9185       9.970887       0.01883
  34     5.035        9.9483        0.0003       19.9163       19.9166       9.968250       0.01884
  33     6.613        9.9493        0.0004       19.9136       19.9140       9.964726       0.01884
  32     8.786        9.9506        0.0006       19.9100       19.9106       9.959975       0.01845
  31     11.80        9.9525        0.0008       19.9049       19.9057       9.953175       0.01904
  30     15.07        9.9545        0.0010       19.8994       19.9004       9.945871       0.01886
  29     18.79        9.9568        0.0012       19.8932       19.8945       9.937616       0.01872
  28     23.16        9.9595        0.0015       19.8860       19.8875       9.927971       0.01865
  27     28.12        9.9626        0.0018       19.8777       19.8796       9.916937       0.01876
  26     33.73        9.9661        0.0022       19.8685       19.8707       9.904586       0.01857
  25     40.54        9.9703        0.0026       19.8574       19.8600       9.889662       0.01852
  24     48.69        9.9754        0.0032       19.8439       19.8471       9.871669       0.01862
  23     57.69        9.9811        0.0037       19.8292       19.8330       9.851905       0.01853
  22     68.43        9.9879        0.0044       19.8118       19.8162       9.828370       0.01850
  21     81.20        9.9960        0.0053       19.7911       19.7963       9.800341       0.01852
  20     96.49       10.0058        0.0062       19.7665       19.7727       9.766957       0.01843
  19     114.6       10.0175        0.0074       19.7374       19.7448       9.727346       0.01850
  18     136.5       10.0315        0.0088       19.7032       19.7120       9.680433       0.01804
  17     162.9       10.0485        0.0104       19.6627       19.6731       9.624612       0.01784
  16     196.4       10.0710        0.0126       19.6107       19.6232       9.552277       0.01821
  15     218.7       10.0859        0.0140       19.5767       19.5907       9.504767       0.01804
  14     243.0       10.1025        0.0155       19.5400       19.5555       9.453055       0.01794
  13     269.0       10.1207        0.0172       19.5004       19.5176       9.396847       0.01823
  12     297.5       10.1409        0.0190       19.4577       19.4767       9.335761       0.01812
  11     328.5       10.1633        0.0209       19.4117       19.4325       9.269295       0.01807
  10     361.9       10.1880        0.0230       19.3621       19.3851       9.197040       0.01828
   9     398.1       10.2156        0.0252       19.3086       19.3338       9.118232       0.01836
   8     437.6       10.2465        0.0276       19.2508       19.2784       9.031932       0.01845
   7     480.5       10.2811        0.0302       19.1881       19.2183       8.937220       0.01860
   6     533.0       10.3263        0.0334       19.1097       19.1431       8.816809       0.01937
   5     589.8       10.3789        0.0369       19.0225       19.0593       8.680413       0.02025
   4     651.6       10.4421        0.0405       18.9230       18.9636       8.521498       0.02173
   3     718.7       10.5194        0.0445       18.8075       18.8520       8.332633       0.02374
   2     792.3       10.6177        0.0487       18.6697       18.7184       8.100705       0.02660
   1     891.5       10.7843        0.0542       18.4547       18.5089       7.724599       0.03200
   0    1013.0       11.0525        0.0607       18.1506       18.2113       7.158874       0.03928



 Wavenumbers:  8050. - 12850. cm-1, ATM      1
 LEVEL PRESSURE   UPWARD FLUX   DIFDOWN FLUX  DIRDOWN FLUX  DOWNWARD FLUX   NET FLUX    HEATING RATE
          mb          W/m2          W/m2          W/m2        W/m2          W/m2       degree/day
  51    .06700      119.7047        0.0000      278.9594      278.9594     159.254747       0.00000
  50    .07753      119.7047        0.0000      278.9594      278.9594     159.254747       0.00000
  49    .09103      119.7047        0.0001      278.9593      278.9594     159.254747       0.00000
  48    0.1069      119.7047        0.0001      278.9593      278.9594     159.254747       0.00000
  47    0.1255      119.7046        0.0002      278.9592      278.9594     159.254747      -0.00000
  46    0.1487      119.7046        0.0003      278.9591      278.9594     159.254747       0.00000
  45    0.1794      119.7046        0.0003      278.9590      278.9593     159.254747       0.00000
  44    0.2165      119.7046        0.0005      278.9588      278.9593     159.254747      -0.00000
  43    0.2613      119.7045        0.0006      278.9587      278.9593     159.254747      -0.00000
  42    0.3336      119.7045        0.0008      278.9584      278.9592     159.254747       0.00000
  41    0.4307      119.7044        0.0011      278.9580      278.9591     159.254747      -0.00000
  40    0.5894      119.7042        0.0016      278.9574      278.9590     159.254747      -0.00000
  39     1.339      119.7036        0.0039      278.9544      278.9583     159.254747       0.00000
  38     1.782      119.7032        0.0053      278.9527      278.9580     159.254747       0.00000
  37     2.292      119.7028        0.0068      278.9507      278.9575     159.254747      -0.00000
  36     2.964      119.7022        0.0089      278.9480      278.9569     159.254747       0.00000
  35     3.853      119.7014        0.0116      278.9445      278.9562     159.254747      -0.00000
  34     5.035      119.7004        0.0152      278.9399      278.9551     159.254747       0.00000
  33     6.613      119.6990        0.0201      278.9337      278.9538     159.254747       0.00000
  32     8.786      119.6972        0.0266      278.9253      278.9519     159.254747      -0.00000
  31     11.80      119.6945        0.0359      278.9133      278.9493     159.254747       0.00000
  30     15.07      119.6917        0.0460      278.9005      278.9464     159.254747      -0.00000
  29     18.79      119.6885        0.0573      278.8859      278.9432     159.254747       0.00000
  28     23.16      119.6847        0.0706      278.8689      278.9395     159.254747       0.00000
  27     28.12      119.6804        0.0858      278.8494      278.9352     159.254747      -0.00000
  26     33.73      119.6756        0.1028      278.8275      278.9303     159.254747       0.00000
  25     40.54      119.6698        0.1234      278.8011      278.9245     159.254747      -0.00000
  24     48.69      119.6627        0.1483      278.7692      278.9175     159.254747       0.00000
  23     57.69      119.6550        0.1757      278.7340      278.9097     159.254747       0.00000
  22     68.43      119.6457        0.2083      278.6921      278.9005     159.254747       0.00000
  21     81.20      119.6347        0.2473      278.6421      278.8894     159.254747      -0.00000
  20     96.49      119.6215        0.2938      278.5824      278.8762     159.254747      -0.00000
  19     114.6      119.6060        0.3492      278.5053      278.8545     159.248463       0.00293
  18     136.5      119.5877        0.4149      278.4134      278.8283     159.240655       0.00300
  17     162.9      119.5658        0.4934      278.3000      278.7935     159.227678       0.00415
  16     196.4      119.5374        0.5955      278.1362      278.7317     159.194283       0.00841
  15     218.7      119.5190        0.6627      277.9877      278.6503     159.131288       0.02392
  14     243.0      119.4998        0.7357      277.7429      278.4786     158.978853       0.05287
  13     269.0      119.4806        0.8148      277.3246      278.1394     158.658766       0.10383
  12     297.5      119.4634        0.9000      276.6691      277.5691     158.105657       0.16405
  11     328.5      119.4493        0.9919      275.8369      276.8288     157.379577       0.19742
  10     361.9      119.4405        1.0907      274.8373      275.9280     156.487499       0.22570
   9     398.1      119.4412        1.1966      273.6182      274.8149     155.373629       0.25951
   8     437.6      119.4581        1.3094      272.0675      273.3769     153.918773       0.31106
   7     480.5      119.4994        1.4291      270.1089      271.5380     152.038630       0.36925
   6     533.0      119.5939        1.5743      267.2668      268.8411     149.247217       0.44905
   5     589.8      119.7760        1.7273      263.5763      265.3036     145.527578       0.55212
   4     651.6      120.1407        1.8849      258.5077      260.3926     140.251938       0.72146
   3     718.7      120.8137        2.0462      252.0638      254.1100     133.296246       0.87414
   2     792.3      122.0780        2.2075      244.1134      246.3209     124.242910       1.03832
   1     891.5      125.3100        2.4055      232.3542      234.7597     109.449670       1.25883
   0    1013.0      133.8958        2.6203      218.0021      220.6224      86.726682       1.57777



 Wavenumbers: 12850. - 16000. cm-1, ATM      1
 LEVEL PRESSURE   UPWARD FLUX   DIFDOWN FLUX  DIRDOWN FLUX  DOWNWARD FLUX   NET FLUX    HEATING RATE
          mb          W/m2          W/m2          W/m2        W/m2          W/m2       degree/day
  51    .06700      120.1679        0.0000      174.7927      174.7927      54.624841       0.00000
  50    .07753      120.1679        0.0001      174.7919      174.7920      54.624038       0.64372
  49    .09103      120.1680        0.0002      174.7908      174.7910      54.623023       0.63448
  48    0.1069      120.1680        0.0003      174.7895      174.7898      54.621848       0.62550
  47    0.1255      120.1681        0.0004      174.7881      174.7885      54.620486       0.61720
  46    0.1487      120.1681        0.0006      174.7863      174.7869      54.618752       0.63239
  45    0.1794      120.1683        0.0009      174.7838      174.7846      54.616364       0.65543
  44    0.2165      120.1685        0.0011      174.7809      174.7820      54.613517       0.64768
  43    0.2613      120.1688        0.0015      174.7774      174.7789      54.610117       0.64084
  42    0.3336      120.1693        0.0020      174.7717      174.7737      54.604458       0.65981
  41    0.4307      120.1701        0.0028      174.7643      174.7671      54.596958       0.65208
  40    0.5894      120.1717        0.0040      174.7524      174.7564      54.584733       0.65012
  39     1.339      120.1835        0.0096      174.6987      174.7084      54.524856       0.67411
  38     1.782      120.1938        0.0130      174.6682      174.6812      54.487335       0.71432
  37     2.292      120.2088        0.0168      174.6326      174.6495      54.440664       0.77300
  36     2.964      120.2332        0.0219      174.5848      174.6067      54.373501       0.84310
  35     3.853      120.2721        0.0286      174.5193      174.5479      54.275810       0.92711
  34     5.035      120.3303        0.0375      174.4306      174.4681      54.137857       0.98548
  33     6.613      120.4113        0.0494      174.3139      174.3633      53.951937       0.99393
  32     8.786      120.5171        0.0654      174.1648      174.2302      53.713073       0.92766
  31     11.80      120.6554        0.0883      173.9686      174.0568      53.401473       0.87238
  30     15.07      120.7887        0.1128      173.7755      173.8883      53.099609       0.77935
  29     18.79      120.9258        0.1406      173.5726      173.7132      52.787445       0.70777
  28     23.16      121.0701        0.1730      173.3529      173.5259      52.455744       0.64140
  27     28.12      121.2169        0.2101      173.1215      173.3316      52.114684       0.57978
  26     33.73      121.3549        0.2517      172.8906      173.1423      51.787309       0.49222
  25     40.54      121.4914        0.3019      172.6440      172.9459      51.454536       0.41284
  24     48.69      121.6263        0.3626      172.3786      172.7412      51.114915       0.35145
  23     57.69      121.7459        0.4293      172.1187      172.5480      50.802083       0.29323
  22     68.43      121.8574        0.5089      171.8437      172.3526      50.495213       0.24124
  21     81.20      121.9477        0.6039      171.5634      172.1673      50.219683       0.18207
  20     96.49      122.0160        0.7174      171.2757      171.9931      49.977084       0.13390
  19     114.6      122.0967        0.8539      170.9605      171.8144      49.717665       0.12113
  18     136.5      122.1750        1.0159      170.6106      171.6264      49.451421       0.10238
  17     162.9      122.2523        1.2090      170.2150      171.4241      49.171822       0.08937
  16     196.4      122.3185        1.4600      169.7345      171.1945      48.875993       0.07446
  15     218.7      122.3498        1.6251      169.4279      171.0529      48.703098       0.06564
  14     243.0      122.3788        1.8047      169.0949      170.8996      48.520810       0.06322
  13     269.0      122.4055        1.9996      168.7327      170.7323      48.326824       0.06293
  12     297.5      122.4310        2.2105      168.3355      170.5460      48.114999       0.06283
  11     328.5      122.4589        2.4388      167.8984      170.3371      47.878279       0.06436
  10     361.9      122.4906        2.6849      167.4173      170.1022      47.611630       0.06746
   9     398.1      122.5288        2.9502      166.8870      169.8373      47.308438       0.07064
   8     437.6      122.5785        3.2356      166.2990      169.5346      46.956063       0.07534
   7     480.5      122.6445        3.5419      165.6464      169.1884      46.543880       0.08095
   6     533.0      122.7506        3.9195      164.8054      168.7248      45.974295       0.09163
   5     589.8      122.9114        4.3267      163.8346      168.1613      45.249843       0.10753
   4     651.6      123.1799        4.7636      162.6619      167.4255      44.245585       0.13733
   3     718.7      123.5931        5.2286      161.2653      166.4938      42.900662       0.16902
   2     792.3      124.2668        5.7179      159.5506      165.2686      41.001751       0.21778
   1     891.5      125.7397        6.3599      156.8547      163.2147      37.474999       0.30011
   0    1013.0      128.7351        7.1040      153.1937      160.2977      31.562623       0.41053



 Wavenumbers: 16000. - 22650. cm-1, ATM      1
 LEVEL PRESSURE   UPWARD FLUX   DIFDOWN FLUX  DIRDOWN FLUX  DOWNWARD FLUX   NET FLUX    HEATING RATE
          mb          W/m2          W/m2          W/m2        W/m2          W/m2       degree/day
  51    .06700      251.5608        0.0000      278.6877      278.6877      27.126870       0.00000
  50    .07753      251.5610        0.0005      278.6871      278.6876      27.126671       0.15971
  49    .09103      251.5612        0.0012      278.6864      278.6875      27.126381       0.18114
  48    0.1069      251.5614        0.0019      278.6855      278.6874      27.125993       0.20656
  47    0.1255      251.5618        0.0028      278.6845      278.6872      27.125474       0.23545
  46    0.1487      251.5623        0.0038      278.6831      278.6870      27.124708       0.27901
  45    0.1794      251.5631        0.0053      278.6813      278.6866      27.123512       0.32851
  44    0.2165      251.5641        0.0071      278.6789      278.6860      27.121889       0.36921
  43    0.2613      251.5655        0.0091      278.6761      278.6852      27.119687       0.41509
  42    0.3336      251.5681        0.0125      278.6711      278.6836      27.115500       0.48814
  41    0.4307      251.5720        0.0171      278.6641      278.6812      27.109189       0.54874
  40    0.5894      251.5795        0.0245      278.6521      278.6766      27.097152       0.64009
  39     1.339      251.6332        0.0596      278.5818      278.6414      27.008211       1.00131
  38     1.782      251.6785        0.0802      278.5308      278.6109      26.932429       1.44278
  37     2.292      251.7438        0.1040      278.4625      278.5665      26.822709       1.81724
  36     2.964      251.8492        0.1353      278.3588      278.4941      26.644905       2.23198
  35     3.853      252.0162        0.1767      278.2021      278.3788      26.362632       2.67882
  34     5.035      252.2654        0.2316      277.9750      278.2065      25.941187       3.01062
  33     6.613      252.6123        0.3049      277.6623      277.9672      25.354882       3.13439
  32     8.786      253.0654        0.4036      277.2526      277.6563      24.590886       2.96708
  31     11.80      253.6597        0.5449      276.7071      277.2519      23.592218       2.79596
  30     15.07      254.2351        0.6965      276.1681      276.8646      22.629530       2.48547
  29     18.79      254.8285        0.8677      275.6015      276.4693      21.640799       2.24176
  28     23.16      255.4563        1.0678      274.9881      276.0559      20.599610       2.01332
  27     28.12      256.0980        1.2966      274.3426      275.6392      19.541229       1.79918
  26     33.73      256.7065        1.5529      273.6984      275.2513      18.544792       1.49817
  25     40.54      257.3147        1.8628      273.0096      274.8724      17.557671       1.22464
  24     48.69      257.9246        2.2367      272.2660      274.5027      16.578053       1.01375
  23     57.69      258.4752        2.6478      271.5323      274.1802      15.704990       0.81837
  22     68.43      259.0019        3.1380      270.7474      273.8854      14.883482       0.64582
  21     81.20      259.4527        3.7230      269.9321      273.6550      14.202307       0.45011
  20     96.49      259.8256        4.4211      269.0710      273.4921      13.666531       0.29571
  19     114.6      260.1826        5.2499      268.1081      273.3580      13.175324       0.22936
  18     136.5      260.5478        6.2317      267.0070      273.2387      12.690880       0.18628
  17     162.9      260.9292        7.3998      265.7336      273.1334      12.204222       0.15556
  16     196.4      261.3091        8.9138      264.1604      273.0742      11.765061       0.11054
  15     218.7      261.5159        9.9073      263.1567      273.0640      11.548077       0.08238
  14     243.0      261.7205       10.9863      262.0803      273.0666      11.346088       0.07006
  13     269.0      261.9209       12.1545      260.9290      273.0835      11.162594       0.05952
  12     297.5      262.1169       13.4158      259.6993      273.1152      10.998226       0.04875
  11     328.5      262.3183       14.7773      258.3789      273.1562      10.837895       0.04359
  10     361.9      262.5250       16.2415      256.9653      273.2068      10.681808       0.03949
   9     398.1      262.7382       17.8155      255.4513      273.2669      10.528713       0.03567
   8     437.6      262.9608       19.5038      253.8311      273.3349      10.374108       0.03306
   7     480.5      263.1934       21.3113      252.0996      273.4110      10.217548       0.03075
   6     533.0      263.4755       23.5336      249.9723      273.5059      10.030378       0.03011
   5     589.8      263.7821       25.9261      247.6784      273.6045       9.822360       0.03088
   4     651.6      264.1270       28.4954      245.2012      273.6966       9.569596       0.03457
   3     718.7      264.5239       31.2488      242.5246      273.7734       9.249506       0.04023
   2     792.3      265.0061       34.1889      239.6241      273.8130       8.806954       0.05076
   1     891.5      265.8014       38.1405      235.6303      273.7708       7.969377       0.07127
   0    1013.0      266.9972       42.8592      230.7316      273.5908       6.593538       0.09553



 Wavenumbers: 22650. - 29000. cm-1, ATM      1
 LEVEL PRESSURE   UPWARD FLUX   DIFDOWN FLUX  DIRDOWN FLUX  DOWNWARD FLUX   NET FLUX    HEATING RATE
          mb          W/m2          W/m2          W/m2        W/m2          W/m2       degree/day
  51    .06700      102.5493        0.0000      105.1666      105.1666       2.617304       0.00000
  50    .07753      102.5493        0.0006      105.1660      105.1666       2.617304      -0.00000
  49    .09103      102.5494        0.0014      105.1653      105.1667       2.617304       0.00000
  48    0.1069      102.5495        0.0022      105.1645      105.1668       2.617304      -0.00000
  47    0.1255      102.5496        0.0032      105.1636      105.1669       2.617304       0.00000
  46    0.1487      102.5497        0.0045      105.1625      105.1670       2.617304       0.00000
  45    0.1794      102.5498        0.0062      105.1609      105.1671       2.617304       0.00000
  44    0.2165      102.5500        0.0083      105.1590      105.1673       2.617304       0.00000
  43    0.2613      102.5502        0.0107      105.1568      105.1675       2.617304       0.00000
  42    0.3336      102.5505        0.0147      105.1531      105.1678       2.617304      -0.00000
  41    0.4307      102.5510        0.0200      105.1483      105.1683       2.617304       0.00000
  40    0.5894      102.5517        0.0287      105.1403      105.1690       2.617304      -0.00000
  39     1.339      102.5551        0.0697      105.1027      105.1724       2.617304       0.00000
  38     1.782      102.5572        0.0938      105.0807      105.1745       2.617304       0.00000
  37     2.292      102.5595        0.1217      105.0551      105.1768       2.617304       0.00000
  36     2.964      102.5626        0.1583      105.0215      105.1799       2.617304       0.00000
  35     3.853      102.5666        0.2067      104.9772      105.1839       2.617304       0.00000
  34     5.035      102.5720        0.2710      104.9183      105.1893       2.617304       0.00000
  33     6.613      102.5792        0.3569      104.8396      105.1965       2.617304       0.00000
  32     8.786      102.5889        0.4726      104.7336      105.2062       2.617304       0.00000
  31     11.80      102.6028        0.6381      104.5820      105.2201       2.617304      -0.00000
  30     15.07      102.6177        0.8156      104.4194      105.2350       2.617304      -0.00000
  29     18.79      102.6345        1.0161      104.2357      105.2518       2.617304      -0.00000
  28     23.16      102.6541        1.2501      104.0214      105.2714       2.617304      -0.00000
  27     28.12      102.6765        1.5173      103.7765      105.2938       2.617304       0.00000
  26     33.73      102.7015        1.8160      103.5028      105.3188       2.617304       0.00000
  25     40.54      102.7317        2.1762      103.1728      105.3490       2.617304      -0.00000
  24     48.69      102.7679        2.6095      102.7757      105.3852       2.617304       0.00000
  23     57.69      102.8076        3.0841      102.3408      105.4249       2.617304      -0.00000
  22     68.43      102.8546        3.6476      101.8244      105.4719       2.617304       0.00000
  21     81.20      102.9104        4.3161      101.2116      105.5277       2.617304       0.00000
  20     96.49      102.9765        5.1087      100.4851      105.5938       2.617304       0.00000
  19     114.6      103.0543        6.0438       99.6279      105.6716       2.617304      -0.00000
  18     136.5      103.1457        7.1437       98.6193      105.7630       2.617304       0.00000
  17     162.9      103.2533        8.4416       97.4291      105.8707       2.617304       0.00000
  16     196.4      103.3910       10.1051       95.9032      106.0083       2.617304      -0.00000
  15     218.7      103.4801       11.1857       94.9118      106.0974       2.617304       0.00000
  14     243.0      103.5760       12.3497       93.8435      106.1933       2.617304       0.00000
  13     269.0      103.6786       13.5990       92.6969      106.2959       2.617304      -0.00000
  12     297.5      103.7881       14.9350       91.4705      106.4054       2.617304       0.00000
  11     328.5      103.9048       16.3625       90.1596      106.5221       2.617304      -0.00000
  10     361.9      104.0286       17.8811       88.7647      106.6459       2.617304       0.00000
   9     398.1      104.1596       19.4945       87.2824      106.7769       2.617304       0.00000
   8     437.6      104.2979       21.2034       85.7118      106.9152       2.617304       0.00000
   7     480.5      104.4434       23.0082       84.0525      107.0607       2.617304      -0.00000
   6     533.0      104.6186       25.1926       82.0433      107.2359       2.617304       0.00000
   5     589.8      104.8028       27.5027       79.9174      107.4201       2.617304       0.00000
   4     651.6      104.9957       29.9368       77.6761      107.6130       2.617304       0.00000
   3     718.7      105.1967       32.4930       75.3211      107.8140       2.617304      -0.00000
   2     792.3      105.4052       35.1653       72.8571      108.0225       2.617304       0.00000
   1     891.5      105.6759       38.6717       69.6215      108.2932       2.617304       0.00000
   0    1013.0      105.9845       42.7277       65.8741      108.6018       2.617304       0.00000



 Wavenumbers: 29000. - 38000. cm-1, ATM      1
 LEVEL PRESSURE   UPWARD FLUX   DIFDOWN FLUX  DIRDOWN FLUX  DOWNWARD FLUX   NET FLUX    HEATING RATE
          mb          W/m2          W/m2          W/m2        W/m2          W/m2       degree/day
  51    .06700       16.0952        0.0000       37.0861       37.0861      20.990876       0.00000
  50    .07753       16.0951        0.0004       37.0818       37.0822      20.987052       3.06498
  49    .09103       16.0950        0.0008       37.0756       37.0765      20.981487       3.47861
  48    0.1069       16.0948        0.0014       37.0675       37.0688      20.974032       3.96846
  47    0.1255       16.0947        0.0020       37.0567       37.0587      20.964053       4.52377
  46    0.1487       16.0945        0.0027       37.0411       37.0438      20.949355       5.35777
  45    0.1794       16.0943        0.0038       37.0169       37.0207      20.926416       6.29722
  44    0.2165       16.0940        0.0050       36.9844       36.9894      20.895403       7.05497
  43    0.2613       16.0938        0.0065       36.9409       36.9474      20.853529       7.89305
  42    0.3336       16.0936        0.0089       36.8594       36.8683      20.774639       9.19776
  41    0.4307       16.0935        0.0120       36.7391       36.7511      20.657633      10.17341
  40    0.5894       16.0937        0.0171       36.5175       36.5346      20.440908      11.52519
  39     1.339       16.1012        0.0393       35.1365       35.1758      19.074591      15.38224
  38     1.782       16.1101        0.0511       34.2300       34.2811      18.170971      17.20347
  37     2.292       16.1241        0.0639       33.2129       33.2769      17.152736      16.86463
  36     2.964       16.1483        0.0799       32.0277       32.1076      15.959390      14.98011
  35     3.853       16.1881        0.1002       30.7557       30.8559      14.667808      12.25735
  34     5.035       16.2488        0.1261       29.4744       29.6005      13.351706       9.40169
  33     6.613       16.3346        0.1599       28.2279       28.3878      12.053185       6.94189
  32     8.786       16.4480        0.2045       27.0487       27.2531      10.805126       4.84701
  31     11.80       16.5991        0.2671       25.8939       26.1609       9.561865       3.48074
  30     15.07       16.7488        0.3333       25.0113       25.3446       8.595735       2.49436
  29     18.79       16.9076        0.4068       24.2485       24.6553       7.747768       1.92260
  28     23.16       17.0813        0.4917       23.5511       24.0428       6.961555       1.52028
  27     28.12       17.2657        0.5878       22.9178       23.5055       6.239782       1.22697
  26     33.73       17.4471        0.6951       22.3648       23.0600       5.612813       0.94266
  25     40.54       17.6348        0.8247       21.8377       22.6625       5.027700       0.72590
  24     48.69       17.8301        0.9805       21.3230       22.3035       4.473419       0.57359
  23     57.69       18.0127        1.1513       20.8577       22.0090       3.996296       0.44723
  22     68.43       18.1928        1.3544       20.3962       21.7506       3.557770       0.34474
  21     81.20       18.3488        1.5976       19.9505       21.5482       3.199393       0.23681
  20     96.49       18.4766        1.8884       19.5089       21.3973       2.920690       0.15382
  19     114.6       18.5989        2.2299       19.0360       21.2660       2.667046       0.11843
  18     136.5       18.7252        2.6269       18.5153       21.1421       2.416958       0.09616
  17     162.9       18.8594        3.0911       17.9354       21.0265       2.167058       0.07988
  16     196.4       18.9895        3.6751       17.2502       20.9254       1.935847       0.05820
  15     218.7       19.0595        4.0542       16.8277       20.8819       1.822412       0.04307
  14     243.0       19.1282        4.4582       16.3858       20.8440       1.715849       0.03696
  13     269.0       19.1942        4.8871       15.9256       20.8127       1.618501       0.03158
  12     297.5       19.2570        5.3403       15.4478       20.7882       1.531193       0.02589
  11     328.5       19.3204        5.8172       14.9493       20.7666       1.446158       0.02312
  10     361.9       19.3843        6.3162       14.4319       20.7481       1.363835       0.02083
   9     398.1       19.4484        6.8369       13.8958       20.7328       1.284415       0.01850
   8     437.6       19.5134        7.3776       13.3423       20.7199       1.206514       0.01666
   7     480.5       19.5788        7.9373       12.7728       20.7101       1.131290       0.01477
   6     533.0       19.6542        8.5984       12.1035       20.7019       1.047766       0.01344
   5     589.8       19.7311        9.2788       11.4176       20.6964       0.965260       0.01225
   4     651.6       19.8097        9.9729       10.7197       20.6927       0.882911       0.01126
   3     718.7       19.8902       10.6776       10.0133       20.6909       0.800702       0.01033
   2     792.3       19.9723       11.3890        9.3021       20.6911       0.718744       0.00940
   1     891.5       20.0781       12.2817        8.4119       20.6936       0.615493       0.00879
   0    1013.0       20.1998       13.2570        7.4416       20.6986       0.498837       0.00810



 Wavenumbers: 38000. - 50000. cm-1, ATM      1
 LEVEL PRESSURE   UPWARD FLUX   DIFDOWN FLUX  DIRDOWN FLUX  DOWNWARD FLUX   NET FLUX    HEATING RATE
          mb          W/m2          W/m2          W/m2        W/m2          W/m2       degree/day
  51    .06700        0.0073        0.0000        2.2874        2.2874       2.280132       0.00000
  50    .07753        0.0073        0.0001        2.2850        2.2851       2.277794       1.87364
  49    .09103        0.0072        0.0002        2.2815        2.2816       2.274455       2.08725
  48    0.1069        0.0071        0.0003        2.2769        2.2772       2.270059       2.33968
  47    0.1255        0.0070        0.0004        2.2709        2.2713       2.264269       2.62486
  46    0.1487        0.0069        0.0005        2.2623        2.2628       2.255868       3.06256
  45    0.1794        0.0068        0.0007        2.2490        2.2497       2.242924       3.55329
  44    0.2165        0.0066        0.0009        2.2313        2.2323       2.225653       3.92890
  43    0.2613        0.0064        0.0011        2.2079        2.2091       2.202646       4.33681
  42    0.3336        0.0061        0.0015        2.1646        2.1661       2.159991       4.97307
  41    0.4307        0.0057        0.0020        2.1017        2.1037       2.097972       5.39246
  40    0.5894        0.0052        0.0027        1.9889        1.9916       1.986375       5.93456
  39     1.339        0.0034        0.0040        1.3685        1.3725       1.369114       6.94924
  38     1.782        0.0027        0.0038        1.0369        1.0408       1.038123       6.30153
  37     2.292        0.0021        0.0034        0.7381        0.7415       0.739395       4.94771
  36     2.964        0.0016        0.0028        0.4835        0.4863       0.484699       3.19720
  35     3.853        0.0012        0.0022        0.3041        0.3063       0.305117       1.70427
  34     5.035        0.0009        0.0018        0.1887        0.1905       0.189552       0.82555
  33     6.613        0.0007        0.0014        0.1159        0.1173       0.116563       0.39020
  32     8.786        0.0005        0.0011        0.0712        0.0723       0.071817       0.17378
  31     11.80        0.0003        0.0008        0.0421        0.0429       0.042599       0.08180
  30     15.07        0.0002        0.0006        0.0264        0.0270       0.026737       0.04095
  29     18.79        0.0002        0.0004        0.0164        0.0169       0.016703       0.02275
  28     23.16        0.0001        0.0003        0.0099        0.0103       0.010140       0.01269
  27     28.12        0.0001        0.0002        0.0059        0.0061       0.006032       0.00698
  26     33.73        0.0000        0.0001        0.0035        0.0036       0.003593       0.00367
  25     40.54        0.0000        0.0001        0.0020        0.0021       0.002055       0.00191
  24     48.69        0.0000        0.0001        0.0011        0.0011       0.001114       0.00097
  23     57.69        0.0000        0.0000        0.0006        0.0006       0.000600       0.00048
  22     68.43        0.0000        0.0000        0.0003        0.0003       0.000303       0.00023
  21     81.20        0.0000        0.0000        0.0001        0.0001       0.000144       0.00011
  20     96.49        0.0000        0.0000        0.0001        0.0001       0.000063       0.00004
  19     114.6        0.0000        0.0000        0.0000        0.0000       0.000024       0.00002
  18     136.5        0.0000        0.0000        0.0000        0.0000       0.000008       0.00001
  17     162.9        0.0000        0.0000        0.0000        0.0000       0.000002       0.00000
  16     196.4        0.0000        0.0000        0.0000        0.0000       0.000000       0.00000
  15     218.7        0.0000        0.0000        0.0000        0.0000       0.000000       0.00000
  14     243.0        0.0000        0.0000        0.0000        0.0000       0.000000       0.00000
  13     269.0        0.0000        0.0000        0.0000        0.0000       0.000000       0.00000
  12     297.5        0.0000        0.0000        0.0000        0.0000       0.000000       0.00000
  11     328.5        0.0000        0.0000        0.0000        0.0000       0.000000       0.00000
  10     361.9        0.0000        0.0000        0.0000        0.0000       0.000000       0.00000
   9     398.1        0.0000        0.0000        0.0000        0.0000       0.000000       0.00000
   8     437.6        0.0000        0.0000        0.0000        0.0000       0.000000       0.00000
   7     480.5        0.0000        0.0000        0.0000        0.0000       0.000000       0.00000
   6     533.0        0.0000        0.0000        0.0000        0.0000       0.000000       0.00000
   5     589.8        0.0000        0.0000        0.0000        0.0000       0.000000       0.00000
   4     651.6        0.0000        0.0000        0.0000        0.0000       0.000000       0.00000
   3     718.7        0.0000        0.0000        0.0000        0.0000       0.000000       0.00000
   2     792.3        0.0000        0.0000        0.0000        0.0000       0.000000       0.00000
   1     891.5        0.0000        0.0000        0.0000        0.0000       0.000000       0.00000
   0    1013.0        0.0000        0.0000        0.0000        0.0000       0.000000       0.00000



 Wavenumbers:   820. -  2600. cm-1, ATM      1
 LEVEL PRESSURE   UPWARD FLUX   DIFDOWN FLUX  DIRDOWN FLUX  DOWNWARD FLUX   NET FLUX    HEATING RATE
          mb          W/m2          W/m2          W/m2        W/m2          W/m2       degree/day
  51    .06700        1.3691        0.0000       10.7004       10.7004       9.331290       0.00000
  50    .07753        1.3691        0.0000       10.6943       10.6943       9.325250       4.84080
  49    .09103        1.3691        0.0000       10.6931       10.6931       9.324018       0.77038
  48    0.1069        1.3691        0.0000       10.6920       10.6920       9.322940       0.57358
  47    0.1255        1.3691        0.0000       10.6908       10.6908       9.321689       0.56712
  46    0.1487        1.3691        0.0000       10.6892       10.6892       9.320099       0.57976
  45    0.1794        1.3691        0.0000       10.6870       10.6870       9.317964       0.58586
  44    0.2165        1.3691        0.0000       10.6846       10.6846       9.315539       0.55177
  43    0.2613        1.3691        0.0000       10.6819       10.6819       9.312830       0.51054
  42    0.3336        1.3691        0.0000       10.6778       10.6778       9.308766       0.47382
  41    0.4307        1.3691        0.0000       10.6731       10.6731       9.304041       0.41090
  40    0.5894        1.3691        0.0000       10.6662       10.6662       9.297164       0.36569
  39     1.339        1.3691        0.0000       10.6358       10.6358       9.266713       0.34282
  38     1.782        1.3691        0.0000       10.6185       10.6185       9.249394       0.32973
  37     2.292        1.3691        0.0000       10.5991       10.5991       9.229982       0.32152
  36     2.964        1.3691        0.0000       10.5743       10.5743       9.205249       0.31047
  35     3.853        1.3691        0.0000       10.5426       10.5426       9.173530       0.30102
  34     5.035        1.3691        0.0000       10.5023       10.5023       9.133201       0.28810
  33     6.613        1.3691        0.0000       10.4516       10.4516       9.082510       0.27099
  32     8.786        1.3691        0.0000       10.3877       10.3877       9.018529       0.24848
  31     11.80        1.3691        0.0000       10.3026       10.3026       8.933500       0.23805
  30     15.07        1.3692        0.0000       10.2204       10.2204       8.851262       0.21232
  29     18.79        1.3692        0.0000       10.1416       10.1416       8.772404       0.17879
  28     23.16        1.3692        0.0000       10.0696       10.0696       8.700372       0.13929
  27     28.12        1.3692        0.0000       10.0099       10.0099       8.640662       0.10150
  26     33.73        1.3693        0.0000        9.9634        9.9634       8.594179       0.06989
  25     40.54        1.3693        0.0000        9.9236        9.9236       8.554264       0.04952
  24     48.69        1.3693        0.0000        9.8858        9.8858       8.516425       0.03916
  23     57.69        1.3694        0.0000        9.8479        9.8479       8.478541       0.03551
  22     68.43        1.3694        0.0000        9.8039        9.8039       8.434436       0.03467
  21     81.20        1.3695        0.0000        9.7524        9.7524       8.382915       0.03404
  20     96.49        1.3696        0.0000        9.6918        9.6918       8.322248       0.03348
  19     114.6        1.3697        0.0000        9.6199        9.6199       8.250252       0.03362
  18     136.5        1.3698        0.0000        9.5353        9.5353       8.165471       0.03260
  17     162.9        1.3700        0.0000        9.4264        9.4264       8.056380       0.03487
  16     196.4        1.3703        0.0000        9.2535        9.2535       7.883169       0.04360
  15     218.7        1.3706        0.0000        9.0860        9.0860       7.715363       0.06371
  14     243.0        1.3711        0.0000        8.8261        8.8262       7.455012       0.09030
  13     269.0        1.3719        0.0000        8.4872        8.4873       7.115369       0.11018
  12     297.5        1.3731        0.0000        8.1220        8.1221       6.748913       0.10869
  11     328.5        1.3748        0.0000        7.8022        7.8023       6.427441       0.08741
  10     361.9        1.3771        0.0000        7.4634        7.4635       6.086409       0.08628
   9     398.1        1.3800        0.0000        7.0657        7.0657       5.685710       0.09335
   8     437.6        1.3838        0.0000        6.6231        6.6232       5.239331       0.09544
   7     480.5        1.3886        0.0000        6.2081        6.2081       4.819562       0.08244
   6     533.0        1.3958        0.0000        5.8369        5.8369       4.441078       0.06089
   5     589.8        1.4066        0.0001        5.5688        5.5688       4.162176       0.04140
   4     651.6        1.4258        0.0001        5.3046        5.3046       3.878853       0.03875
   3     718.7        1.4587        0.0001        4.9832        4.9833       3.524588       0.04452
   2     792.3        1.5189        0.0001        4.5952        4.5952       3.076366       0.05141
   1     891.5        1.6728        0.0001        4.0617        4.0618       2.388985       0.05849
   0    1013.0        2.0807        0.0001        3.4284        3.4285       1.347732       0.07230

  Modules and versions used in this calculation:

       rrtmg_sw.1col.f90:  $Revision$                    rrtmg_sw_init.f90:  $Revision$        
     rrtmgsw_cldprop.f90:  $Revision$                  rrtmgsw_cldprmc.f90:  NOT USED          
     rrtmg_sw_reftra.f90:  $Revision$                  rrtmg_sw_spcvrt.f90:  NOT USED          
     rrtmg_sw_spcvmc.f90:  NOT USED                    rrtmgsw_setcoef.f90:  NOT USED          
     rrtmg_sw_taumol.f90:  $Revision$                  rrtmg_sw_vrtqdr.f90:  NOT USED          
                rrtatm.f:  NOT USED                             util_xxx.f:  NOT USED          
                 extra.f:  NOT USED                       rrtmg_sw_k_g.f90:  $Revision$        

