

 Wavenumbers:   820. - 50000. cm-1, ATM      1
 LEVEL PRESSURE   UPWARD FLUX   DIFDOWN FLUX  DIRDOWN FLUX  DOWNWARD FLUX   NET FLUX    HEATING RATE
          mb          W/m2          W/m2          W/m2        W/m2          W/m2       degree/day
  51    .06700      430.1330        0.0000      700.8891      700.8891     270.756085       0.00000
  50    .07753      430.1327        0.0014      700.8707      700.8721     270.739365      13.40187
  49    .09103      430.1324        0.0032      700.8534      700.8566     270.724202       9.47717
  48    0.1069      430.1320        0.0052      700.8334      700.8386     270.706641       9.34784
  47    0.1255      430.1316        0.0075      700.8091      700.8166     270.685023       9.80046
  46    0.1487      430.1312        0.0105      700.7757      700.7862     270.655012      10.93923
  45    0.1794      430.1307        0.0145      700.7265      700.7410     270.610279      12.28037
  44    0.2165      430.1303        0.0192      700.6633      700.6825     270.552255      13.19934
  43    0.2613      430.1299        0.0248      700.5819      700.6067     270.476757      14.23120
  42    0.3336      430.1297        0.0340      700.4354      700.4694     270.339677      15.98211
  41    0.4307      430.1299        0.0461      700.2273      700.2735     270.143578      17.05041
  40    0.5894      430.1313        0.0657      699.8612      699.9269     269.795582      18.50599
  39     1.339      430.1582        0.1546      697.9095      698.0642     267.905953      21.27379
  38     1.782      430.1882        0.2045      696.8432      697.0477     266.859475      19.92324
  37     2.292      430.2359        0.2616      695.7777      696.0393     265.803458      17.49040
  36     2.964      430.3179        0.3359      694.6166      694.9525     264.634559      14.67322
  35     3.853      430.4535        0.4331      693.3532      693.7863     263.332822      12.35372
  34     5.035      430.6603        0.5614      691.9793      692.5407     261.880369      10.37573
  33     6.613      430.9512        0.7674      690.4948      691.2622     260.310996       8.38987
  32     8.786      431.3300        0.9866      688.8809      689.8674     258.537486       6.88767
  31     11.80      431.8228        1.3153      687.0108      688.3261     256.503258       5.69520
  30     15.07      432.2948        1.6594      685.3301      686.9895     254.694728       4.66927
  29     18.79      432.7769        2.0494      683.6697      685.7191     252.942231       3.97345
  28     23.16      433.2811        2.5021      681.9478      684.4499     251.168807       3.42923
  27     28.12      433.7888        3.0186      680.1843      683.2029     249.414145       2.98281
  26     33.73      434.2559        3.5960      678.4373      682.0333     247.777410       2.46088
  25     40.54      434.7023        4.2922      676.5605      680.8527     246.150404       2.01849
  24     48.69      435.1261        5.1290      674.5179      679.6469     244.520793       1.68639
  23     57.69      435.4803        6.0447      672.4737      678.5184     243.038080       1.38982
  22     68.43      435.7810        7.1312      670.2400      677.3712     241.590224       1.13821
  21     81.20      435.9706        8.4214      667.8297      676.2511     240.280579       0.86539
  20     96.49      436.0392        9.9515      665.1892      675.1407     239.101494       0.65077
  19     114.6      436.0575       11.7546      662.1829      673.9375     237.879974       0.57036
  18     136.5      436.0248       13.8696      658.7496      672.6192     236.594374       0.49434
  17     162.9      435.9377       16.3565      654.7543      671.1109     235.173142       0.45428
  16     196.4      435.7164       19.5360      649.6088      669.1448     233.428344       0.43919
  15     218.7      435.5332       21.5958      645.9314      667.5272     231.994063       0.54454
  14     243.0      435.3188       23.8089      641.4347      665.2435     229.924719       0.71772
  13     269.0      435.0720       26.1778      635.8219      661.9997     226.927655       0.97223
  12     297.5      434.7941       28.7038      629.0631      657.7669     222.972790       1.17297
  11     328.5      434.4946       31.3945      621.7465      653.1410     218.646432       1.17632
  10     361.9      434.1764       34.2479      613.8391      648.0869     213.910566       1.19822
   9     398.1      433.8436       37.2689      605.1364      642.4053     208.561627       1.24618
   8     437.6      433.5066       40.4570      595.5028      635.9597     202.453097       1.30604
   7     480.5      433.1742       43.8119      585.1288      628.9407     195.766552       1.31321
   6     533.0      432.8208       47.8645      572.4011      620.2656     187.444783       1.33871
   5     589.8      432.5432       52.1163      558.5404      610.6567     178.113521       1.38507
   4     651.6      432.4535       56.5765      542.9091      599.4857     167.032124       1.51541
   3     718.7      432.6728       61.2329      526.0373      587.2701     154.597393       1.56270
   2     792.3      433.4931       66.0648      507.7692      573.8340     140.340908       1.63506
   1     891.5      436.1060       72.3375      483.1004      555.4379     119.331864       1.78777
   0    1013.0      443.0167       79.5041      454.9971      534.5012      91.484517       1.93358



 Wavenumbers:  2600. -  3250. cm-1, ATM      1
 LEVEL PRESSURE   UPWARD FLUX   DIFDOWN FLUX  DIRDOWN FLUX  DOWNWARD FLUX   NET FLUX    HEATING RATE
          mb          W/m2          W/m2          W/m2        W/m2          W/m2       degree/day
  51    .06700        0.0228        0.0000        6.1772        6.1772       6.154406       0.00000
  50    .07753        0.0228        0.0000        6.1772        6.1772       6.154398       0.00640
  49    .09103        0.0228        0.0000        6.1772        6.1772       6.154388       0.00627
  48    0.1069        0.0228        0.0000        6.1772        6.1772       6.154376       0.00613
  47    0.1255        0.0228        0.0000        6.1772        6.1772       6.154363       0.00600
  46    0.1487        0.0228        0.0000        6.1772        6.1772       6.154346       0.00608
  45    0.1794        0.0228        0.0000        6.1771        6.1771       6.154324       0.00625
  44    0.2165        0.0228        0.0000        6.1771        6.1771       6.154297       0.00612
  43    0.2613        0.0228        0.0000        6.1771        6.1771       6.154265       0.00600
  42    0.3336        0.0228        0.0000        6.1770        6.1770       6.154212       0.00617
  41    0.4307        0.0228        0.0000        6.1770        6.1770       6.154140       0.00621
  40    0.5894        0.0228        0.0000        6.1768        6.1768       6.154021       0.00637
  39     1.339        0.0228        0.0000        6.1761        6.1761       6.153311       0.00799
  38     1.782        0.0228        0.0000        6.1756        6.1756       6.152766       0.01039
  37     2.292        0.0228        0.0000        6.1749        6.1749       6.152044       0.01194
  36     2.964        0.0228        0.0000        6.1738        6.1738       6.150995       0.01317
  35     3.853        0.0228        0.0000        6.1723        6.1723       6.149495       0.01423
  34     5.035        0.0228        0.0000        6.1702        6.1702       6.147395       0.01500
  33     6.613        0.0228        0.0000        6.1673        6.1673       6.144526       0.01534
  32     8.786        0.0228        0.0000        6.1635        6.1635       6.140730       0.01474
  31     11.80        0.0228        0.0000        6.1584        6.1584       6.135638       0.01426
  30     15.07        0.0228        0.0000        6.1535        6.1535       6.130720       0.01270
  29     18.79        0.0228        0.0000        6.1487        6.1487       6.125857       0.01102
  28     23.16        0.0228        0.0000        6.1437        6.1437       6.120889       0.00961
  27     28.12        0.0228        0.0000        6.1386        6.1386       6.115792       0.00866
  26     33.73        0.0228        0.0000        6.1330        6.1330       6.110168       0.00846
  25     40.54        0.0228        0.0000        6.1257        6.1257       6.102908       0.00901
  24     48.69        0.0228        0.0000        6.1160        6.1160       6.093185       0.01006
  23     57.69        0.0228        0.0000        6.1040        6.1040       6.081187       0.01125
  22     68.43        0.0228        0.0000        6.0882        6.0882       6.065410       0.01240
  21     81.20        0.0228        0.0000        6.0679        6.0679       6.045131       0.01340
  20     96.49        0.0228        0.0000        6.0425        6.0426       6.019767       0.01400
  19     114.6        0.0228        0.0000        6.0111        6.0111       5.988317       0.01468
  18     136.5        0.0228        0.0000        5.9741        5.9742       5.951392       0.01420
  17     162.9        0.0228        0.0001        5.9317        5.9317       5.908967       0.01356
  16     196.4        0.0228        0.0001        5.8800        5.8800       5.857289       0.01301
  15     218.7        0.0228        0.0001        5.8456        5.8456       5.822888       0.01306
  14     243.0        0.0228        0.0001        5.8045        5.8046       5.781822       0.01424
  13     269.0        0.0228        0.0001        5.7542        5.7543       5.731558       0.01631
  12     297.5        0.0228        0.0001        5.6930        5.6931       5.670334       0.01816
  11     328.5        0.0228        0.0001        5.6224        5.6225       5.599726       0.01920
  10     361.9        0.0228        0.0001        5.5383        5.5384       5.515629       0.02128
   9     398.1        0.0228        0.0001        5.4334        5.4335       5.410637       0.02446
   8     437.6        0.0229        0.0001        5.2990        5.2992       5.276276       0.02873
   7     480.5        0.0230        0.0001        5.1311        5.1313       5.108288       0.03299
   6     533.0        0.0231        0.0002        4.8991        4.8993       4.876187       0.03734
   5     589.8        0.0233        0.0002        4.6246        4.6248       4.601519       0.04077
   4     651.6        0.0236        0.0002        4.3061        4.3062       4.282667       0.04360
   3     718.7        0.0241        0.0002        3.9652        3.9653       3.941273       0.04290
   2     792.3        0.0248        0.0002        3.5850        3.5852       3.560349       0.04369
   1     891.5        0.0267        0.0002        3.0571        3.0573       3.030624       0.04508
   0    1013.0        0.0311        0.0002        2.4883        2.4885       2.457379       0.03980



 Wavenumbers:  3250. -  4000. cm-1, ATM      1
 LEVEL PRESSURE   UPWARD FLUX   DIFDOWN FLUX  DIRDOWN FLUX  DOWNWARD FLUX   NET FLUX    HEATING RATE
          mb          W/m2          W/m2          W/m2        W/m2          W/m2       degree/day
  51    .06700        0.0005        0.0000       10.4139       10.4139      10.413417       0.00000
  50    .07753        0.0005        0.0000       10.4089       10.4089      10.408414       4.01017
  49    .09103        0.0005        0.0000       10.4052       10.4052      10.404730       2.30264
  48    0.1069        0.0005        0.0000       10.4024       10.4024      10.401962       1.47329
  47    0.1255        0.0005        0.0000       10.4000       10.4000      10.399523       1.10609
  46    0.1487        0.0005        0.0000       10.3974       10.3974      10.396915       0.95033
  45    0.1794        0.0005        0.0000       10.3943       10.3943      10.393828       0.84768
  44    0.2165        0.0005        0.0000       10.3911       10.3911      10.390663       0.71980
  43    0.2613        0.0005        0.0000       10.3879       10.3879      10.387418       0.61178
  42    0.3336        0.0005        0.0000       10.3833       10.3833      10.382866       0.53066
  41    0.4307        0.0005        0.0000       10.3782       10.3782      10.377747       0.44515
  40    0.5894        0.0005        0.0000       10.3708       10.3708      10.370347       0.39348
  39     1.339        0.0005        0.0000       10.3426       10.3426      10.342098       0.31804
  38     1.782        0.0005        0.0000       10.3300       10.3300      10.329515       0.23956
  37     2.292        0.0005        0.0000       10.3179       10.3179      10.317431       0.20013
  36     2.964        0.0005        0.0000       10.3044       10.3044      10.303908       0.16976
  35     3.853        0.0005        0.0000       10.2885       10.2885      10.288027       0.15070
  34     5.035        0.0005        0.0000       10.2687       10.2687      10.268233       0.14140
  33     6.613        0.0005        0.0000       10.2426       10.2426      10.242119       0.13961
  32     8.786        0.0005        0.0000       10.2064       10.2064      10.205904       0.14065
  31     11.80        0.0005        0.0000       10.1525       10.1525      10.152041       0.15080
  30     15.07        0.0005        0.0000       10.0928       10.0928      10.092384       0.15402
  29     18.79        0.0004        0.0000       10.0243       10.0243      10.023854       0.15538
  28     23.16        0.0004        0.0000        9.9446        9.9447       9.944231       0.15396
  27     28.12        0.0004        0.0000        9.8567        9.8567       9.856265       0.14954
  26     33.73        0.0004        0.0000        9.7648        9.7648       9.764377       0.13816
  25     40.54        0.0004        0.0001        9.6639        9.6640       9.663555       0.12508
  24     48.69        0.0004        0.0001        9.5560        9.5560       9.555628       0.11169
  23     57.69        0.0004        0.0001        9.4487        9.4488       9.448426       0.10049
  22     68.43        0.0004        0.0001        9.3290        9.3290       9.328657       0.09415
  21     81.20        0.0004        0.0001        9.1906        9.1907       9.190325       0.09141
  20     96.49        0.0003        0.0001        9.0288        9.0289       9.028575       0.08927
  19     114.6        0.0003        0.0001        8.8349        8.8351       8.834734       0.09051
  18     136.5        0.0003        0.0002        8.6188        8.6190       8.618709       0.08307
  17     162.9        0.0003        0.0002        8.3676        8.3678       8.367526       0.08029
  16     196.4        0.0002        0.0002        8.0085        8.0087       8.008474       0.09038
  15     218.7        0.0002        0.0002        7.6747        7.6749       7.674693       0.12672
  14     243.0        0.0002        0.0002        7.2232        7.2234       7.223254       0.15657
  13     269.0        0.0002        0.0003        6.6545        6.6547       6.654556       0.18448
  12     297.5        0.0001        0.0003        5.9999        6.0002       6.000009       0.19413
  11     328.5        0.0001        0.0002        5.3378        5.3380       5.337911       0.18002
  10     361.9        0.0001        0.0002        4.6890        4.6892       4.689086       0.16416
   9     398.1        0.0001        0.0002        4.0779        4.0781       4.078014       0.14237
   8     437.6        0.0001        0.0002        3.5121        3.5123       3.512203       0.12097
   7     480.5        0.0001        0.0002        3.0027        3.0029       3.002795       0.10005
   6     533.0        0.0000        0.0002        2.4633        2.4635       2.463486       0.08676
   5     589.8        0.0000        0.0002        1.9505        1.9506       1.950596       0.07613
   4     651.6        0.0000        0.0001        1.4253        1.4255       1.425456       0.07181
   3     718.7        0.0000        0.0001        0.9366        0.9367       0.936643       0.06143
   2     792.3        0.0000        0.0001        0.5289        0.5290       0.528946       0.04676
   1     891.5        0.0000        0.0000        0.1734        0.1734       0.173403       0.03025
   0    1013.0        0.0004        0.0000        0.0192        0.0192       0.018836       0.01073



 Wavenumbers:  4000. -  4650. cm-1, ATM      1
 LEVEL PRESSURE   UPWARD FLUX   DIFDOWN FLUX  DIRDOWN FLUX  DOWNWARD FLUX   NET FLUX    HEATING RATE
          mb          W/m2          W/m2          W/m2        W/m2          W/m2       degree/day
  51    .06700        0.5550        0.0000       12.2291       12.2291      11.674008       0.00000
  50    .07753        0.5550        0.0000       12.2291       12.2291      11.674007       0.00080
  49    .09103        0.5550        0.0000       12.2291       12.2291      11.674005       0.00078
  48    0.1069        0.5550        0.0000       12.2291       12.2291      11.674004       0.00076
  47    0.1255        0.5550        0.0000       12.2290       12.2290      11.674002       0.00075
  46    0.1487        0.5550        0.0000       12.2290       12.2290      11.674000       0.00076
  45    0.1794        0.5550        0.0000       12.2290       12.2290      11.673997       0.00078
  44    0.2165        0.5550        0.0000       12.2290       12.2290      11.673994       0.00076
  43    0.2613        0.5550        0.0000       12.2290       12.2290      11.673990       0.00075
  42    0.3336        0.5550        0.0000       12.2290       12.2290      11.673983       0.00077
  41    0.4307        0.5550        0.0000       12.2290       12.2290      11.673975       0.00077
  40    0.5894        0.5550        0.0000       12.2290       12.2290      11.673960       0.00080
  39     1.339        0.5550        0.0000       12.2289       12.2289      11.673870       0.00101
  38     1.782        0.5550        0.0000       12.2288       12.2288      11.673800       0.00133
  37     2.292        0.5550        0.0000       12.2287       12.2287      11.673707       0.00156
  36     2.964        0.5550        0.0000       12.2286       12.2286      11.673566       0.00176
  35     3.853        0.5550        0.0000       12.2284       12.2284      11.673358       0.00197
  34     5.035        0.5550        0.0000       12.2281       12.2281      11.673052       0.00219
  33     6.613        0.5550        0.0000       12.2276       12.2276      11.672600       0.00241
  32     8.786        0.5550        0.0000       12.2269       12.2270      11.671934       0.00259
  31     11.80        0.5550        0.0000       12.2259       12.2259      11.670886       0.00293
  30     15.07        0.5550        0.0001       12.2246       12.2247      11.669658       0.00317
  29     18.79        0.5550        0.0001       12.2231       12.2232      11.668171       0.00337
  28     23.16        0.5550        0.0001       12.2212       12.2213      11.666326       0.00357
  27     28.12        0.5550        0.0001       12.2189       12.2190      11.664091       0.00380
  26     33.73        0.5549        0.0001       12.2162       12.2163      11.661335       0.00414
  25     40.54        0.5549        0.0001       12.2124       12.2125      11.657595       0.00464
  24     48.69        0.5549        0.0002       12.2073       12.2075      11.652610       0.00516
  23     57.69        0.5549        0.0002       12.2014       12.2016      11.646699       0.00554
  22     68.43        0.5548        0.0002       12.1939       12.1941      11.639292       0.00582
  21     81.20        0.5548        0.0003       12.1847       12.1850      11.630168       0.00603
  20     96.49        0.5548        0.0004       12.1735       12.1738      11.619066       0.00613
  19     114.6        0.5547        0.0004       12.1595       12.1599      11.605204       0.00647
  18     136.5        0.5547        0.0005       12.1427       12.1432      11.588514       0.00642
  17     162.9        0.5547        0.0006       12.1222       12.1228      11.568093       0.00653
  16     196.4        0.5546        0.0007       12.0940       12.0947      11.540034       0.00706
  15     218.7        0.5547        0.0008       12.0726       12.0734      11.518710       0.00810
  14     243.0        0.5547        0.0009       12.0443       12.0452      11.490510       0.00978
  13     269.0        0.5548        0.0010       12.0059       12.0069      11.452062       0.01247
  12     297.5        0.5550        0.0011       11.9546       11.9557      11.400690       0.01524
  11     328.5        0.5553        0.0012       11.8903       11.8915      11.336211       0.01753
  10     361.9        0.5557        0.0013       11.8079       11.8092      11.253529       0.02092
   9     398.1        0.5562        0.0014       11.7011       11.7025      11.146285       0.02499
   8     437.6        0.5568        0.0015       11.5647       11.5662      11.009393       0.02927
   7     480.5        0.5577        0.0016       11.4016       11.4032      10.845574       0.03217
   6     533.0        0.5589        0.0018       11.1895       11.1913      10.632367       0.03430
   5     589.8        0.5608        0.0019       10.9509       10.9528      10.392022       0.03567
   4     651.6        0.5636        0.0021       10.6521       10.6541      10.090528       0.04123
   3     718.7        0.5681        0.0022       10.2604       10.2626       9.694551       0.04976
   2     792.3        0.5756        0.0023        9.7481        9.7504       9.174786       0.05961
   1     891.5        0.5931        0.0024        9.0115        9.0139       8.420827       0.06416
   0    1013.0        0.6346        0.0025        8.2066        8.2091       7.574537       0.05876



 Wavenumbers:  4650. -  5150. cm-1, ATM      1
 LEVEL PRESSURE   UPWARD FLUX   DIFDOWN FLUX  DIRDOWN FLUX  DOWNWARD FLUX   NET FLUX    HEATING RATE
          mb          W/m2          W/m2          W/m2        W/m2          W/m2       degree/day
  51    .06700        0.1056        0.0000       11.5754       11.5754      11.469762       0.00000
  50    .07753        0.1056        0.0000       11.5751       11.5751      11.469526       0.18906
  49    .09103        0.1056        0.0000       11.5748       11.5748      11.469231       0.18445
  48    0.1069        0.1056        0.0000       11.5745       11.5745      11.468893       0.17960
  47    0.1255        0.1056        0.0000       11.5741       11.5741      11.468508       0.17468
  46    0.1487        0.1056        0.0000       11.5736       11.5736      11.468025       0.17596
  45    0.1794        0.1056        0.0000       11.5730       11.5730      11.467372       0.17934
  44    0.2165        0.1056        0.0000       11.5722       11.5722      11.466608       0.17386
  43    0.2613        0.1056        0.0000       11.5713       11.5713      11.465715       0.16826
  42    0.3336        0.1056        0.0000       11.5699       11.5699      11.464267       0.16883
  41    0.4307        0.1056        0.0000       11.5680       11.5680      11.462400       0.16236
  40    0.5894        0.1056        0.0000       11.5651       11.5651      11.459474       0.15560
  39     1.339        0.1056        0.0000       11.5530       11.5530      11.447438       0.13550
  38     1.782        0.1056        0.0000       11.5472       11.5472      11.441563       0.11185
  37     2.292        0.1056        0.0000       11.5413       11.5413      11.435667       0.09765
  36     2.964        0.1056        0.0000       11.5347       11.5347      11.429147       0.08185
  35     3.853        0.1056        0.0000       11.5277       11.5278      11.422173       0.06618
  34     5.035        0.1056        0.0000       11.5205       11.5205      11.414955       0.05157
  33     6.613        0.1056        0.0000       11.5131       11.5132      11.407594       0.03935
  32     8.786        0.1056        0.0000       11.5053       11.5054      11.399791       0.03030
  31     11.80        0.1056        0.0001       11.4957       11.4957      11.390166       0.02695
  30     15.07        0.1055        0.0001       11.4855       11.4855      11.380007       0.02623
  29     18.79        0.1055        0.0001       11.4732       11.4733      11.367835       0.02760
  28     23.16        0.1055        0.0001       11.4577       11.4579      11.352372       0.02990
  27     28.12        0.1055        0.0002       11.4384       11.4385      11.333056       0.03284
  26     33.73        0.1054        0.0002       11.4149       11.4151      11.309620       0.03524
  25     40.54        0.1054        0.0002       11.3843       11.3845      11.279138       0.03782
  24     48.69        0.1054        0.0003       11.3451       11.3454      11.239990       0.04051
  23     57.69        0.1053        0.0003       11.3001       11.3004      11.195073       0.04210
  22     68.43        0.1053        0.0004       11.2451       11.2455      11.140176       0.04316
  21     81.20        0.1052        0.0004       11.1792       11.1796      11.074372       0.04348
  20     96.49        0.1052        0.0005       11.1025       11.1030      10.997819       0.04225
  19     114.6        0.1051        0.0006       11.0159       11.0165      10.911376       0.04036
  18     136.5        0.1050        0.0007       10.9211       10.9218      10.816780       0.03637
  17     162.9        0.1049        0.0008       10.8192       10.8200      10.715110       0.03250
  16     196.4        0.1048        0.0010       10.7016       10.7026      10.597757       0.02954
  15     218.7        0.1047        0.0011       10.6296       10.6307      10.525933       0.02727
  14     243.0        0.1047        0.0012       10.5524       10.5536      10.448925       0.02671
  13     269.0        0.1046        0.0013       10.4662       10.4676      10.362957       0.02789
  12     297.5        0.1046        0.0015       10.3653       10.3668      10.262176       0.02989
  11     328.5        0.1046        0.0016       10.2487       10.2503      10.145693       0.03167
  10     361.9        0.1046        0.0017       10.1127       10.1144      10.009794       0.03438
   9     398.1        0.1047        0.0019        9.9529        9.9548       9.850111       0.03720
   8     437.6        0.1048        0.0020        9.7648        9.7669       9.662069       0.04020
   7     480.5        0.1050        0.0022        9.5450        9.5472       9.442228       0.04318
   6     533.0        0.1053        0.0023        9.2527        9.2551       9.149731       0.04705
   5     589.8        0.1059        0.0025        8.9125        8.9150       8.809141       0.05055
   4     651.6        0.1067        0.0026        8.5122        8.5148       8.408070       0.05485
   3     718.7        0.1081        0.0028        8.0643        8.0671       7.959001       0.05644
   2     792.3        0.1103        0.0029        7.5795        7.5823       7.472020       0.05585
   1     891.5        0.1151        0.0030        6.9392        6.9422       6.827051       0.05488
   0    1013.0        0.1253        0.0030        6.2284        6.2314       6.106124       0.05006



 Wavenumbers:  5150. -  6150. cm-1, ATM      1
 LEVEL PRESSURE   UPWARD FLUX   DIFDOWN FLUX  DIRDOWN FLUX  DOWNWARD FLUX   NET FLUX    HEATING RATE
          mb          W/m2          W/m2          W/m2        W/m2          W/m2       degree/day
  51    .06700        1.2616        0.0000       29.0195       29.0195      27.757899       0.00000
  50    .07753        1.2616        0.0000       29.0195       29.0195      27.757860       0.03156
  49    .09103        1.2616        0.0000       29.0194       29.0194      27.757809       0.03205
  48    0.1069        1.2616        0.0000       29.0194       29.0194      27.757748       0.03256
  47    0.1255        1.2616        0.0000       29.0193       29.0193      27.757675       0.03306
  46    0.1487        1.2616        0.0000       29.0192       29.0192      27.757579       0.03483
  45    0.1794        1.2616        0.0000       29.0190       29.0191      27.757444       0.03708
  44    0.2165        1.2616        0.0000       29.0189       29.0189      27.757279       0.03764
  43    0.2613        1.2616        0.0000       29.0187       29.0187      27.757076       0.03822
  42    0.3336        1.2616        0.0000       29.0183       29.0183      27.756729       0.04039
  41    0.4307        1.2616        0.0000       29.0179       29.0179      27.756259       0.04094
  40    0.5894        1.2616        0.0000       29.0171       29.0171      27.755469       0.04196
  39     1.339        1.2616        0.0000       29.0132       29.0132      27.751665       0.04283
  38     1.782        1.2616        0.0000       29.0110       29.0110      27.749448       0.04221
  37     2.292        1.2616        0.0001       29.0084       29.0085      27.746937       0.04159
  36     2.964        1.2615        0.0001       29.0052       29.0053      27.743744       0.04009
  35     3.853        1.2615        0.0001       29.0011       29.0012      27.739680       0.03857
  34     5.035        1.2615        0.0001       28.9958       28.9959      27.734437       0.03745
  33     6.613        1.2615        0.0002       28.9889       28.9891      27.727620       0.03644
  32     8.786        1.2614        0.0002       28.9800       28.9802      27.718759       0.03442
  31     11.80        1.2614        0.0003       28.9678       28.9681      27.706723       0.03370
  30     15.07        1.2613        0.0004       28.9555       28.9559      27.694595       0.03131
  29     18.79        1.2612        0.0005       28.9426       28.9431      27.681852       0.02889
  28     23.16        1.2611        0.0006       28.9286       28.9292      27.668046       0.02670
  27     28.12        1.2610        0.0007       28.9137       28.9145      27.653440       0.02483
  26     33.73        1.2609        0.0009       28.8986       28.8995      27.638546       0.02239
  25     40.54        1.2608        0.0010       28.8819       28.8830      27.622178       0.02031
  24     48.69        1.2606        0.0012       28.8640       28.8652      27.604593       0.01820
  23     57.69        1.2605        0.0015       28.8461       28.8475      27.587090       0.01641
  22     68.43        1.2603        0.0017       28.8266       28.8283      27.568055       0.01496
  21     81.20        1.2600        0.0021       28.8050       28.8071      27.547077       0.01386
  20     96.49        1.2598        0.0025       28.7807       28.7832      27.523399       0.01307
  19     114.6        1.2594        0.0029       28.7528       28.7557      27.496280       0.01266
  18     136.5        1.2591        0.0035       28.7203       28.7238      27.464685       0.01215
  17     162.9        1.2586        0.0041       28.6724       28.6765      27.417846       0.01497
  16     196.4        1.2581        0.0049       28.5720       28.5770      27.318890       0.02491
  15     218.7        1.2577        0.0055       28.4208       28.4263      27.168563       0.05707
  14     243.0        1.2573        0.0060       28.1034       28.1094      26.852076       0.10977
  13     269.0        1.2570        0.0065       27.5252       27.5317      26.274726       0.18729
  12     297.5        1.2567        0.0070       26.7526       26.7597      25.503017       0.22888
  11     328.5        1.2563        0.0075       25.9698       25.9773      24.720967       0.21264
  10     361.9        1.2561        0.0080       25.0974       25.1054      23.849312       0.22054
   9     398.1        1.2559        0.0085       24.0884       24.0969      22.841020       0.23491
   8     437.6        1.2558        0.0089       22.9721       22.9811      21.725226       0.23856
   7     480.5        1.2559        0.0093       21.8183       21.8276      20.571726       0.22654
   6     533.0        1.2563        0.0097       20.4950       20.5047      19.248384       0.21288
   5     589.8        1.2572        0.0101       19.2180       19.2281      17.970842       0.18963
   4     651.6        1.2594        0.0105       17.9988       18.0093      16.749969       0.16696
   3     718.7        1.2635        0.0110       16.9782       16.9892      15.725716       0.12872
   2     792.3        1.2716        0.0115       16.1152       16.1267      14.855120       0.09985
   1     891.5        1.2933        0.0121       15.0665       15.0787      13.785354       0.09103
   0    1013.0        1.3575        0.0128       13.8814       13.8942      12.536724       0.08670



 Wavenumbers:  6150. -  7700. cm-1, ATM      1
 LEVEL PRESSURE   UPWARD FLUX   DIFDOWN FLUX  DIRDOWN FLUX  DOWNWARD FLUX   NET FLUX    HEATING RATE
          mb          W/m2          W/m2          W/m2        W/m2          W/m2       degree/day
  51    .06700        2.5898        0.0000       53.6727       53.6727      51.082872       0.00000
  50    .07753        2.5898        0.0000       53.6726       53.6726      51.082815       0.04553
  49    .09103        2.5898        0.0000       53.6726       53.6726      51.082741       0.04583
  48    0.1069        2.5898        0.0000       53.6725       53.6725      51.082655       0.04614
  47    0.1255        2.5898        0.0000       53.6724       53.6724      51.082552       0.04645
  46    0.1487        2.5898        0.0000       53.6722       53.6722      51.082419       0.04852
  45    0.1794        2.5898        0.0000       53.6720       53.6720      51.082232       0.05127
  44    0.2165        2.5898        0.0000       53.6718       53.6718      51.082005       0.05168
  43    0.2613        2.5898        0.0000       53.6715       53.6715      51.081729       0.05211
  42    0.3336        2.5898        0.0000       53.6710       53.6711      51.081259       0.05472
  41    0.4307        2.5898        0.0000       53.6704       53.6704      51.080624       0.05523
  40    0.5894        2.5898        0.0001       53.6693       53.6693      51.079564       0.05637
  39     1.339        2.5897        0.0001       53.6640       53.6642      51.074466       0.05740
  38     1.782        2.5897        0.0002       53.6610       53.6611      51.071490       0.05666
  37     2.292        2.5896        0.0002       53.6575       53.6577      51.068105       0.05606
  36     2.964        2.5895        0.0003       53.6530       53.6533      51.063772       0.05439
  35     3.853        2.5894        0.0004       53.6472       53.6477      51.058214       0.05275
  34     5.035        2.5893        0.0005       53.6398       53.6403      51.050992       0.05159
  33     6.613        2.5892        0.0007       53.6300       53.6307      51.041535       0.05056
  32     8.786        2.5890        0.0009       53.6171       53.6181      51.029117       0.04823
  31     11.80        2.5886        0.0013       53.5994       53.6006      51.012000       0.04792
  30     15.07        2.5883        0.0016       53.5811       53.5828      50.994433       0.04536
  29     18.79        2.5879        0.0020       53.5615       53.5635      50.975586       0.04273
  28     23.16        2.5875        0.0025       53.5397       53.5422      50.954710       0.04037
  27     28.12        2.5870        0.0031       53.5161       53.5191      50.932098       0.03844
  26     33.73        2.5865        0.0037       53.4912       53.4949      50.908431       0.03558
  25     40.54        2.5858        0.0044       53.4632       53.4676      50.881841       0.03299
  24     48.69        2.5850        0.0053       53.4322       53.4374      50.852461       0.03040
  23     57.69        2.5841        0.0062       53.4003       53.4066      50.822500       0.02808
  22     68.43        2.5830        0.0074       53.3648       53.3722      50.789206       0.02617
  21     81.20        2.5817        0.0088       53.3247       53.3335      50.751740       0.02476
  20     96.49        2.5802        0.0104       53.2788       53.2892      50.708952       0.02362
  19     114.6        2.5784        0.0124       53.2254       53.2377      50.659318       0.02318
  18     136.5        2.5763        0.0147       53.1626       53.1773      50.601065       0.02240
  17     162.9        2.5737        0.0174       53.0733       53.0908      50.517059       0.02685
  16     196.4        2.5704        0.0210       52.8957       52.9167      50.346275       0.04299
  15     218.7        2.5683        0.0232       52.6557       52.6789      50.110655       0.08946
  14     243.0        2.5660        0.0256       52.2148       52.2404      49.674397       0.15131
  13     269.0        2.5636        0.0280       51.4241       51.4521      48.888449       0.25496
  12     297.5        2.5613        0.0302       50.1897       50.2199      47.658652       0.36474
  11     328.5        2.5589        0.0325       48.7872       48.8197      46.260762       0.38008
  10     361.9        2.5567        0.0347       47.2944       47.3291      44.772467       0.37655
   9     398.1        2.5546        0.0369       45.6136       45.6504      43.095842       0.39062
   8     437.6        2.5528        0.0388       43.6555       43.6943      41.141475       0.41786
   7     480.5        2.5517        0.0406       41.5238       41.5644      39.012722       0.41808
   6     533.0        2.5515        0.0424       38.9737       39.0161      36.464602       0.40991
   5     589.8        2.5534        0.0438       36.3051       36.3489      33.795494       0.39618
   4     651.6        2.5601        0.0448       33.4360       33.4808      30.920655       0.39314
   3     718.7        2.5748        0.0454       30.6146       30.6600      28.085251       0.35633
   2     792.3        2.6047        0.0458       27.8646       27.9103      25.305599       0.31879
   1     891.5        2.6851        0.0459       24.6851       24.7310      22.045883       0.27739
   0    1013.0        2.9104        0.0462       21.6735       21.7197      18.809302       0.22473



 Wavenumbers:  7700. -  8050. cm-1, ATM      1
 LEVEL PRESSURE   UPWARD FLUX   DIFDOWN FLUX  DIRDOWN FLUX  DOWNWARD FLUX   NET FLUX    HEATING RATE
          mb          W/m2          W/m2          W/m2        W/m2          W/m2       degree/day
  51    .06700        4.7475        0.0000       12.6845       12.6845       7.936995       0.00000
  50    .07753        4.7475        0.0000       12.6844       12.6844       7.936974       0.01675
  49    .09103        4.7475        0.0000       12.6844       12.6844       7.936948       0.01642
  48    0.1069        4.7475        0.0000       12.6844       12.6844       7.936918       0.01607
  47    0.1255        4.7475        0.0000       12.6844       12.6844       7.936883       0.01573
  46    0.1487        4.7475        0.0000       12.6843       12.6843       7.936839       0.01596
  45    0.1794        4.7475        0.0000       12.6843       12.6843       7.936780       0.01642
  44    0.2165        4.7475        0.0000       12.6842       12.6842       7.936709       0.01611
  43    0.2613        4.7475        0.0000       12.6841       12.6841       7.936625       0.01581
  42    0.3336        4.7475        0.0000       12.6840       12.6840       7.936486       0.01617
  41    0.4307        4.7476        0.0000       12.6838       12.6839       7.936302       0.01600
  40    0.5894        4.7476        0.0000       12.6836       12.6836       7.936002       0.01598
  39     1.339        4.7478        0.0001       12.6823       12.6824       7.934580       0.01601
  38     1.782        4.7479        0.0001       12.6816       12.6816       7.933745       0.01590
  37     2.292        4.7480        0.0001       12.6807       12.6808       7.932778       0.01601
  36     2.964        4.7482        0.0002       12.6796       12.6797       7.931509       0.01593
  35     3.853        4.7484        0.0002       12.6781       12.6783       7.929832       0.01591
  34     5.035        4.7487        0.0003       12.6761       12.6764       7.927605       0.01591
  33     6.613        4.7492        0.0003       12.6734       12.6738       7.924629       0.01591
  32     8.786        4.7497        0.0005       12.6699       12.6703       7.920621       0.01557
  31     11.80        4.7505        0.0006       12.6648       12.6654       7.914890       0.01605
  30     15.07        4.7514        0.0008       12.6593       12.6601       7.908741       0.01588
  29     18.79        4.7523        0.0010       12.6531       12.6541       7.901801       0.01574
  28     23.16        4.7535        0.0012       12.6460       12.6472       7.893704       0.01566
  27     28.12        4.7548        0.0015       12.6377       12.6392       7.884457       0.01572
  26     33.73        4.7562        0.0018       12.6286       12.6303       7.874127       0.01553
  25     40.54        4.7580        0.0021       12.6176       12.6197       7.861673       0.01545
  24     48.69        4.7601        0.0025       12.6043       12.6068       7.846698       0.01550
  23     57.69        4.7625        0.0030       12.5898       12.5928       7.830300       0.01537
  22     68.43        4.7654        0.0035       12.5727       12.5762       7.810842       0.01530
  21     81.20        4.7688        0.0042       12.5523       12.5565       7.787764       0.01525
  20     96.49        4.7729        0.0050       12.5283       12.5333       7.760410       0.01510
  19     114.6        4.7778        0.0059       12.5000       12.5059       7.728139       0.01507
  18     136.5        4.7837        0.0070       12.4669       12.4739       7.690172       0.01460
  17     162.9        4.7909        0.0083       12.4279       12.4362       7.645344       0.01433
  16     196.4        4.8003        0.0100       12.3781       12.3881       7.587797       0.01449
  15     218.7        4.8066        0.0111       12.3458       12.3569       7.550320       0.01423
  14     243.0        4.8136        0.0124       12.3110       12.3234       7.509808       0.01405
  13     269.0        4.8212        0.0137       12.2737       12.2873       7.466093       0.01418
  12     297.5        4.8297        0.0151       12.2336       12.2487       7.418949       0.01398
  11     328.5        4.8391        0.0166       12.1906       12.2072       7.368065       0.01384
  10     361.9        4.8496        0.0182       12.1445       12.1628       7.313215       0.01388
   9     398.1        4.8612        0.0200       12.0951       12.1151       7.253908       0.01382
   8     437.6        4.8742        0.0219       12.0419       12.0638       7.189542       0.01376
   7     480.5        4.8889        0.0239       11.9845       12.0085       7.119547       0.01375
   6     533.0        4.9081        0.0264       11.9132       11.9396       7.031514       0.01416
   5     589.8        4.9304        0.0291       11.8341       11.8632       6.932800       0.01465
   4     651.6        4.9573        0.0319       11.7445       11.7765       6.819172       0.01554
   3     718.7        4.9903        0.0350       11.6412       11.6762       6.685856       0.01675
   2     792.3        5.0323        0.0382       11.5188       11.5570       6.524710       0.01848
   1     891.5        5.1031        0.0424       11.3299       11.3723       6.269250       0.02174
   0    1013.0        5.2156        0.0473       11.0663       11.1136       5.897999       0.02578



 Wavenumbers:  8050. - 12850. cm-1, ATM      1
 LEVEL PRESSURE   UPWARD FLUX   DIFDOWN FLUX  DIRDOWN FLUX  DOWNWARD FLUX   NET FLUX    HEATING RATE
          mb          W/m2          W/m2          W/m2        W/m2          W/m2       degree/day
  51    .06700       96.7514        0.0000      177.5917      177.5917      80.840353       0.00000
  50    .07753       96.7514        0.0000      177.5917      177.5917      80.840353       0.00000
  49    .09103       96.7514        0.0001      177.5916      177.5917      80.840353      -0.00000
  48    0.1069       96.7513        0.0001      177.5916      177.5917      80.840353      -0.00000
  47    0.1255       96.7513        0.0002      177.5915      177.5917      80.840353       0.00000
  46    0.1487       96.7513        0.0002      177.5914      177.5916      80.840353      -0.00000
  45    0.1794       96.7513        0.0003      177.5913      177.5916      80.840353       0.00000
  44    0.2165       96.7512        0.0004      177.5911      177.5916      80.840353      -0.00000
  43    0.2613       96.7512        0.0006      177.5910      177.5915      80.840353       0.00000
  42    0.3336       96.7511        0.0008      177.5907      177.5914      80.840353      -0.00000
  41    0.4307       96.7510        0.0010      177.5903      177.5913      80.840353       0.00000
  40    0.5894       96.7508        0.0015      177.5897      177.5912      80.840353       0.00000
  39     1.339       96.7500        0.0036      177.5867      177.5904      80.840353      -0.00000
  38     1.782       96.7495        0.0049      177.5850      177.5899      80.840353      -0.00000
  37     2.292       96.7490        0.0064      177.5830      177.5893      80.840353       0.00000
  36     2.964       96.7483        0.0083      177.5803      177.5886      80.840353       0.00000
  35     3.853       96.7473        0.0108      177.5768      177.5877      80.840353       0.00000
  34     5.035       96.7460        0.0142      177.5722      177.5864      80.840353       0.00000
  33     6.613       96.7443        0.0187      177.5660      177.5847      80.840353       0.00000
  32     8.786       96.7421        0.0248      177.5576      177.5824      80.840353      -0.00000
  31     11.80       96.7388        0.0335      177.5456      177.5791      80.840353       0.00000
  30     15.07       96.7353        0.0429      177.5328      177.5756      80.840353      -0.00000
  29     18.79       96.7313        0.0534      177.5182      177.5716      80.840353       0.00000
  28     23.16       96.7266        0.0658      177.5012      177.5670      80.840353      -0.00000
  27     28.12       96.7213        0.0800      177.4817      177.5617      80.840353      -0.00000
  26     33.73       96.7153        0.0958      177.4598      177.5557      80.840353       0.00000
  25     40.54       96.7081        0.1151      177.4334      177.5485      80.840353       0.00000
  24     48.69       96.6994        0.1382      177.4015      177.5397      80.840353      -0.00000
  23     57.69       96.6898        0.1637      177.3664      177.5301      80.840353       0.00000
  22     68.43       96.6783        0.1942      177.3245      177.5187      80.840353       0.00000
  21     81.20       96.6647        0.2305      177.2745      177.5050      80.840353       0.00000
  20     96.49       96.6483        0.2738      177.2149      177.4887      80.840353      -0.00000
  19     114.6       96.6291        0.3254      177.1379      177.4632      80.834131       0.00291
  18     136.5       96.6062        0.3866      177.0460      177.4327      80.826408       0.00297
  17     162.9       96.5790        0.4597      176.9328      177.3926      80.813583       0.00410
  16     196.4       96.5436        0.5548      176.7695      177.3243      80.780663       0.00829
  15     218.7       96.5206        0.6173      176.6224      177.2396      80.719066       0.02339
  14     243.0       96.4960        0.6852      176.3836      177.0688      80.572826       0.05072
  13     269.0       96.4705        0.7587      175.9899      176.7486      80.278099       0.09561
  12     297.5       96.4455        0.8379      175.4063      176.2442      79.798773       0.14216
  11     328.5       96.4215        0.9233      174.6989      175.6222      79.200774       0.16259
  10     361.9       96.4002        1.0149      173.8563      174.8713      78.471117       0.18461
   9     398.1       96.3843        1.1130      172.8070      173.9200      77.535729       0.21792
   8     437.6       96.3784        1.2172      171.4586      172.6758      76.297382       0.26477
   7     480.5       96.3881        1.3276      169.7788      171.1063      74.718207       0.31014
   6     533.0       96.4303        1.4612      167.3951      168.8563      72.425964       0.36875
   5     589.8       96.5311        1.6016      164.3583      165.9599      69.428824       0.44487
   4     651.6       96.7551        1.7458      160.3133      162.0592      65.304103       0.56407
   3     718.7       97.1862        1.8922      155.3676      157.2598      60.073579       0.65733
   2     792.3       98.0099        2.0381      149.4371      151.4752      53.465281       0.75790
   1     891.5      100.0965        2.2147      140.7596      142.9742      42.877791       0.90094
   0    1013.0      105.2691        2.3952      130.5875      132.9827      27.713595       1.05293



 Wavenumbers: 12850. - 16000. cm-1, ATM      1
 LEVEL PRESSURE   UPWARD FLUX   DIFDOWN FLUX  DIRDOWN FLUX  DOWNWARD FLUX   NET FLUX    HEATING RATE
          mb          W/m2          W/m2          W/m2        W/m2          W/m2       degree/day
  51    .06700       88.8666        0.0000      111.2769      111.2769      22.410316       0.00000
  50    .07753       88.8666        0.0001      111.2761      111.2761      22.409522       0.63666
  49    .09103       88.8666        0.0002      111.2750      111.2751      22.408522       0.62457
  48    0.1069       88.8666        0.0003      111.2737      111.2740      22.407372       0.61236
  47    0.1255       88.8666        0.0004      111.2723      111.2727      22.406047       0.60053
  46    0.1487       88.8667        0.0005      111.2705      111.2711      22.404371       0.61094
  45    0.1794       88.8668        0.0008      111.2681      111.2688      22.402084       0.62785
  44    0.2165       88.8669        0.0010      111.2652      111.2662      22.399384       0.61424
  43    0.2613       88.8670        0.0013      111.2619      111.2632      22.396196       0.60098
  42    0.3336       88.8673        0.0018      111.2565      111.2583      22.390961       0.61026
  41    0.4307       88.8678        0.0024      111.2495      111.2519      22.384151       0.59217
  40    0.5894       88.8687        0.0035      111.2386      111.2421      22.373327       0.57560
  39     1.339       88.8765        0.0085      111.1914      111.1999      22.323328       0.56290
  38     1.782       88.8835        0.0114      111.1651      111.1766      22.293059       0.57628
  37     2.292       88.8938        0.0149      111.1344      111.1493      22.255454       0.62283
  36     2.964       88.9108        0.0193      111.0922      111.1116      22.200765       0.68651
  35     3.853       88.9381        0.0252      111.0327      111.0579      22.119838       0.76801
  34     5.035       88.9790        0.0331      110.9495      110.9825      22.003526       0.83089
  33     6.613       89.0361        0.0435      110.8371      110.8806      21.844463       0.85035
  32     8.786       89.1106        0.0576      110.6911      110.7487      21.638107       0.80141
  31     11.80       89.2076        0.0777      110.4976      110.5753      21.367697       0.75706
  30     15.07       89.3008        0.0994      110.3072      110.4065      21.105682       0.67647
  29     18.79       89.3963        0.1237      110.1077      110.2314      20.835122       0.61344
  28     23.16       89.4964        0.1522      109.8926      110.0448      20.548448       0.55433
  27     28.12       89.5975        0.1848      109.6674      109.8522      20.254614       0.49950
  26     33.73       89.6917        0.2212      109.4444      109.6657      19.973933       0.42201
  25     40.54       89.7835        0.2653      109.2087      109.4739      19.690424       0.35172
  24     48.69       89.8727        0.3184      108.9580      109.2764      19.403676       0.29674
  23     57.69       89.9499        0.3768      108.7156      109.0924      19.142462       0.24485
  22     68.43       90.0194        0.4463      108.4629      108.9092      18.889814       0.19862
  21     81.20       90.0713        0.5294      108.2097      108.7391      18.667794       0.14671
  20     96.49       90.1046        0.6285      107.9533      108.5818      18.477172       0.10521
  19     114.6       90.1454        0.7475      107.6720      108.4195      18.274105       0.09482
  18     136.5       90.1807        0.8886      107.3565      108.2451      18.064347       0.08066
  17     162.9       90.2108        1.0568      106.9937      108.0505      17.839635       0.07183
  16     196.4       90.2245        1.2749      106.5460      107.8209      17.596408       0.06122
  15     218.7       90.2243        1.4183      106.2580      107.6763      17.451930       0.05485
  14     243.0       90.2202        1.5741      105.9450      107.5191      17.298914       0.05307
  13     269.0       90.2120        1.7431      105.6054      107.3485      17.136442       0.05271
  12     297.5       90.2004        1.9258      105.2354      107.1612      16.960771       0.05210
  11     328.5       90.1875        2.1233      104.8312      106.9545      16.766906       0.05271
  10     361.9       90.1744        2.3360      104.3901      106.7261      16.551636       0.05447
   9     398.1       90.1626        2.5650      103.9076      106.4727      16.310091       0.05627
   8     437.6       90.1550        2.8111      103.3761      106.1871      16.032117       0.05943
   7     480.5       90.1547        3.0748      102.7892      105.8640      15.709293       0.06340
   6     533.0       90.1700        3.4064      102.0354      105.4419      15.271916       0.07036
   5     589.8       90.2158        3.7492      101.1679      104.9171      14.701310       0.08470
   4     651.6       90.3261        4.1222      100.1257      104.2479      13.921830       0.10660
   3     718.7       90.5232        4.5183       98.8964      103.4147      12.891464       0.12949
   2     792.3       90.8790        4.9346       97.4105      102.3450      11.465998       0.16349
   1     891.5       91.7046        5.4780       95.1308      100.6088       8.904127       0.21800
   0    1013.0       93.4010        6.1010       92.1332       98.2342       4.833120       0.28267



 Wavenumbers: 16000. - 22650. cm-1, ATM      1
 LEVEL PRESSURE   UPWARD FLUX   DIFDOWN FLUX  DIRDOWN FLUX  DOWNWARD FLUX   NET FLUX    HEATING RATE
          mb          W/m2          W/m2          W/m2        W/m2          W/m2       degree/day
  51    .06700      158.9939        0.0000      177.4187      177.4187      18.424789       0.00000
  50    .07753      158.9939        0.0004      177.4182      177.4186      18.424633       0.12494
  49    .09103      158.9940        0.0009      177.4174      177.4184      18.424407       0.14170
  48    0.1069      158.9940        0.0015      177.4166      177.4181      18.424103       0.16159
  47    0.1255      158.9941        0.0022      177.4155      177.4178      18.423697       0.18419
  46    0.1487      158.9942        0.0031      177.4142      177.4173      18.423098       0.21826
  45    0.1794      158.9944        0.0043      177.4123      177.4166      18.422162       0.25699
  44    0.2165      158.9948        0.0057      177.4100      177.4157      18.420892       0.28883
  43    0.2613      158.9953        0.0074      177.4071      177.4145      18.419169       0.32471
  42    0.3336      158.9964        0.0101      177.4021      177.4122      18.415894       0.38186
  41    0.4307      158.9980        0.0138      177.3952      177.4090      18.410957       0.42925
  40    0.5894      159.0014        0.0198      177.3832      177.4029      18.401542       0.50070
  39     1.339      159.0290        0.0481      177.3129      177.3610      18.331976       0.78318
  38     1.782      159.0538        0.0647      177.2618      177.3265      18.272712       1.12830
  37     2.292      159.0906        0.0840      177.1936      177.2775      18.186921       1.42092
  36     2.964      159.1512        0.1092      177.0899      177.1991      18.047927       1.74479
  35     3.853      159.2487        0.1426      176.9335      177.0760      17.827349       2.09333
  34     5.035      159.3952        0.1868      176.7066      176.8934      17.498200       2.35130
  33     6.613      159.5999        0.2459      176.3946      176.6405      17.040653       2.44605
  32     8.786      159.8665        0.3254      175.9862      176.3116      16.445062       2.31306
  31     11.80      160.2144        0.4390      175.4430      175.8820      15.667596       2.17666
  30     15.07      160.5486        0.5609      174.9070      175.4679      14.919296       1.93197
  29     18.79      160.8907        0.6984      174.3443      175.0427      14.151941       1.73983
  28     23.16      161.2495        0.8588      173.7359      174.5947      13.345189       1.56000
  27     28.12      161.6121        1.0421      173.0965      174.1386      12.526518       1.39169
  26     33.73      161.9494        1.2471      172.4594      173.7065      11.757080       1.15687
  25     40.54      162.2775        1.4946      171.7791      173.2737      10.996141       0.94403
  24     48.69      162.5961        1.7929      171.0455      172.8384      10.242331       0.78008
  23     57.69      162.8715        2.1204      170.3228      172.4432       9.571700       0.62861
  22     68.43      163.1190        2.5101      169.5506      172.0608       8.941770       0.49521
  21     81.20      163.3036        2.9745      168.7495      171.7240       8.420353       0.34454
  20     96.49      163.4213        3.5276      167.9046      171.4322       8.010927       0.22597
  19     114.6      163.5082        4.1830      166.9611      171.1441       7.635867       0.17513
  18     136.5      163.5755        4.9575      165.8847      170.8421       7.266659       0.14197
  17     162.9      163.6228        5.8764      164.6429      170.5193       6.896542       0.11830
  16     196.4      163.6136        7.0634      163.1135      170.1769       6.563368       0.08386
  15     218.7      163.5815        7.8400      162.1407      169.9806       6.399105       0.06236
  14     243.0      163.5346        8.6812      161.0998      169.7810       6.246454       0.05294
  13     269.0      163.4710        9.5897      159.9894      169.5790       6.108023       0.04491
  12     297.5      163.3902       10.5676      158.8068      169.3745       5.984244       0.03671
  11     328.5      163.2970       11.6200      157.5408      169.1608       5.863736       0.03277
  10     361.9      163.1912       12.7480      156.1899      168.9379       5.746655       0.02962
   9     398.1      163.0724       13.9562      154.7483      168.7045       5.632063       0.02670
   8     437.6      162.9418       15.2471      153.2114      168.4584       5.516605       0.02469
   7     480.5      162.7991       16.6233      151.5757      168.1990       5.399979       0.02290
   6     533.0      162.6220       18.3072      149.5758      167.8830       5.260983       0.02236
   5     589.8      162.4340       20.1100      147.4311      167.5411       5.107118       0.02284
   4     651.6      162.2421       22.0342      145.1291      167.1632       4.921140       0.02543
   3     718.7      162.0534       24.0826      142.6582      166.7408       4.687359       0.02938
   2     792.3      161.8868       26.2541      140.0002      166.2543       4.367424       0.03669
   1     891.5      161.7496       29.1458      136.3747      165.5205       3.770884       0.05076
   0    1013.0      161.7293       32.5583      131.9846      164.5429       2.813684       0.06646



 Wavenumbers: 22650. - 29000. cm-1, ATM      1
 LEVEL PRESSURE   UPWARD FLUX   DIFDOWN FLUX  DIRDOWN FLUX  DOWNWARD FLUX   NET FLUX    HEATING RATE
          mb          W/m2          W/m2          W/m2        W/m2          W/m2       degree/day
  51    .06700       66.2040        0.0000       66.9514       66.9514       0.747364       0.00000
  50    .07753       66.2039        0.0005       66.9508       66.9513       0.747364       0.00000
  49    .09103       66.2039        0.0011       66.9501       66.9512       0.747364       0.00000
  48    0.1069       66.2038        0.0018       66.9493       66.9511       0.747364       0.00000
  47    0.1255       66.2037        0.0026       66.9484       66.9510       0.747364       0.00000
  46    0.1487       66.2035        0.0036       66.9473       66.9509       0.747364      -0.00000
  45    0.1794       66.2033        0.0050       66.9457       66.9507       0.747364       0.00000
  44    0.2165       66.2031        0.0067       66.9438       66.9505       0.747364       0.00000
  43    0.2613       66.2029        0.0086       66.9416       66.9502       0.747364       0.00000
  42    0.3336       66.2024        0.0119       66.9379       66.9498       0.747364       0.00000
  41    0.4307       66.2018        0.0161       66.9331       66.9492       0.747364       0.00000
  40    0.5894       66.2009        0.0232       66.9251       66.9483       0.747364       0.00000
  39     1.339       66.1965        0.0563       66.8875       66.9438       0.747364       0.00000
  38     1.782       66.1939        0.0758       66.8655       66.9412       0.747364       0.00000
  37     2.292       66.1909        0.0983       66.8399       66.9382       0.747364      -0.00000
  36     2.964       66.1869        0.1279       66.8064       66.9343       0.747364       0.00000
  35     3.853       66.1817        0.1669       66.7621       66.9290       0.747364       0.00000
  34     5.035       66.1747        0.2188       66.7033       66.9221       0.747364       0.00000
  33     6.613       66.1655        0.2881       66.6247       66.9128       0.747364      -0.00000
  32     8.786       66.1530        0.3814       66.5190       66.9003       0.747364      -0.00000
  31     11.80       66.1351        0.5147       66.3678       66.8825       0.747364       0.00000
  30     15.07       66.1160        0.6576       66.2058       66.8634       0.747364       0.00000
  29     18.79       66.0944        0.8187       66.0230       66.8418       0.747364       0.00000
  28     23.16       66.0693        1.0066       65.8100       66.8166       0.747364       0.00000
  27     28.12       66.0406        1.2209       65.5670       66.7879       0.747364       0.00000
  26     33.73       66.0085        1.4601       65.2958       66.7559       0.747364      -0.00000
  25     40.54       65.9700        1.7480       64.9693       66.7173       0.747364       0.00000
  24     48.69       65.9236        2.0936       64.5774       66.6710       0.747364       0.00000
  23     57.69       65.8730        2.4712       64.1492       66.6204       0.747364       0.00000
  22     68.43       65.8131        2.9182       63.6422       66.5604       0.747364      -0.00000
  21     81.20       65.7422        3.4468       63.0427       66.4895       0.747364       0.00000
  20     96.49       65.6584        4.0709       62.3349       66.4058       0.747364      -0.00000
  19     114.6       65.5600        4.8037       61.5036       66.3073       0.747364       0.00000
  18     136.5       65.4448        5.6608       60.5313       66.1922       0.747364       0.00000
  17     162.9       65.3097        6.6653       59.3918       66.0570       0.747364       0.00000
  16     196.4       65.1378        7.9418       57.9433       65.8851       0.747364       0.00000
  15     218.7       65.0269        8.7646       57.0097       65.7742       0.747364      -0.00000
  14     243.0       64.9081        9.6450       56.0104       65.6554       0.747364       0.00000
  13     269.0       64.7813       10.5833       54.9454       65.5287       0.747364       0.00000
  12     297.5       64.6467       11.5788       53.8152       65.3941       0.747364       0.00000
  11     328.5       64.5039       12.6339       52.6174       65.2513       0.747364       0.00000
  10     361.9       64.3531       13.7461       51.3544       65.1005       0.747364      -0.00000
   9     398.1       64.1943       14.9163       50.0253       64.9416       0.747364      -0.00000
   8     437.6       64.0275       16.1429       48.6319       64.7748       0.747364       0.00000
   7     480.5       63.8529       17.4239       47.1764       64.6003       0.747364      -0.00000
   6     533.0       63.6439       18.9548       45.4365       64.3913       0.747364       0.00000
   5     589.8       63.4256       20.5494       43.6236       64.1730       0.747364       0.00000
   4     651.6       63.1986       22.2024       41.7436       63.9460       0.747364       0.00000
   3     718.7       62.9635       23.9092       39.8016       63.7108       0.747364      -0.00000
   2     792.3       62.7214       25.6598       37.8089       63.4687       0.747364       0.00000
   1     891.5       62.4094       27.9049       35.2518       63.1567       0.747364       0.00000
   0    1013.0       62.0563       30.4279       32.3758       62.8037       0.747364      -0.00000



 Wavenumbers: 29000. - 38000. cm-1, ATM      1
 LEVEL PRESSURE   UPWARD FLUX   DIFDOWN FLUX  DIRDOWN FLUX  DOWNWARD FLUX   NET FLUX    HEATING RATE
          mb          W/m2          W/m2          W/m2        W/m2          W/m2       degree/day
  51    .06700       10.0160        0.0000       23.6098       23.6098      13.593825       0.00000
  50    .07753       10.0158        0.0003       23.6055       23.6059      13.590015       3.05391
  49    .09103       10.0156        0.0007       23.5994       23.6001      13.584473       3.46420
  48    0.1069       10.0154        0.0012       23.5912       23.5924      13.577054       3.94915
  47    0.1255       10.0151        0.0018       23.5805       23.5823      13.567133       4.49744
  46    0.1487       10.0148        0.0024       23.5649       23.5673      13.552540       5.31943
  45    0.1794       10.0144        0.0034       23.5408       23.5442      13.529812       6.23954
  44    0.2165       10.0139        0.0045       23.5086       23.5131      13.499171       6.97027
  43    0.2613       10.0134        0.0058       23.4656       23.4714      13.457959       7.76822
  42    0.3336       10.0126        0.0079       23.3856       23.3934      13.380812       8.99458
  41    0.4307       10.0117        0.0107       23.2686       23.2793      13.267558       9.84720
  40    0.5894       10.0104        0.0151       23.0566       23.0717      13.061262      10.97054
  39     1.339       10.0089        0.0343       21.8385       21.8728      11.863917      13.47993
  38     1.782       10.0107        0.0442       21.1242       21.1684      11.157681      13.44559
  37     2.292       10.0152        0.0550       20.3853       20.4403      10.425039      12.13447
  36     2.964       10.0247        0.0683       19.5716       19.6399       9.615238      10.16545
  35     3.853       10.0419        0.0852       18.7101       18.7952       8.753339       8.17958
  34     5.035       10.0695        0.1062       17.8344       17.9406       7.871123       6.30218
  33     6.613       10.1095        0.1689       16.9840       17.1529       7.043356       4.42524
  32     8.786       10.1618        0.1950       16.1805       16.3755       6.213706       3.22206
  31     11.80       10.2306        0.2477       15.3906       15.6383       5.407708       2.25654
  30     15.07       10.2974        0.2955       14.7852       15.0807       4.783288       1.61213
  29     18.79       10.3670        0.3512       14.2611       14.6123       4.245281       1.21983
  28     23.16       10.4416        0.4139       13.7787       14.1927       3.751051       0.95568
  27     28.12       10.5189        0.4852       13.3363       13.8215       3.302521       0.76247
  26     33.73       10.5919        0.5651       12.9429       13.5080       2.916136       0.58094
  25     40.54       10.6633        0.6613       12.5620       13.2233       2.560028       0.44179
  24     48.69       10.7332        0.7763       12.1840       12.9603       2.227104       0.34452
  23     57.69       10.7938        0.9013       11.8374       12.7387       1.944812       0.26461
  22     68.43       10.8475        1.0490       11.4882       12.5371       1.689664       0.20058
  21     81.20       10.8832        1.2244       11.1440       12.3683       1.485121       0.13516
  20     96.49       10.8988        1.4318       10.7955       12.2273       1.328516       0.08643
  19     114.6       10.9044        1.6727       10.4201       12.0927       1.188344       0.06545
  18     136.5       10.9039        1.9495       10.0075       11.9570       1.053087       0.05201
  17     162.9       10.8978        2.2669        9.5507       11.8176       0.919761       0.04262
  16     196.4       10.8739        2.6631        9.0125       11.6755       0.801608       0.02974
  15     218.7       10.8531        2.9136        8.6832       11.5968       0.743703       0.02198
  14     243.0       10.8289        3.1768        8.3421       11.5190       0.690017       0.01862
  13     269.0       10.8010        3.4521        7.9905       11.4426       0.641612       0.01570
  12     297.5       10.7693        3.7384        7.6297       11.3681       0.598774       0.01271
  11     328.5       10.7356        4.0343        7.2588       11.2932       0.557601       0.01119
  10     361.9       10.7000        4.3385        6.8798       11.2183       0.518281       0.00995
   9     398.1       10.6628        4.6493        6.4943       11.1437       0.480870       0.00872
   8     437.6       10.6245        4.9652        6.1039       11.0692       0.444670       0.00774
   7     480.5       10.5852        5.2844        5.7110       10.9954       0.410175       0.00677
   6     533.0       10.5394        5.6518        5.2600       10.9118       0.372423       0.00607
   5     589.8       10.4936        6.0183        4.8110       10.8293       0.335717       0.00545
   4     651.6       10.4487        6.3797        4.3687       10.7484       0.299662       0.00493
   3     718.7       10.4051        6.7339        3.9355       10.6694       0.264213       0.00445
   2     792.3       10.3636        7.0774        3.5156       10.5930       0.229393       0.00399
   1     891.5       10.3154        7.4881        3.0135       10.5016       0.186245       0.00367
   0    1013.0       10.2689        7.9098        2.4975       10.4073       0.138418       0.00332



 Wavenumbers: 38000. - 50000. cm-1, ATM      1
 LEVEL PRESSURE   UPWARD FLUX   DIFDOWN FLUX  DIRDOWN FLUX  DOWNWARD FLUX   NET FLUX    HEATING RATE
          mb          W/m2          W/m2          W/m2        W/m2          W/m2       degree/day
  51    .06700        0.0064        0.0000        1.4562        1.4562       1.449851       0.00000
  50    .07753        0.0063        0.0001        1.4538        1.4538       1.447515       1.87203
  49    .09103        0.0063        0.0002        1.4503        1.4504       1.444181       2.08370
  48    0.1069        0.0062        0.0002        1.4457        1.4460       1.439799       2.33299
  47    0.1255        0.0061        0.0004        1.4398        1.4401       1.434034       2.61327
  46    0.1487        0.0060        0.0005        1.4312        1.4317       1.425688       3.04234
  45    0.1794        0.0058        0.0007        1.4180        1.4187       1.412873       3.51804
  44    0.2165        0.0056        0.0009        1.4006        1.4015       1.395855       3.87133
  43    0.2613        0.0055        0.0011        1.3776        1.3788       1.373331       4.24569
  42    0.3336        0.0052        0.0015        1.3357        1.3372       1.332021       4.81628
  41    0.4307        0.0048        0.0020        1.2758        1.2777       1.272958       5.13538
  40    0.5894        0.0042        0.0026        1.1715        1.1740       1.169828       5.48432
  39     1.339        0.0025        0.0036        0.6739        0.6775       0.675039       5.57043
  38     1.782        0.0018        0.0032        0.4629        0.4661       0.464220       4.01365
  37     2.292        0.0014        0.0027        0.3051        0.3078       0.306382       2.61421
  36     2.964        0.0010        0.0023        0.1905        0.1928       0.191800       1.43835
  35     3.853        0.0007        0.0017        0.1145        0.1162       0.115467       0.72441
  34     5.035        0.0005        0.0013        0.0665        0.0678       0.067273       0.34428
  33     6.613        0.0003        0.0010        0.0381        0.0391       0.038771       0.15237
  32     8.786        0.0002        0.0007        0.0211        0.0218       0.021612       0.06664
  31     11.80        0.0001        0.0004        0.0104        0.0108       0.010638       0.03072
  30     15.07        0.0001        0.0003        0.0053        0.0055       0.005477       0.01332
  29     18.79        0.0000        0.0002        0.0026        0.0028       0.002779       0.00612
  28     23.16        0.0000        0.0001        0.0013        0.0014       0.001356       0.00275
  27     28.12        0.0000        0.0001        0.0006        0.0007       0.000641       0.00121
  26     33.73        0.0000        0.0000        0.0003        0.0003       0.000303       0.00051
  25     40.54        0.0000        0.0000        0.0001        0.0001       0.000134       0.00021
  24     48.69        0.0000        0.0000        0.0000        0.0001       0.000054       0.00008
  23     57.69        0.0000        0.0000        0.0000        0.0000       0.000022       0.00003
  22     68.43        0.0000        0.0000        0.0000        0.0000       0.000008       0.00001
  21     81.20        0.0000        0.0000        0.0000        0.0000       0.000003       0.00000
  20     96.49        0.0000        0.0000        0.0000        0.0000       0.000001       0.00000
  19     114.6        0.0000        0.0000        0.0000        0.0000       0.000000       0.00000
  18     136.5        0.0000        0.0000        0.0000        0.0000       0.000000       0.00000
  17     162.9        0.0000        0.0000        0.0000        0.0000       0.000000       0.00000
  16     196.4        0.0000        0.0000        0.0000        0.0000       0.000000       0.00000
  15     218.7        0.0000        0.0000        0.0000        0.0000       0.000000       0.00000
  14     243.0        0.0000        0.0000        0.0000        0.0000       0.000000       0.00000
  13     269.0        0.0000        0.0000        0.0000        0.0000       0.000000       0.00000
  12     297.5        0.0000        0.0000        0.0000        0.0000       0.000000       0.00000
  11     328.5        0.0000        0.0000        0.0000        0.0000       0.000000       0.00000
  10     361.9        0.0000        0.0000        0.0000        0.0000       0.000000       0.00000
   9     398.1        0.0000        0.0000        0.0000        0.0000       0.000000       0.00000
   8     437.6        0.0000        0.0000        0.0000        0.0000       0.000000       0.00000
   7     480.5        0.0000        0.0000        0.0000        0.0000       0.000000       0.00000
   6     533.0        0.0000        0.0000        0.0000        0.0000       0.000000       0.00000
   5     589.8        0.0000        0.0000        0.0000        0.0000       0.000000       0.00000
   4     651.6        0.0000        0.0000        0.0000        0.0000       0.000000       0.00000
   3     718.7        0.0000        0.0000        0.0000        0.0000       0.000000       0.00000
   2     792.3        0.0000        0.0000        0.0000        0.0000       0.000000       0.00000
   1     891.5        0.0000        0.0000        0.0000        0.0000       0.000000       0.00000
   0    1013.0        0.0000        0.0000        0.0000        0.0000       0.000000       0.00000



 Wavenumbers:   820. -  2600. cm-1, ATM      1
 LEVEL PRESSURE   UPWARD FLUX   DIFDOWN FLUX  DIRDOWN FLUX  DOWNWARD FLUX   NET FLUX    HEATING RATE
          mb          W/m2          W/m2          W/m2        W/m2          W/m2       degree/day
  51    .06700        0.0119        0.0000        6.8121        6.8121       6.800228       0.00000
  50    .07753        0.0119        0.0000        6.8078        6.8078       6.795969       3.41406
  49    .09103        0.0119        0.0000        6.8069        6.8069       6.795050       0.57458
  48    0.1069        0.0119        0.0000        6.8059        6.8059       6.794040       0.53721
  47    0.1255        0.0119        0.0000        6.8047        6.8047       6.792888       0.52229
  46    0.1487        0.0119        0.0000        6.8033        6.8033       6.791473       0.51581
  45    0.1794        0.0119        0.0000        6.8015        6.8015       6.789655       0.49913
  44    0.2165        0.0119        0.0000        6.7995        6.7995       6.787683       0.44870
  43    0.2613        0.0119        0.0000        6.7974        6.7974       6.785568       0.39866
  42    0.3336        0.0119        0.0000        6.7943        6.7943       6.782468       0.36142
  41    0.4307        0.0119        0.0000        6.7907        6.7907       6.778790       0.31975
  40    0.5894        0.0119        0.0000        6.7849        6.7849       6.773069       0.30427
  39     1.339        0.0119        0.0000        6.7584        6.7584       6.746547       0.29858
  38     1.782        0.0119        0.0000        6.7436        6.7436       6.731760       0.28152
  37     2.292        0.0119        0.0000        6.7271        6.7271       6.715276       0.27302
  36     2.964        0.0119        0.0000        6.7063        6.7063       6.694472       0.26116
  35     3.853        0.0119        0.0000        6.6802        6.6802       6.668333       0.24806
  34     5.035        0.0119        0.0000        6.6477        6.6477       6.635862       0.23196
  33     6.613        0.0119        0.0000        6.6073        6.6073       6.595413       0.21624
  32     8.786        0.0119        0.0000        6.5563        6.5563       6.544427       0.19801
  31     11.80        0.0119        0.0000        6.4914        6.4914       6.479558       0.18161
  30     15.07        0.0119        0.0000        6.4346        6.4346       6.422732       0.14671
  29     18.79        0.0119        0.0000        6.3863        6.3863       6.374436       0.10950
  28     23.16        0.0119        0.0000        6.3466        6.3466       6.334769       0.07670
  27     28.12        0.0119        0.0000        6.3148        6.3148       6.302934       0.05412
  26     33.73        0.0119        0.0000        6.2875        6.2875       6.275638       0.04104
  25     40.54        0.0119        0.0000        6.2589        6.2589       6.247070       0.03544
  24     48.69        0.0119        0.0000        6.2266        6.2266       6.214747       0.03345
  23     57.69        0.0119        0.0000        6.1919        6.1919       6.180091       0.03248
  22     68.43        0.0119        0.0000        6.1515        6.1515       6.139614       0.03182
  21     81.20        0.0119        0.0000        6.1049        6.1049       6.093014       0.03079
  20     96.49        0.0119        0.0000        6.0510        6.0510       6.039173       0.02972
  19     114.6        0.0119        0.0000        5.9886        5.9886       5.976795       0.02913
  18     136.5        0.0119        0.0000        5.9170        5.9170       5.905192       0.02753
  17     162.9        0.0118        0.0000        5.8281        5.8282       5.816311       0.02841
  16     196.4        0.0118        0.0000        5.6942        5.6943       5.682417       0.03370
  15     218.7        0.0118        0.0000        5.5730        5.5730       5.561133       0.04605
  14     243.0        0.0118        0.0000        5.4002        5.4002       5.388352       0.05993
  13     269.0        0.0119        0.0000        5.1975        5.1976       5.185713       0.06574
  12     297.5        0.0119        0.0000        4.9809        4.9809       4.969036       0.06426
  11     328.5        0.0119        0.0000        4.7526        4.7526       4.740716       0.06208
  10     361.9        0.0119        0.0000        4.4843        4.4844       4.472481       0.06787
   9     398.1        0.0119        0.0000        4.1916        4.1916       4.179692       0.06821
   8     437.6        0.0119        0.0000        3.9107        3.9107       3.898777       0.06006
   7     480.5        0.0120        0.0000        3.6906        3.6906       3.678653       0.04323
   6     533.0        0.0120        0.0000        3.5118        3.5119       3.499862       0.02876
   5     589.8        0.0121        0.0000        3.3528        3.3529       3.340773       0.02361
   4     651.6        0.0122        0.0000        3.1537        3.1537       3.141508       0.02725
   3     718.7        0.0125        0.0000        2.9176        2.9176       2.905122       0.02971
   2     792.3        0.0130        0.0000        2.6568        2.6569       2.643919       0.02996
   1     891.5        0.0142        0.0000        2.3072        2.3072       2.293059       0.02986
   0    1013.0        0.0172        0.0000        1.8546        1.8547       1.837433       0.03164

  Modules and versions used in this calculation:

       rrtmg_sw.1col.f90:  $Revision$                    rrtmg_sw_init.f90:  $Revision$        
     rrtmgsw_cldprop.f90:  $Revision$                  rrtmgsw_cldprmc.f90:  NOT USED          
     rrtmg_sw_reftra.f90:  $Revision$                  rrtmg_sw_spcvrt.f90:  NOT USED          
     rrtmg_sw_spcvmc.f90:  NOT USED                    rrtmgsw_setcoef.f90:  NOT USED          
     rrtmg_sw_taumol.f90:  $Revision$                  rrtmg_sw_vrtqdr.f90:  NOT USED          
                rrtatm.f:  NOT USED                             util_xxx.f:  NOT USED          
                 extra.f:  NOT USED                       rrtmg_sw_k_g.f90:  $Revision$        

