

 Wavenumbers:   820. - 50000. cm-1, ATM      1
 LEVEL PRESSURE   UPWARD FLUX   DIFDOWN FLUX  DIRDOWN FLUX  DOWNWARD FLUX   NET FLUX    HEATING RATE
          mb          W/m2          W/m2          W/m2        W/m2          W/m2       degree/day
  51    .06700      336.6374        0.0000      553.5072      553.5072     216.869831       0.00000
  50    .07753      336.6369        0.0013      553.4898      553.4911     216.854180      12.54517
  49    .09103      336.6364        0.0029      553.4731      553.4761     216.839667       9.07112
  48    0.1069      336.6358        0.0048      553.4537      553.4585     216.822653       9.05623
  47    0.1255      336.6352        0.0069      553.4298      553.4367     216.801541       9.57140
  46    0.1487      336.6344        0.0096      553.3969      553.4066     216.772154      10.71187
  45    0.1794      336.6334        0.0133      553.3485      553.3618     216.728393      12.01343
  44    0.2165      336.6324        0.0177      553.2864      553.3041     216.671730      12.88974
  43    0.2613      336.6313        0.0228      553.2066      553.2294     216.598133      13.87274
  42    0.3336      336.6298        0.0313      553.0634      553.0947     216.464901      15.53361
  41    0.4307      336.6281        0.0425      552.8609      552.9034     216.275272      16.48780
  40    0.5894      336.6263        0.0604      552.5092      552.5696     215.943375      17.64986
  39     1.339      336.6334        0.1415      550.7386      550.8801     214.246641      19.10215
  38     1.782      336.6486        0.1870      549.8370      550.0240     213.375383      16.58734
  37     2.292      336.6761        0.2388      548.9590      549.1978     212.521709      14.13907
  36     2.964      336.7270        0.3062      547.9969      548.3031     211.576148      11.86965
  35     3.853      336.8148        0.3944      546.9249      547.3193     210.504549      10.16967
  34     5.035      336.9517        0.5107      545.7373      546.2480     209.296226       8.63176
  33     6.613      337.1456        0.6650      544.4287      545.0937     207.948100       7.20708
  32     8.786      337.3977        0.8719      542.9803      543.8522     206.454559       5.80037
  31     11.80      337.7217        1.1662      541.2786      542.4449     204.723202       4.84726
  30     15.07      338.0269        1.4803      539.7336      541.2140     203.187055       3.96603
  29     18.79      338.3337        1.8332      538.1949      540.0281     201.694432       3.38424
  28     23.16      338.6481        2.2431      536.5871      538.8301     200.182064       2.92443
  27     28.12      338.9563        2.7092      534.9299      537.6391     198.682829       2.54860
  26     33.73      339.2261        3.2286      533.2806      536.5092     197.283065       2.10458
  25     40.54      339.4647        3.8533      531.5030      535.3563     195.891580       1.72629
  24     48.69      339.6679        4.6021      529.5641      534.1663     194.498409       1.44171
  23     57.69      339.8092        5.4199      527.6189      533.0388     193.229654       1.18927
  22     68.43      339.8889        6.3878      525.4904      531.8782     191.989301       0.97508
  21     81.20      339.8610        7.5337      523.1926      530.7263     190.865372       0.74267
  20     96.49      339.7143        8.8887      520.6785      529.5672     189.852919       0.55880
  19     114.6      339.4966       10.4803      517.8239      528.3042     188.807583       0.48810
  18     136.5      339.2029       12.3407      514.5740      526.9147     187.711779       0.42136
  17     162.9      338.8239       14.5199      510.8062      525.3261     186.502154       0.38664
  16     196.4      338.2627       17.2920      505.9838      523.2758     185.013075       0.37482
  15     218.7      337.8723       19.0800      502.5732      521.6532     183.780916       0.46780
  14     243.0      337.4420       20.9944      498.4256      519.4200     181.977991       0.62531
  13     269.0      336.9713       23.0359      493.2878      516.3237     179.352435       0.85172
  12     297.5      336.4616       25.2041      487.1896      512.3937     175.932101       1.01443
  11     328.5      335.9194       27.5036      480.6245      508.1280     172.208630       1.01240
  10     361.9      335.3475       29.9310      473.5254      503.4564     168.108921       1.03727
   9     398.1      334.7488       32.4897      465.7439      498.2336     163.484802       1.07732
   8     437.6      334.1314       35.1767      457.2253      492.4020     158.270656       1.11482
   7     480.5      333.5027       37.9888      448.1452      486.1340     152.631333       1.10754
   6     533.0      332.7862       41.3595      437.0724      478.4319     145.645689       1.12377
   5     589.8      332.1106       44.8839      425.1073      469.9913     137.880697       1.15258
   4     651.6      331.5637       48.5506      411.7417      460.2923     128.728668       1.25156
   3     718.7      331.2421       52.3494      397.4244      449.7739     118.531742       1.28147
   2     792.3      331.3733       56.2584      381.9375      438.1959     106.822619       1.34291
   1     891.5      332.7436       61.2831      361.1064      422.3894      89.645799       1.46166
   0    1013.0      337.3010       66.9654      337.6958      404.6611      67.360080       1.54741



 Wavenumbers:  2600. -  3250. cm-1, ATM      1
 LEVEL PRESSURE   UPWARD FLUX   DIFDOWN FLUX  DIRDOWN FLUX  DOWNWARD FLUX   NET FLUX    HEATING RATE
          mb          W/m2          W/m2          W/m2        W/m2          W/m2       degree/day
  51    .06700        0.8784        0.0000        4.8783        4.8783       3.999836       0.00000
  50    .07753        0.8784        0.0000        4.8783        4.8783       3.999828       0.00640
  49    .09103        0.8784        0.0000        4.8783        4.8783       3.999818       0.00627
  48    0.1069        0.8784        0.0000        4.8783        4.8783       3.999807       0.00613
  47    0.1255        0.8784        0.0000        4.8782        4.8782       3.999794       0.00599
  46    0.1487        0.8784        0.0000        4.8782        4.8782       3.999777       0.00608
  45    0.1794        0.8784        0.0000        4.8782        4.8782       3.999754       0.00624
  44    0.2165        0.8784        0.0000        4.8782        4.8782       3.999727       0.00612
  43    0.2613        0.8784        0.0000        4.8781        4.8781       3.999695       0.00599
  42    0.3336        0.8784        0.0000        4.8781        4.8781       3.999643       0.00616
  41    0.4307        0.8784        0.0000        4.8780        4.8780       3.999571       0.00620
  40    0.5894        0.8784        0.0000        4.8779        4.8779       3.999452       0.00636
  39     1.339        0.8784        0.0000        4.8772        4.8772       3.998746       0.00795
  38     1.782        0.8784        0.0000        4.8767        4.8767       3.998206       0.01029
  37     2.292        0.8784        0.0000        4.8759        4.8759       3.997495       0.01178
  36     2.964        0.8784        0.0000        4.8749        4.8749       3.996467       0.01290
  35     3.853        0.8784        0.0000        4.8735        4.8735       3.995009       0.01383
  34     5.035        0.8784        0.0000        4.8714        4.8714       3.992999       0.01436
  33     6.613        0.8784        0.0000        4.8687        4.8688       3.990305       0.01440
  32     8.786        0.8784        0.0000        4.8653        4.8653       3.986826       0.01351
  31     11.80        0.8784        0.0000        4.8608        4.8608       3.982325       0.01260
  30     15.07        0.8784        0.0000        4.8566        4.8566       3.978137       0.01081
  29     18.79        0.8784        0.0000        4.8525        4.8525       3.974099       0.00916
  28     23.16        0.8784        0.0000        4.8484        4.8484       3.969992       0.00794
  27     28.12        0.8784        0.0000        4.8441        4.8441       3.965678       0.00733
  26     33.73        0.8784        0.0000        4.8391        4.8392       3.960704       0.00748
  25     40.54        0.8785        0.0000        4.8324        4.8324       3.953974       0.00835
  24     48.69        0.8785        0.0000        4.8231        4.8231       3.944666       0.00963
  23     57.69        0.8785        0.0000        4.8115        4.8115       3.933053       0.01089
  22     68.43        0.8785        0.0000        4.7963        4.7963       3.917828       0.01197
  21     81.20        0.8785        0.0000        4.7769        4.7769       3.898453       0.01280
  20     96.49        0.8785        0.0000        4.7531        4.7532       3.874647       0.01314
  19     114.6        0.8786        0.0000        4.7243        4.7243       3.845736       0.01350
  18     136.5        0.8786        0.0001        4.6912        4.6913       3.812668       0.01272
  17     162.9        0.8787        0.0001        4.6546        4.6547       3.775963       0.01173
  16     196.4        0.8789        0.0001        4.6116        4.6117       3.732793       0.01087
  15     218.7        0.8790        0.0001        4.5835        4.5836       3.704579       0.01071
  14     243.0        0.8793        0.0001        4.5500        4.5501       3.670806       0.01171
  13     269.0        0.8798        0.0001        4.5089        4.5090       3.629268       0.01347
  12     297.5        0.8804        0.0001        4.4577        4.4578       3.577404       0.01538
  11     328.5        0.8813        0.0001        4.3963        4.3964       3.515063       0.01695
  10     361.9        0.8826        0.0001        4.3203        4.3205       3.437849       0.01954
   9     398.1        0.8843        0.0001        4.2233        4.2234       3.339127       0.02300
   8     437.6        0.8866        0.0002        4.0994        4.0995       3.212923       0.02698
   7     480.5        0.8897        0.0002        3.9476        3.9478       3.058041       0.03042
   6     533.0        0.8946        0.0002        3.7449        3.7450       2.850386       0.03341
   5     589.8        0.9019        0.0002        3.5142        3.5144       2.612449       0.03532
   4     651.6        0.9134        0.0002        3.2532        3.2534       2.340005       0.03726
   3     718.7        0.9312        0.0002        2.9726        2.9728       2.041636       0.03750
   2     792.3        0.9601        0.0002        2.6548        2.6550       1.694887       0.03977
   1     891.5        1.0251        0.0002        2.2258        2.2260       1.200892       0.04204
   0    1013.0        1.1747        0.0002        1.7827        1.7829       0.608142       0.04116



 Wavenumbers:  3250. -  4000. cm-1, ATM      1
 LEVEL PRESSURE   UPWARD FLUX   DIFDOWN FLUX  DIRDOWN FLUX  DOWNWARD FLUX   NET FLUX    HEATING RATE
          mb          W/m2          W/m2          W/m2        W/m2          W/m2       degree/day
  51    .06700        0.0005        0.0000        8.2241        8.2241       8.223581       0.00000
  50    .07753        0.0005        0.0000        8.2194        8.2194       8.218887       3.76241
  49    .09103        0.0005        0.0000        8.2162        8.2162       8.215749       1.96131
  48    0.1069        0.0005        0.0000        8.2139        8.2139       8.213412       1.24417
  47    0.1255        0.0005        0.0000        8.2118        8.2118       8.211289       0.96227
  46    0.1487        0.0005        0.0000        8.2095        8.2095       8.208986       0.83964
  45    0.1794        0.0005        0.0000        8.2068        8.2068       8.206287       0.74088
  44    0.2165        0.0005        0.0000        8.2041        8.2041       8.203574       0.61706
  43    0.2613        0.0005        0.0000        8.2013        8.2013       8.200823       0.51868
  42    0.3336        0.0005        0.0000        8.1974        8.1974       8.196933       0.45353
  41    0.4307        0.0005        0.0000        8.1929        8.1929       8.192431       0.39142
  40    0.5894        0.0005        0.0000        8.1862        8.1862       8.185717       0.35705
  39     1.339        0.0005        0.0000        8.1610        8.1610       8.160542       0.28342
  38     1.782        0.0005        0.0000        8.1503        8.1503       8.149797       0.20456
  37     2.292        0.0005        0.0000        8.1400        8.1400       8.139552       0.16970
  36     2.964        0.0005        0.0000        8.1284        8.1285       8.127963       0.14547
  35     3.853        0.0005        0.0000        8.1145        8.1145       8.113988       0.13263
  34     5.035        0.0005        0.0000        8.0965        8.0965       8.096047       0.12816
  33     6.613        0.0005        0.0000        8.0724        8.0724       8.071936       0.12890
  32     8.786        0.0005        0.0000        8.0388        8.0388       8.038339       0.13048
  31     11.80        0.0005        0.0000        7.9891        7.9892       7.988674       0.13905
  30     15.07        0.0005        0.0000        7.9347        7.9347       7.934254       0.14050
  29     18.79        0.0005        0.0000        7.8731        7.8732       7.872709       0.13954
  28     23.16        0.0005        0.0000        7.8032        7.8032       7.802788       0.13521
  27     28.12        0.0005        0.0000        7.7280        7.7281       7.727596       0.12782
  26     33.73        0.0004        0.0000        7.6515        7.6516       7.651113       0.11499
  25     40.54        0.0004        0.0001        7.5688        7.5689       7.568424       0.10258
  24     48.69        0.0004        0.0001        7.4798        7.4799       7.479437       0.09209
  23     57.69        0.0004        0.0001        7.3890        7.3891       7.388693       0.08506
  22     68.43        0.0004        0.0001        7.2847        7.2848       7.284355       0.08202
  21     81.20        0.0004        0.0001        7.1626        7.1627       7.162312       0.08064
  20     96.49        0.0004        0.0001        7.0212        7.0213       7.020974       0.07801
  19     114.6        0.0003        0.0001        6.8551        6.8552       6.854868       0.07756
  18     136.5        0.0003        0.0002        6.6737        6.6738       6.673524       0.06973
  17     162.9        0.0003        0.0002        6.4648        6.4650       6.464705       0.06675
  16     196.4        0.0003        0.0002        6.1670        6.1672       6.166939       0.07495
  15     218.7        0.0002        0.0002        5.8929        5.8931       5.892887       0.10405
  14     243.0        0.0002        0.0002        5.5297        5.5300       5.529778       0.12594
  13     269.0        0.0002        0.0003        5.0754        5.0756       5.075449       0.14738
  12     297.5        0.0002        0.0003        4.5409        4.5412       4.540982       0.15852
  11     328.5        0.0001        0.0002        3.9965        3.9968       3.996608       0.14801
  10     361.9        0.0001        0.0002        3.4791        3.4793       3.479163       0.13092
   9     398.1        0.0001        0.0002        3.0055        3.0057       3.005615       0.11033
   8     437.6        0.0001        0.0002        2.5710        2.5712       2.571075       0.09291
   7     480.5        0.0001        0.0002        2.1780        2.1782       2.178162       0.07717
   6     533.0        0.0001        0.0002        1.7623        1.7625       1.762406       0.06688
   5     589.8        0.0001        0.0002        1.3663        1.3664       1.366350       0.05879
   4     651.6        0.0001        0.0001        0.9598        0.9599       0.959885       0.05559
   3     718.7        0.0001        0.0001        0.5980        0.5981       0.598022       0.04548
   2     792.3        0.0001        0.0001        0.3075        0.3075       0.307400       0.03333
   1     891.5        0.0003        0.0000        0.0766        0.0766       0.076296       0.01967
   0    1013.0        0.0031        0.0000        0.0047        0.0047       0.001611       0.00519



 Wavenumbers:  4000. -  4650. cm-1, ATM      1
 LEVEL PRESSURE   UPWARD FLUX   DIFDOWN FLUX  DIRDOWN FLUX  DOWNWARD FLUX   NET FLUX    HEATING RATE
          mb          W/m2          W/m2          W/m2        W/m2          W/m2       degree/day
  51    .06700        3.6154        0.0000        9.6575        9.6575       6.042102       0.00000
  50    .07753        3.6154        0.0000        9.6575        9.6575       6.042101       0.00080
  49    .09103        3.6154        0.0000        9.6575        9.6575       6.042100       0.00078
  48    0.1069        3.6154        0.0000        9.6575        9.6575       6.042098       0.00076
  47    0.1255        3.6154        0.0000        9.6575        9.6575       6.042097       0.00075
  46    0.1487        3.6154        0.0000        9.6575        9.6575       6.042095       0.00076
  45    0.1794        3.6154        0.0000        9.6575        9.6575       6.042092       0.00078
  44    0.2165        3.6154        0.0000        9.6575        9.6575       6.042088       0.00076
  43    0.2613        3.6154        0.0000        9.6575        9.6575       6.042084       0.00075
  42    0.3336        3.6154        0.0000        9.6575        9.6575       6.042078       0.00077
  41    0.4307        3.6154        0.0000        9.6575        9.6575       6.042069       0.00077
  40    0.5894        3.6154        0.0000        9.6575        9.6575       6.042054       0.00080
  39     1.339        3.6154        0.0000        9.6574        9.6574       6.041965       0.00101
  38     1.782        3.6154        0.0000        9.6573        9.6573       6.041895       0.00133
  37     2.292        3.6154        0.0000        9.6572        9.6572       6.041801       0.00156
  36     2.964        3.6154        0.0000        9.6571        9.6571       6.041661       0.00176
  35     3.853        3.6154        0.0000        9.6569        9.6569       6.041453       0.00197
  34     5.035        3.6154        0.0000        9.6566        9.6566       6.041146       0.00219
  33     6.613        3.6154        0.0000        9.6561        9.6561       6.040695       0.00241
  32     8.786        3.6154        0.0000        9.6554        9.6555       6.040029       0.00259
  31     11.80        3.6154        0.0001        9.6543        9.6544       6.038983       0.00293
  30     15.07        3.6154        0.0001        9.6531        9.6532       6.037758       0.00316
  29     18.79        3.6154        0.0001        9.6516        9.6517       6.036277       0.00336
  28     23.16        3.6154        0.0001        9.6497        9.6498       6.034440       0.00355
  27     28.12        3.6154        0.0001        9.6475        9.6476       6.032218       0.00378
  26     33.73        3.6154        0.0001        9.6447        9.6449       6.029482       0.00411
  25     40.54        3.6154        0.0002        9.6410        9.6412       6.025777       0.00460
  24     48.69        3.6154        0.0002        9.6360        9.6362       6.020848       0.00510
  23     57.69        3.6154        0.0002        9.6302        9.6304       6.015015       0.00547
  22     68.43        3.6154        0.0003        9.6228        9.6231       6.007721       0.00573
  21     81.20        3.6154        0.0004        9.6138        9.6142       5.998751       0.00593
  20     96.49        3.6155        0.0004        9.6029        9.6034       5.987864       0.00601
  19     114.6        3.6156        0.0005        9.5894        9.5899       5.974289       0.00634
  18     136.5        3.6157        0.0006        9.5731        9.5737       5.957958       0.00628
  17     162.9        3.6160        0.0007        9.5533        9.5540       5.937984       0.00638
  16     196.4        3.6165        0.0008        9.5261        9.5270       5.910508       0.00692
  15     218.7        3.6169        0.0009        9.5057        9.5066       5.889689       0.00790
  14     243.0        3.6176        0.0010        9.4790        9.4800       5.862418       0.00946
  13     269.0        3.6187        0.0011        9.4433        9.4444       5.825740       0.01190
  12     297.5        3.6203        0.0013        9.3959        9.3972       5.776822       0.01451
  11     328.5        3.6226        0.0014        9.3357        9.3371       5.714472       0.01695
  10     361.9        3.6257        0.0015        9.2584        9.2600       5.634305       0.02028
   9     398.1        3.6294        0.0017        9.1601        9.1618       5.532378       0.02375
   8     437.6        3.6341        0.0018        9.0382        9.0400       5.405876       0.02705
   7     480.5        3.6399        0.0020        8.8970        8.8989       5.259039       0.02884
   6     533.0        3.6485        0.0021        8.7178        8.7199       5.071408       0.03018
   5     589.8        3.6604        0.0023        8.5146        8.5169       4.856472       0.03190
   4     651.6        3.6785        0.0025        8.2498        8.2523       4.573882       0.03864
   3     718.7        3.7064        0.0027        7.9008        7.9035       4.197144       0.04735
   2     792.3        3.7521        0.0028        7.4629        7.4657       3.713570       0.05546
   1     891.5        3.8566        0.0030        6.8664        6.8694       3.012715       0.05964
   0    1013.0        4.0964        0.0031        6.2140        6.2171       2.120647       0.06194



 Wavenumbers:  4650. -  5150. cm-1, ATM      1
 LEVEL PRESSURE   UPWARD FLUX   DIFDOWN FLUX  DIRDOWN FLUX  DOWNWARD FLUX   NET FLUX    HEATING RATE
          mb          W/m2          W/m2          W/m2        W/m2          W/m2       degree/day
  51    .06700        2.5326        0.0000        9.1413        9.1413       6.608687       0.00000
  50    .07753        2.5326        0.0000        9.1411        9.1411       6.608451       0.18896
  49    .09103        2.5326        0.0000        9.1408        9.1408       6.608156       0.18412
  48    0.1069        2.5326        0.0000        9.1405        9.1405       6.607820       0.17902
  47    0.1255        2.5326        0.0000        9.1401        9.1401       6.607437       0.17384
  46    0.1487        2.5326        0.0000        9.1396        9.1396       6.606957       0.17477
  45    0.1794        2.5326        0.0000        9.1389        9.1389       6.606310       0.17768
  44    0.2165        2.5326        0.0000        9.1382        9.1382       6.605555       0.17171
  43    0.2613        2.5326        0.0000        9.1373        9.1373       6.604677       0.16557
  42    0.3336        2.5326        0.0000        9.1359        9.1359       6.603259       0.16526
  41    0.4307        2.5326        0.0000        9.1341        9.1341       6.601445       0.15776
  40    0.5894        2.5326        0.0000        9.1313        9.1313       6.598635       0.14942
  39     1.339        2.5326        0.0000        9.1201        9.1201       6.587453       0.12589
  38     1.782        2.5326        0.0000        9.1149        9.1149       6.582234       0.09936
  37     2.292        2.5326        0.0000        9.1098        9.1098       6.577169       0.08388
  36     2.964        2.5326        0.0000        9.1044        9.1044       6.571764       0.06785
  35     3.853        2.5326        0.0000        9.0988        9.0988       6.566183       0.05297
  34     5.035        2.5326        0.0000        9.0931        9.0932       6.560547       0.04026
  33     6.613        2.5326        0.0000        9.0873        9.0874       6.554767       0.03090
  32     8.786        2.5326        0.0001        9.0809        9.0809       6.548306       0.02509
  31     11.80        2.5326        0.0001        9.0722        9.0722       6.539641       0.02426
  30     15.07        2.5326        0.0001        9.0624        9.0625       6.529943       0.02504
  29     18.79        2.5326        0.0001        9.0505        9.0507       6.518069       0.02692
  28     23.16        2.5326        0.0001        9.0354        9.0355       6.502929       0.02928
  27     28.12        2.5326        0.0002        9.0165        9.0167       6.484082       0.03204
  26     33.73        2.5326        0.0002        8.9938        8.9940       6.461366       0.03415
  25     40.54        2.5327        0.0003        8.9644        8.9647       6.432009       0.03642
  24     48.69        2.5327        0.0003        8.9273        8.9276       6.394922       0.03838
  23     57.69        2.5328        0.0004        8.8852        8.8856       6.352843       0.03944
  22     68.43        2.5329        0.0004        8.8347        8.8351       6.302285       0.03974
  21     81.20        2.5330        0.0005        8.7756        8.7761       6.243062       0.03913
  20     96.49        2.5332        0.0006        8.7083        8.7089       6.175714       0.03717
  19     114.6        2.5335        0.0007        8.6345        8.6352       6.101678       0.03457
  18     136.5        2.5339        0.0008        8.5557        8.5565       6.022598       0.03041
  17     162.9        2.5345        0.0010        8.4723        8.4733       5.938729       0.02681
  16     196.4        2.5355        0.0012        8.3757        8.3769       5.841398       0.02450
  15     218.7        2.5363        0.0013        8.3153        8.3166       5.780357       0.02317
  14     243.0        2.5373        0.0014        8.2489        8.2504       5.713066       0.02334
  13     269.0        2.5388        0.0016        8.1728        8.1744       5.635643       0.02512
  12     297.5        2.5409        0.0017        8.0815        8.0833       5.542384       0.02766
  11     328.5        2.5436        0.0019        7.9745        7.9764       5.432728       0.02982
  10     361.9        2.5472        0.0021        7.8494        7.8514       5.304179       0.03252
   9     398.1        2.5519        0.0022        7.7024        7.7046       5.152674       0.03530
   8     437.6        2.5580        0.0024        7.5309        7.5333       4.975312       0.03792
   7     480.5        2.5659        0.0026        7.3336        7.3362       4.770259       0.04027
   6     533.0        2.5779        0.0028        7.0759        7.0787       4.500806       0.04335
   5     589.8        2.5943        0.0030        6.7838        6.7868       4.192475       0.04577
   4     651.6        2.6183        0.0032        6.4491        6.4522       3.833966       0.04903
   3     718.7        2.6534        0.0033        6.0836        6.0869       3.433516       0.05033
   2     792.3        2.7065        0.0035        5.6932        5.6967       2.990227       0.05084
   1     891.5        2.8164        0.0037        5.1763        5.1799       2.363483       0.05333
   0    1013.0        3.0361        0.0038        4.6040        4.6078       1.571723       0.05498



 Wavenumbers:  5150. -  6150. cm-1, ATM      1
 LEVEL PRESSURE   UPWARD FLUX   DIFDOWN FLUX  DIRDOWN FLUX  DOWNWARD FLUX   NET FLUX    HEATING RATE
          mb          W/m2          W/m2          W/m2        W/m2          W/m2       degree/day
  51    .06700        6.5480        0.0000       22.9173       22.9173      16.369347       0.00000
  50    .07753        6.5480        0.0000       22.9173       22.9173      16.369308       0.03158
  49    .09103        6.5480        0.0000       22.9172       22.9172      16.369256       0.03207
  48    0.1069        6.5480        0.0000       22.9172       22.9172      16.369195       0.03257
  47    0.1255        6.5480        0.0000       22.9171       22.9171      16.369122       0.03307
  46    0.1487        6.5480        0.0000       22.9170       22.9170      16.369026       0.03485
  45    0.1794        6.5480        0.0000       22.9169       22.9169      16.368891       0.03709
  44    0.2165        6.5480        0.0000       22.9167       22.9167      16.368726       0.03765
  43    0.2613        6.5480        0.0000       22.9165       22.9165      16.368523       0.03822
  42    0.3336        6.5480        0.0000       22.9161       22.9162      16.368177       0.04038
  41    0.4307        6.5480        0.0000       22.9157       22.9157      16.367706       0.04091
  40    0.5894        6.5480        0.0000       22.9149       22.9149      16.366918       0.04191
  39     1.339        6.5480        0.0000       22.9111       22.9111      16.363126       0.04270
  38     1.782        6.5480        0.0001       22.9088       22.9089      16.360921       0.04198
  37     2.292        6.5479        0.0001       22.9063       22.9064      16.358428       0.04129
  36     2.964        6.5479        0.0001       22.9031       22.9032      16.355265       0.03970
  35     3.853        6.5479        0.0001       22.8991       22.8992      16.351252       0.03808
  34     5.035        6.5479        0.0001       22.8939       22.8940      16.346095       0.03684
  33     6.613        6.5479        0.0002       22.8871       22.8873      16.339423       0.03567
  32     8.786        6.5479        0.0003       22.8784       22.8787      16.330808       0.03346
  31     11.80        6.5479        0.0003       22.8667       22.8671      16.319212       0.03246
  30     15.07        6.5478        0.0004       22.8551       22.8555      16.307648       0.02986
  29     18.79        6.5478        0.0005       22.8429       22.8434      16.295612       0.02729
  28     23.16        6.5478        0.0007       22.8299       22.8306      16.282747       0.02488
  27     28.12        6.5478        0.0008       22.8162       22.8171      16.269266       0.02292
  26     33.73        6.5478        0.0010       22.8025       22.8034      16.255649       0.02047
  25     40.54        6.5478        0.0012       22.7875       22.7887      16.240908       0.01829
  24     48.69        6.5478        0.0014       22.7716       22.7730      16.225203       0.01625
  23     57.69        6.5479        0.0017       22.7559       22.7576      16.209685       0.01455
  22     68.43        6.5480        0.0020       22.7389       22.7409      16.192894       0.01320
  21     81.20        6.5481        0.0023       22.7202       22.7226      16.174501       0.01215
  20     96.49        6.5482        0.0028       22.6993       22.7021      16.153860       0.01139
  19     114.6        6.5484        0.0033       22.6754       22.6787      16.130249       0.01102
  18     136.5        6.5487        0.0039       22.6475       22.6514      16.102744       0.01058
  17     162.9        6.5490        0.0047       22.6064       22.6111      16.062098       0.01299
  16     196.4        6.5495        0.0056       22.5193       22.5249      15.975452       0.02181
  15     218.7        6.5498        0.0062       22.3816       22.3878      15.837976       0.05219
  14     243.0        6.5503        0.0069       22.0834       22.0903      15.539986       0.10335
  13     269.0        6.5509        0.0075       21.5644       21.5719      15.020990       0.16836
  12     297.5        6.5517        0.0081       20.9111       20.9191      14.367398       0.19385
  11     328.5        6.5528        0.0087       20.2411       20.2498      13.696932       0.18230
  10     361.9        6.5543        0.0093       19.4760       19.4853      12.930992       0.19379
   9     398.1        6.5561        0.0099       18.6160       18.6259      12.069752       0.20065
   8     437.6        6.5586        0.0104       17.6917       17.7021      11.143512       0.19804
   7     480.5        6.5618        0.0109       16.7532       16.7641      10.202246       0.18486
   6     533.0        6.5670        0.0115       15.7073       15.7188       9.151757       0.16899
   5     589.8        6.5749        0.0121       14.7330       14.7451       8.170212       0.14569
   4     651.6        6.5882        0.0127       13.8321       13.8449       7.256679       0.12493
   3     718.7        6.6106        0.0134       13.0890       13.1024       6.491759       0.09613
   2     792.3        6.6507        0.0142       12.4293       12.4435       5.792798       0.08016
   1     891.5        6.7501        0.0151       11.5613       11.5764       4.826363       0.08224
   0    1013.0        7.0175        0.0161       10.6343       10.6504       3.632848       0.08287



 Wavenumbers:  6150. -  7700. cm-1, ATM      1
 LEVEL PRESSURE   UPWARD FLUX   DIFDOWN FLUX  DIRDOWN FLUX  DOWNWARD FLUX   NET FLUX    HEATING RATE
          mb          W/m2          W/m2          W/m2        W/m2          W/m2       degree/day
  51    .06700        9.5995        0.0000       42.3865       42.3865      32.787031       0.00000
  50    .07753        9.5995        0.0000       42.3864       42.3864      32.786974       0.04553
  49    .09103        9.5994        0.0000       42.3863       42.3863      32.786901       0.04583
  48    0.1069        9.5994        0.0000       42.3863       42.3863      32.786814       0.04614
  47    0.1255        9.5994        0.0000       42.3862       42.3862      32.786712       0.04644
  46    0.1487        9.5994        0.0000       42.3860       42.3860      32.786579       0.04852
  45    0.1794        9.5994        0.0000       42.3858       42.3858      32.786392       0.05126
  44    0.2165        9.5994        0.0000       42.3856       42.3856      32.786165       0.05166
  43    0.2613        9.5994        0.0000       42.3853       42.3853      32.785889       0.05209
  42    0.3336        9.5994        0.0000       42.3848       42.3848      32.785419       0.05469
  41    0.4307        9.5994        0.0000       42.3842       42.3842      32.784785       0.05519
  40    0.5894        9.5994        0.0001       42.3831       42.3831      32.783726       0.05630
  39     1.339        9.5993        0.0002       42.3778       42.3780      32.778640       0.05726
  38     1.782        9.5993        0.0002       42.3748       42.3750      32.775675       0.05644
  37     2.292        9.5993        0.0003       42.3713       42.3716      32.772308       0.05577
  36     2.964        9.5992        0.0003       42.3668       42.3672      32.768004       0.05403
  35     3.853        9.5991        0.0005       42.3611       42.3616      32.762494       0.05230
  34     5.035        9.5990        0.0006       42.3538       42.3544      32.755353       0.05101
  33     6.613        9.5989        0.0008       42.3441       42.3449      32.746033       0.04982
  32     8.786        9.5987        0.0010       42.3315       42.3325      32.733849       0.04732
  31     11.80        9.5984        0.0014       42.3141       42.3156      32.717154       0.04674
  30     15.07        9.5981        0.0018       42.2964       42.2982      32.700137       0.04393
  29     18.79        9.5978        0.0022       42.2775       42.2798      32.682011       0.04110
  28     23.16        9.5974        0.0028       42.2567       42.2595      32.662088       0.03853
  27     28.12        9.5969        0.0033       42.2343       42.2376      32.640685       0.03638
  26     33.73        9.5964        0.0040       42.2109       42.2149      32.618472       0.03340
  25     40.54        9.5958        0.0048       42.1848       42.1896      32.593765       0.03065
  24     48.69        9.5951        0.0058       42.1560       42.1618      32.566650       0.02806
  23     57.69        9.5943        0.0068       42.1268       42.1336      32.539276       0.02566
  22     68.43        9.5934        0.0081       42.0944       42.1025      32.509117       0.02371
  21     81.20        9.5922        0.0096       42.0581       42.0677      32.475441       0.02225
  20     96.49        9.5909        0.0114       42.0167       42.0281      32.437233       0.02109
  19     114.6        9.5893        0.0136       41.9689       41.9825      32.393207       0.02056
  18     136.5        9.5874        0.0161       41.9131       41.9292      32.341787       0.01977
  17     162.9        9.5851        0.0191       41.8339       41.8530      32.267877       0.02362
  16     196.4        9.5822        0.0230       41.6777       41.7008      32.118534       0.03759
  15     218.7        9.5804        0.0255       41.4681       41.4936      31.913190       0.07796
  14     243.0        9.5785        0.0281       41.0685       41.0967      31.518165       0.13701
  13     269.0        9.5767        0.0308       40.3361       40.3669      30.790166       0.23616
  12     297.5        9.5751        0.0333       39.2421       39.2755      29.700311       0.32324
  11     328.5        9.5739        0.0359       38.0508       38.0866      28.512725       0.32290
  10     361.9        9.5732        0.0384       36.7757       36.8142      27.240955       0.32177
   9     398.1        9.5734        0.0410       35.3169       35.3579      25.784461       0.33933
   8     437.6        9.5750        0.0433       33.6495       33.6928      24.117730       0.35636
   7     480.5        9.5787        0.0454       31.8857       31.9311      22.352386       0.34671
   6     533.0        9.5869        0.0477       29.8079       29.8556      20.268686       0.33520
   5     589.8        9.6026        0.0497       27.6752       27.7249      18.122278       0.31860
   4     651.6        9.6340        0.0513       25.4173       25.4685      15.834521       0.31286
   3     718.7        9.6919        0.0526       23.2147       23.2673      13.575344       0.28392
   2     792.3        9.8000        0.0536       21.0757       21.1293      11.329289       0.25760
   1     891.5       10.0722        0.0547       18.6186       18.6734       8.601136       0.23215
   0    1013.0       10.7778        0.0560       16.3012       16.3572       5.579439       0.20981



 Wavenumbers:  7700. -  8050. cm-1, ATM      1
 LEVEL PRESSURE   UPWARD FLUX   DIFDOWN FLUX  DIRDOWN FLUX  DOWNWARD FLUX   NET FLUX    HEATING RATE
          mb          W/m2          W/m2          W/m2        W/m2          W/m2       degree/day
  51    .06700        5.1346        0.0000       10.0172       10.0172       4.882578       0.00000
  50    .07753        5.1346        0.0000       10.0172       10.0172       4.882557       0.01689
  49    .09103        5.1346        0.0000       10.0171       10.0171       4.882531       0.01656
  48    0.1069        5.1346        0.0000       10.0171       10.0171       4.882500       0.01621
  47    0.1255        5.1346        0.0000       10.0171       10.0171       4.882465       0.01586
  46    0.1487        5.1346        0.0000       10.0170       10.0171       4.882421       0.01609
  45    0.1794        5.1346        0.0000       10.0170       10.0170       4.882361       0.01656
  44    0.2165        5.1346        0.0000       10.0169       10.0169       4.882289       0.01624
  43    0.2613        5.1347        0.0000       10.0169       10.0169       4.882205       0.01594
  42    0.3336        5.1347        0.0000       10.0167       10.0167       4.882065       0.01631
  41    0.4307        5.1347        0.0000       10.0166       10.0166       4.881879       0.01613
  40    0.5894        5.1348        0.0000       10.0163       10.0163       4.881576       0.01611
  39     1.339        5.1350        0.0001       10.0150       10.0151       4.880143       0.01614
  38     1.782        5.1351        0.0001       10.0143       10.0144       4.879301       0.01603
  37     2.292        5.1352        0.0001       10.0134       10.0135       4.878326       0.01614
  36     2.964        5.1354        0.0002       10.0123       10.0125       4.877047       0.01606
  35     3.853        5.1357        0.0002       10.0108       10.0110       4.875357       0.01604
  34     5.035        5.1360        0.0003       10.0088       10.0091       4.873112       0.01603
  33     6.613        5.1364        0.0003       10.0062       10.0065       4.870115       0.01602
  32     8.786        5.1370        0.0005       10.0026       10.0031       4.866078       0.01568
  31     11.80        5.1379        0.0006        9.9975        9.9982       4.860308       0.01615
  30     15.07        5.1388        0.0008        9.9921        9.9929       4.854122       0.01597
  29     18.79        5.1398        0.0010        9.9859        9.9869       4.847143       0.01582
  28     23.16        5.1410        0.0012        9.9788        9.9800       4.839006       0.01573
  27     28.12        5.1424        0.0015        9.9706        9.9721       4.829722       0.01578
  26     33.73        5.1439        0.0018        9.9615        9.9633       4.819358       0.01558
  25     40.54        5.1458        0.0021        9.9506        9.9527       4.806876       0.01549
  24     48.69        5.1481        0.0026        9.9374        9.9400       4.791884       0.01551
  23     57.69        5.1506        0.0030        9.9231        9.9261       4.775491       0.01537
  22     68.43        5.1537        0.0036        9.9061        9.9097       4.756067       0.01527
  21     81.20        5.1573        0.0043        9.8861        9.8904       4.733069       0.01520
  20     96.49        5.1617        0.0051        9.8625        9.8675       4.705866       0.01501
  19     114.6        5.1669        0.0060        9.8347        9.8408       4.673847       0.01495
  18     136.5        5.1732        0.0071        9.8023        9.8095       4.636276       0.01445
  17     162.9        5.1808        0.0085        9.7644        9.7728       4.592048       0.01414
  16     196.4        5.1908        0.0102        9.7161        9.7263       4.535470       0.01424
  15     218.7        5.1975        0.0113        9.6849        9.6962       4.498732       0.01395
  14     243.0        5.2049        0.0126        9.6514        9.6640       4.459112       0.01374
  13     269.0        5.2130        0.0139        9.6156        9.6295       4.416458       0.01384
  12     297.5        5.2220        0.0153        9.5773        9.5926       4.370563       0.01361
  11     328.5        5.2320        0.0169        9.5363        9.5531       4.321136       0.01344
  10     361.9        5.2430        0.0185        9.4925        9.5110       4.267966       0.01345
   9     398.1        5.2553        0.0203        9.4456        9.4659       4.210584       0.01337
   8     437.6        5.2691        0.0222        9.3953        9.4175       4.148401       0.01330
   7     480.5        5.2846        0.0243        9.3412        9.3654       4.080825       0.01327
   6     533.0        5.3048        0.0268        9.2740        9.3008       3.995947       0.01365
   5     589.8        5.3284        0.0295        9.1999        9.2294       3.900986       0.01410
   4     651.6        5.3567        0.0324        9.1162        9.1485       3.791788       0.01493
   3     718.7        5.3914        0.0354        9.0198        9.0553       3.663876       0.01607
   2     792.3        5.4353        0.0387        8.9061        8.9447       3.509462       0.01771
   1     891.5        5.5089        0.0429        8.7314        8.7743       3.265424       0.02077
   0    1013.0        5.6247        0.0478        8.4887        8.5365       2.911790       0.02455



 Wavenumbers:  8050. - 12850. cm-1, ATM      1
 LEVEL PRESSURE   UPWARD FLUX   DIFDOWN FLUX  DIRDOWN FLUX  DOWNWARD FLUX   NET FLUX    HEATING RATE
          mb          W/m2          W/m2          W/m2        W/m2          W/m2       degree/day
  51    .06700       62.8457        0.0000      140.2480      140.2480      77.402347       0.00000
  50    .07753       62.8457        0.0000      140.2480      140.2480      77.402347       0.00000
  49    .09103       62.8456        0.0001      140.2479      140.2480      77.402347      -0.00000
  48    0.1069       62.8456        0.0001      140.2479      140.2480      77.402347       0.00000
  47    0.1255       62.8456        0.0002      140.2478      140.2479      77.402347       0.00000
  46    0.1487       62.8456        0.0002      140.2477      140.2479      77.402347      -0.00000
  45    0.1794       62.8455        0.0003      140.2476      140.2479      77.402347       0.00000
  44    0.2165       62.8455        0.0004      140.2474      140.2478      77.402347       0.00000
  43    0.2613       62.8454        0.0005      140.2472      140.2477      77.402347       0.00000
  42    0.3336       62.8453        0.0007      140.2470      140.2476      77.402347      -0.00000
  41    0.4307       62.8452        0.0009      140.2466      140.2475      77.402347       0.00000
  40    0.5894       62.8449        0.0013      140.2459      140.2473      77.402347       0.00000
  39     1.339       62.8439        0.0033      140.2430      140.2462      77.402347       0.00000
  38     1.782       62.8433        0.0044      140.2413      140.2456      77.402347      -0.00000
  37     2.292       62.8426        0.0057      140.2392      140.2449      77.402347      -0.00000
  36     2.964       62.8416        0.0074      140.2366      140.2440      77.402347      -0.00000
  35     3.853       62.8404        0.0097      140.2331      140.2428      77.402347       0.00000
  34     5.035       62.8388        0.0127      140.2285      140.2411      77.402347       0.00000
  33     6.613       62.8366        0.0167      140.2223      140.2389      77.402347      -0.00000
  32     8.786       62.8336        0.0221      140.2139      140.2360      77.402347       0.00000
  31     11.80       62.8294        0.0298      140.2019      140.2318      77.402347      -0.00000
  30     15.07       62.8249        0.0382      140.1890      140.2272      77.402347       0.00000
  29     18.79       62.8197        0.0476      140.1745      140.2221      77.402347       0.00000
  28     23.16       62.8137        0.0586      140.1575      140.2161      77.402347      -0.00000
  27     28.12       62.8069        0.0713      140.1380      140.2092      77.402347       0.00000
  26     33.73       62.7992        0.0854      140.1161      140.2015      77.402347       0.00000
  25     40.54       62.7899        0.1025      140.0897      140.1922      77.402347      -0.00000
  24     48.69       62.7786        0.1231      140.0578      140.1809      77.402347       0.00000
  23     57.69       62.7662        0.1459      140.0227      140.1686      77.402347       0.00000
  22     68.43       62.7515        0.1730      139.9808      140.1538      77.402347       0.00000
  21     81.20       62.7338        0.2053      139.9309      140.1362      77.402347       0.00000
  20     96.49       62.7128        0.2439      139.8713      140.1151      77.402347      -0.00000
  19     114.6       62.6879        0.2898      139.7943      140.0841      77.396200       0.00287
  18     136.5       62.6583        0.3443      139.7025      140.0468      77.388572       0.00293
  17     162.9       62.6229        0.4093      139.5895      139.9989      77.375904       0.00405
  16     196.4       62.5771        0.4939      139.4266      139.9205      77.343403       0.00818
  15     218.7       62.5470        0.5495      139.2803      139.8298      77.282746       0.02303
  14     243.0       62.5146        0.6099      139.0457      139.6556      77.140975       0.04917
  13     269.0       62.4802        0.6752      138.6681      139.3433      76.863079       0.09015
  12     297.5       62.4445        0.7454      138.1256      138.8710      76.426574       0.12946
  11     328.5       62.4077        0.8211      137.4788      138.2999      75.892168       0.14530
  10     361.9       62.3708        0.9021      136.7014      137.6036      75.232725       0.16685
   9     398.1       62.3353        0.9888      135.7239      136.7127      74.377366       0.19928
   8     437.6       62.3039        1.0807      134.4747      135.5554      73.251486       0.24072
   7     480.5       62.2798        1.1777      132.9379      134.1156      71.835803       0.27803
   6     533.0       62.2680        1.2947      130.7757      132.0704      69.802473       0.32710
   5     589.8       62.2878        1.4168      128.0571      129.4739      67.186037       0.38836
   4     651.6       62.3771        1.5413      124.5088      126.0500      63.672910       0.48043
   3     718.7       62.5841        1.6668      120.2530      121.9198      59.335670       0.54507
   2     792.3       63.0146        1.7902      115.1786      116.9689      53.954249       0.61719
   1     891.5       64.1452        1.9381      107.8387      109.7768      45.631528       0.70822
   0    1013.0       66.9204        2.0945       99.4693      101.5638      34.643414       0.76296



 Wavenumbers: 12850. - 16000. cm-1, ATM      1
 LEVEL PRESSURE   UPWARD FLUX   DIFDOWN FLUX  DIRDOWN FLUX  DOWNWARD FLUX   NET FLUX    HEATING RATE
          mb          W/m2          W/m2          W/m2        W/m2          W/m2       degree/day
  51    .06700       60.8703        0.0000       87.8778       87.8778      27.007519       0.00000
  50    .07753       60.8702        0.0001       87.8769       87.8770      27.006732       0.63075
  49    .09103       60.8702        0.0001       87.8758       87.8760      27.005745       0.61649
  48    0.1069       60.8702        0.0002       87.8746       87.8748      27.004615       0.60181
  47    0.1255       60.8702        0.0003       87.8732       87.8735      27.003319       0.58731
  46    0.1487       60.8702        0.0005       87.8714       87.8719      27.001689       0.59409
  45    0.1794       60.8702        0.0007       87.8690       87.8697      26.999480       0.60642
  44    0.2165       60.8702        0.0009       87.8662       87.8671      26.996893       0.58852
  43    0.2613       60.8703        0.0011       87.8630       87.8641      26.993866       0.57066
  42    0.3336       60.8704        0.0016       87.8577       87.8593      26.988950       0.57319
  41    0.4307       60.8706        0.0022       87.8511       87.8532      26.982656       0.54725
  40    0.5894       60.8710        0.0031       87.8408       87.8439      26.972844       0.52180
  39     1.339       60.8753        0.0075       87.7973       87.8048      26.929482       0.48817
  38     1.782       60.8794        0.0101       87.7732       87.7833      26.903841       0.48817
  37     2.292       60.8858        0.0131       87.7446       87.7577      26.871958       0.52807
  36     2.964       60.8964        0.0170       87.7046       87.7216      26.825225       0.58664
  35     3.853       60.9137        0.0222       87.6469       87.6691      26.755405       0.66260
  34     5.035       60.9399        0.0291       87.5651       87.5942      26.654301       0.72224
  33     6.613       60.9766        0.0383       87.4537       87.4920      26.515455       0.74227
  32     8.786       61.0242        0.0507       87.3086       87.3593      26.335081       0.70051
  31     11.80       61.0860        0.0684       87.1164       87.1848      26.098785       0.66156
  30     15.07       61.1450        0.0874       86.9276       87.0151      25.870104       0.59041
  29     18.79       61.2048        0.1089       86.7304       86.8393      25.634442       0.53432
  28     23.16       61.2671        0.1339       86.5184       86.6523      25.385238       0.48188
  27     28.12       61.3292        0.1624       86.2973       86.4597      25.130518       0.43301
  26     33.73       61.3858        0.1944       86.0793       86.2737      24.887849       0.36486
  25     40.54       61.4394        0.2330       85.8501       86.0831      24.643737       0.30285
  24     48.69       61.4894        0.2794       85.6079       85.8874      24.398002       0.25430
  23     57.69       61.5302        0.3305       85.3750       85.7056      24.175345       0.20871
  22     68.43       61.5636        0.3913       85.1335       85.5248      23.961223       0.16833
  21     81.20       61.5826        0.4638       84.8929       85.3567      23.774167       0.12360
  20     96.49       61.5858        0.5503       84.6496       85.1999      23.614089       0.08835
  19     114.6       61.5910        0.6540       84.3807       85.0347      23.443682       0.07957
  18     136.5       61.5882        0.7767       84.0767       84.8535      23.265214       0.06863
  17     162.9       61.5767        0.9228       83.7249       84.6477      23.071004       0.06208
  16     196.4       61.5444        1.1122       83.2900       84.4022      22.857806       0.05366
  15     218.7       61.5169        1.2365       83.0109       84.2474      22.730474       0.04834
  14     243.0       61.4843        1.3715       82.7087       84.0802      22.595906       0.04667
  13     269.0       61.4463        1.5177       82.3820       83.8997      22.453451       0.04621
  12     297.5       61.4032        1.6756       82.0280       83.7036      22.300364       0.04540
  11     328.5       61.3563        1.8461       81.6428       83.4889      22.132598       0.04562
  10     361.9       61.3061        2.0296       81.2240       83.2536      21.947518       0.04683
   9     398.1       61.2533        2.2269       80.7673       82.9942      21.740832       0.04815
   8     437.6       61.1997        2.4384       80.2651       82.7036      21.503833       0.05067
   7     480.5       61.1470        2.6648       79.7115       82.3763      21.229276       0.05392
   6     533.0       61.0917        2.9429       79.0013       81.9442      20.852549       0.06060
   5     589.8       61.0502        3.2414       78.1863       81.4277      20.377453       0.07052
   4     651.6       61.0437        3.5599       77.2124       80.7723      19.728548       0.08874
   3     718.7       61.0855        3.8967       76.0734       79.9700      18.884536       0.10607
   2     792.3       61.2199        4.2482       74.7134       78.9617      17.741784       0.13106
   1     891.5       61.6124        4.7047       72.6565       77.3612      15.748780       0.16960
   0    1013.0       62.4996        5.2253       69.9938       75.2191      12.719551       0.21033



 Wavenumbers: 16000. - 22650. cm-1, ATM      1
 LEVEL PRESSURE   UPWARD FLUX   DIFDOWN FLUX  DIRDOWN FLUX  DOWNWARD FLUX   NET FLUX    HEATING RATE
          mb          W/m2          W/m2          W/m2        W/m2          W/m2       degree/day
  51    .06700      124.2280        0.0000      140.1114      140.1114      15.883337       0.00000
  50    .07753      124.2280        0.0004      140.1108      140.1112      15.883197       0.11190
  49    .09103      124.2279        0.0009      140.1101      140.1109      15.882994       0.12692
  48    0.1069      124.2279        0.0014      140.1092      140.1106      15.882722       0.14473
  47    0.1255      124.2279        0.0020      140.1082      140.1102      15.882359       0.16497
  46    0.1487      124.2279        0.0028      140.1069      140.1097      15.881822       0.19549
  45    0.1794      124.2279        0.0039      140.1050      140.1089      15.880984       0.23017
  44    0.2165      124.2280        0.0052      140.1026      140.1078      15.879847       0.25869
  43    0.2613      124.2282        0.0067      140.0998      140.1065      15.878304       0.29083
  42    0.3336      124.2286        0.0092      140.0948      140.1040      15.875370       0.34201
  41    0.4307      124.2295        0.0126      140.0879      140.1004      15.870949       0.38445
  40    0.5894      124.2313        0.0180      140.0758      140.0938      15.862516       0.44844
  39     1.339      124.2491        0.0438      140.0056      140.0493      15.800216       0.70138
  38     1.782      124.2663        0.0589      139.9545      140.0134      15.747147       1.01034
  37     2.292      124.2923        0.0764      139.8863      139.9627      15.670335       1.27222
  36     2.964      124.3362        0.0994      139.7827      139.8821      15.545909       1.56192
  35     3.853      124.4075        0.1297      139.6263      139.7560      15.348503       1.87342
  34     5.035      124.5156        0.1700      139.3997      139.5697      15.054052       2.10343
  33     6.613      124.6669        0.2237      139.0882      139.3119      14.644976       2.18692
  32     8.786      124.8638        0.2959      138.6807      138.9766      14.112890       2.06643
  31     11.80      125.1192        0.3991      138.1391      138.5383      13.419025       1.94260
  30     15.07      125.3631        0.5097      137.6053      138.1150      12.751948       1.72226
  29     18.79      125.6111        0.6344      137.0454      137.6798      12.068666       1.54921
  28     23.16      125.8692        0.7797      136.4407      137.2204      11.351165       1.38741
  27     28.12      126.1275        0.9456      135.8059      136.7514      10.623983       1.23616
  26     33.73      126.3634        1.1309      135.1738      136.3048       9.941394       1.02629
  25     40.54      126.5870        1.3546      134.4996      135.8542       9.267200       0.83641
  24     48.69      126.7969        1.6238      133.7734      135.3971       8.600200       0.69024
  23     57.69      126.9699        1.9189      133.0586      134.9775       8.007578       0.55549
  22     68.43      127.1138        2.2699      132.2956      134.5654       7.451640       0.43704
  21     81.20      127.2001        2.6875      131.5047      134.1921       6.992061       0.30368
  20     96.49      127.2239        3.1842      130.6714      133.8556       6.631646       0.19892
  19     114.6      127.2120        3.7718      129.7419      133.5137       6.301690       0.15407
  18     136.5      127.1708        4.4651      128.6831      133.1482       5.977335       0.12472
  17     162.9      127.0973        5.2859      127.4641      132.7499       5.652693       0.10377
  16     196.4      126.9486        6.3436      125.9660      132.3096       5.360991       0.07342
  15     218.7      126.8317        7.0341      125.0151      132.0491       5.217409       0.05451
  14     243.0      126.6960        7.7806      123.9995      131.7802       5.084146       0.04622
  13     269.0      126.5399        8.5852      122.9181      131.5034       4.963456       0.03915
  12     297.5      126.3628        9.4496      121.7689      131.2185       4.855686       0.03196
  11     328.5      126.1680       10.3776      120.5413      130.9189       4.750916       0.02849
  10     361.9      125.9551       11.3698      119.2346      130.6043       4.649281       0.02571
   9     398.1      125.7235       12.4297      117.8438      130.2735       4.549967       0.02314
   8     437.6      125.4740       13.5589      116.3651      129.9241       4.450074       0.02136
   7     480.5      125.2061       14.7592      114.7963      129.5554       4.349361       0.01978
   6     533.0      124.8776       16.2224      112.8847      129.1072       4.229606       0.01926
   5     589.8      124.5283       17.7826      110.8431      128.6257       4.097434       0.01962
   4     651.6      124.1635       19.4404      108.6613      128.1017       3.938294       0.02176
   3     718.7      123.7882       21.1967      106.3308      127.5275       3.739324       0.02501
   2     792.3      123.4167       23.0487      103.8369      126.8856       3.468888       0.03102
   1     891.5      122.9868       25.4986      100.4585      125.9571       2.970319       0.04243
   0    1013.0      122.5872       28.3638       96.4069      124.7707       2.183487       0.05463



 Wavenumbers: 22650. - 29000. cm-1, ATM      1
 LEVEL PRESSURE   UPWARD FLUX   DIFDOWN FLUX  DIRDOWN FLUX  DOWNWARD FLUX   NET FLUX    HEATING RATE
          mb          W/m2          W/m2          W/m2        W/m2          W/m2       degree/day
  51    .06700       52.0597        0.0000       52.8729       52.8729       0.813200       0.00000
  50    .07753       52.0596        0.0004       52.8724       52.8728       0.813200      -0.00000
  49    .09103       52.0595        0.0010       52.8717       52.8727       0.813200       0.00000
  48    0.1069       52.0593        0.0016       52.8709       52.8725       0.813200      -0.00000
  47    0.1255       52.0591        0.0024       52.8700       52.8723       0.813200       0.00000
  46    0.1487       52.0589        0.0033       52.8688       52.8721       0.813200       0.00000
  45    0.1794       52.0586        0.0046       52.8672       52.8718       0.813200      -0.00000
  44    0.2165       52.0582        0.0061       52.8654       52.8714       0.813200       0.00000
  43    0.2613       52.0578        0.0078       52.8632       52.8710       0.813200       0.00000
  42    0.3336       52.0571        0.0108       52.8595       52.8703       0.813200      -0.00000
  41    0.4307       52.0561        0.0147       52.8546       52.8693       0.813200       0.00000
  40    0.5894       52.0545        0.0210       52.8467       52.8677       0.813200      -0.00000
  39     1.339       52.0470        0.0511       52.8091       52.8602       0.813200       0.00000
  38     1.782       52.0426        0.0687       52.7870       52.8558       0.813200       0.00000
  37     2.292       52.0375        0.0892       52.7615       52.8507       0.813200      -0.00000
  36     2.964       52.0308        0.1160       52.7280       52.8440       0.813200       0.00000
  35     3.853       52.0220        0.1514       52.6837       52.8352       0.813200       0.00000
  34     5.035       52.0102        0.1985       52.6250       52.8234       0.813200      -0.00000
  33     6.613       51.9946        0.2612       52.5465       52.8078       0.813200      -0.00000
  32     8.786       51.9735        0.3458       52.4409       52.7867       0.813200       0.00000
  31     11.80       51.9434        0.4664       52.2901       52.7566       0.813200      -0.00000
  30     15.07       51.9111        0.5958       52.1286       52.7243       0.813200       0.00000
  29     18.79       51.8748        0.7415       51.9465       52.6880       0.813200       0.00000
  28     23.16       51.8324        0.9112       51.7344       52.6456       0.813200      -0.00000
  27     28.12       51.7841        1.1046       51.4927       52.5973       0.813200      -0.00000
  26     33.73       51.7303        1.3202       51.2233       52.5435       0.813200       0.00000
  25     40.54       51.6656        1.5794       50.8994       52.4788       0.813200       0.00000
  24     48.69       51.5881        1.8900       50.5113       52.4013       0.813200      -0.00000
  23     57.69       51.5034        2.2288       50.0879       52.3166       0.813200       0.00000
  22     68.43       51.4034        2.6289       49.5877       52.2166       0.813200      -0.00000
  21     81.20       51.2855        3.1009       48.9977       52.0987       0.813200       0.00000
  20     96.49       51.1465        3.6565       48.3032       51.9597       0.813200       0.00000
  19     114.6       50.9839        4.3066       47.4905       51.7971       0.813200      -0.00000
  18     136.5       50.7943        5.0636       46.5439       51.6075       0.813200       0.00000
  17     162.9       50.5731        5.9464       45.4400       51.3863       0.813200      -0.00000
  16     196.4       50.2935        7.0612       44.0455       51.1067       0.813200       0.00000
  15     218.7       50.1142        7.7754       43.1519       50.9274       0.813200      -0.00000
  14     243.0       49.9230        8.5361       42.2001       50.7362       0.813200       0.00000
  13     269.0       49.7202        9.3424       41.1910       50.5334       0.813200      -0.00000
  12     297.5       49.5060       10.1930       40.1262       50.3192       0.813200       0.00000
  11     328.5       49.2802       11.0889       39.0044       50.0934       0.813200      -0.00000
  10     361.9       49.0434       12.0271       37.8295       49.8566       0.813200       0.00000
   9     398.1       48.7956       13.0071       36.6017       49.6088       0.813200       0.00000
   8     437.6       48.5376       14.0264       35.3244       49.3508       0.813200      -0.00000
   7     480.5       48.2698       15.0820       34.0010       49.0830       0.813200       0.00000
   6     533.0       47.9523       16.3313       32.4341       48.7655       0.813200       0.00000
   5     589.8       47.6241       17.6189       30.8184       48.4373       0.813200      -0.00000
   4     651.6       47.2869       18.9382       29.1618       48.1001       0.813200       0.00000
   3     718.7       46.9419       20.2833       27.4718       47.7551       0.813200       0.00000
   2     792.3       46.5916       21.6438       25.7609       47.4048       0.813200      -0.00000
   1     891.5       46.1477       23.3588       23.6021       46.9609       0.813200       0.00000
   0    1013.0       45.6553       25.2475       21.2211       46.4685       0.813200       0.00000



 Wavenumbers: 29000. - 38000. cm-1, ATM      1
 LEVEL PRESSURE   UPWARD FLUX   DIFDOWN FLUX  DIRDOWN FLUX  DOWNWARD FLUX   NET FLUX    HEATING RATE
          mb          W/m2          W/m2          W/m2        W/m2          W/m2       degree/day
  51    .06700        7.7140        0.0000       18.6452       18.6452      10.931195       0.00000
  50    .07753        7.7138        0.0003       18.6409       18.6412      10.927391       3.04960
  49    .09103        7.7136        0.0007       18.6347       18.6354      10.921858       3.45799
  48    0.1069        7.7133        0.0012       18.6266       18.6278      10.914456       3.94002
  47    0.1255        7.7130        0.0017       18.6159       18.6176      10.904566       4.48395
  46    0.1487        7.7126        0.0023       18.6003       18.6027      10.890030       5.29835
  45    0.1794        7.7121        0.0032       18.5763       18.5796      10.867425       6.20572
  44    0.2165        7.7116        0.0043       18.5443       18.5486      10.837013       6.91806
  43    0.2613        7.7109        0.0055       18.5017       18.5072      10.796225       7.68847
  42    0.3336        7.7100        0.0075       18.4227       18.4302      10.720223       8.86103
  41    0.4307        7.7087        0.0101       18.3080       18.3181      10.609354       9.63985
  40    0.5894        7.7070        0.0144       18.1027       18.1171      10.410094      10.59637
  39     1.339        7.7021        0.0322       16.9851       17.0173       9.315240      12.32606
  38     1.782        7.7015        0.0415       16.3740       16.4155       8.713979      11.44706
  37     2.292        7.7027        0.0514       15.7638       15.8152       8.112550       9.96123
  36     2.964        7.7069        0.0636       15.1004       15.1640       7.457109       8.22776
  35     3.853        7.7162        0.0789       14.3942       14.4732       6.756937       6.64476
  34     5.035        7.7322        0.0982       13.6771       13.7752       6.043000       5.10007
  33     6.613        7.7559        0.1228       12.9810       13.1037       5.347888       3.71607
  32     8.786        7.7871        0.1549       12.3230       12.4779       4.690761       2.55204
  31     11.80        7.8277        0.1995       11.6761       11.8756       4.047849       1.79995
  30     15.07        7.8664        0.2458       11.1793       11.4251       3.558682       1.26293
  29     18.79        7.9061        0.2967       10.7472       11.0439       3.137850       0.95416
  28     23.16        7.9478        0.3546       10.3467       10.7013       2.753561       0.74309
  27     28.12        7.9898        0.4193        9.9766       10.3959       2.406033       0.59077
  26     33.73        8.0275        0.4905        9.6455       10.1360       2.108443       0.44743
  25     40.54        8.0617        0.5752        9.3230        9.8982       1.836428       0.33747
  24     48.69        8.0921        0.6754        9.0017        9.6771       1.584999       0.26019
  23     57.69        8.1147        0.7836        8.7052        9.4888       1.374051       0.19773
  22     68.43        8.1296        0.9102        8.4051        9.3153       1.185681       0.14808
  21     81.20        8.1293        1.0590        8.1067        9.1657       1.036428       0.09862
  20     96.49        8.1120        1.2333        7.8021        9.0353       0.923381       0.06239
  19     114.6        8.0842        1.4338        7.4737        8.9075       0.823296       0.04673
  18     136.5        8.0484        1.6621        7.1140        8.7761       0.727735       0.03675
  17     162.9        8.0044        1.9212        6.7179        8.6391       0.634725       0.02973
  16     196.4        7.9404        2.2399        6.2539        8.4938       0.553415       0.02047
  15     218.7        7.8971        2.4389        5.9721        8.4110       0.513961       0.01498
  14     243.0        7.8506        2.6459        5.6824        8.3283       0.477667       0.01259
  13     269.0        7.8010        2.8601        5.3861        8.2462       0.445192       0.01053
  12     297.5        7.7484        3.0804        5.0847        8.1651       0.416670       0.00846
  11     328.5        7.6942        3.3048        4.7788        8.0836       0.389491       0.00739
  10     361.9        7.6386        3.5322        4.4702        8.0023       0.363727       0.00652
   9     398.1        7.5819        3.7619        4.1595        7.9213       0.339407       0.00567
   8     437.6        7.5248        3.9918        3.8490        7.8409       0.316050       0.00499
   7     480.5        7.4678        4.2196        3.5422        7.7617       0.293965       0.00434
   6     533.0        7.4029        4.4768        3.1960        7.6728       0.269984       0.00386
   5     589.8        7.3394        4.7272        2.8590        7.5862       0.246860       0.00343
   4     651.6        7.2781        4.9684        2.5340        7.5024       0.224319       0.00308
   3     718.7        7.2197        5.1982        2.2238        7.4220       0.202323       0.00276
   2     792.3        7.1648        5.4144        1.9313        7.3456       0.180863       0.00246
   1     891.5        7.1019        5.6632        1.5931        7.2563       0.154461       0.00225
   0    1013.0        7.0412        5.9071        1.2595        7.1667       0.125417       0.00202



 Wavenumbers: 38000. - 50000. cm-1, ATM      1
 LEVEL PRESSURE   UPWARD FLUX   DIFDOWN FLUX  DIRDOWN FLUX  DOWNWARD FLUX   NET FLUX    HEATING RATE
          mb          W/m2          W/m2          W/m2        W/m2          W/m2       degree/day
  51    .06700        0.0059        0.0000        1.1500        1.1500       1.144153       0.00000
  50    .07753        0.0058        0.0001        1.1476        1.1476       1.141818       1.87101
  49    .09103        0.0057        0.0002        1.1441        1.1442       1.138488       2.08128
  48    0.1069        0.0057        0.0002        1.1395        1.1398       1.134114       2.32829
  47    0.1255        0.0056        0.0004        1.1336        1.1339       1.128368       2.60502
  46    0.1487        0.0054        0.0005        1.1250        1.1255       1.120062       3.02785
  45    0.1794        0.0053        0.0007        1.1120        1.1126       1.107339       3.49271
  44    0.2165        0.0051        0.0009        1.0947        1.0956       1.090502       3.83000
  43    0.2613        0.0049        0.0011        1.0721        1.0732       1.068324       4.18050
  42    0.3336        0.0046        0.0015        1.0311        1.0326       1.027969       4.70496
  41    0.4307        0.0042        0.0019        0.9732        0.9752       0.970929       4.95953
  40    0.5894        0.0037        0.0025        0.8748        0.8773       0.873681       5.17154
  39     1.339        0.0020        0.0034        0.4482        0.4515       0.449520       4.77528
  38     1.782        0.0015        0.0030        0.2928        0.2959       0.294425       2.95275
  37     2.292        0.0011        0.0026        0.1874        0.1900       0.188952       1.74691
  36     2.964        0.0008        0.0021        0.1145        0.1165       0.115788       0.91843
  35     3.853        0.0005        0.0016        0.0663        0.0679       0.067417       0.45905
  34     5.035        0.0003        0.0012        0.0371        0.0383       0.037925       0.21068
  33     6.613        0.0002        0.0009        0.0201        0.0210       0.020805       0.09152
  32     8.786        0.0001        0.0006        0.0101        0.0107       0.010590       0.03967
  31     11.80        0.0001        0.0004        0.0043        0.0046       0.004583       0.01682
  30     15.07        0.0000        0.0002        0.0019        0.0021       0.002081       0.00646
  29     18.79        0.0000        0.0001        0.0008        0.0009       0.000933       0.00260
  28     23.16        0.0000        0.0001        0.0003        0.0004       0.000400       0.00103
  27     28.12        0.0000        0.0000        0.0001        0.0002       0.000166       0.00040
  26     33.73        0.0000        0.0000        0.0001        0.0001       0.000069       0.00015
  25     40.54        0.0000        0.0000        0.0000        0.0000       0.000027       0.00005
  24     48.69        0.0000        0.0000        0.0000        0.0000       0.000009       0.00002
  23     57.69        0.0000        0.0000        0.0000        0.0000       0.000003       0.00001
  22     68.43        0.0000        0.0000        0.0000        0.0000       0.000001       0.00000
  21     81.20        0.0000        0.0000        0.0000        0.0000       0.000000       0.00000
  20     96.49        0.0000        0.0000        0.0000        0.0000       0.000000       0.00000
  19     114.6        0.0000        0.0000        0.0000        0.0000       0.000000       0.00000
  18     136.5        0.0000        0.0000        0.0000        0.0000       0.000000       0.00000
  17     162.9        0.0000        0.0000        0.0000        0.0000       0.000000       0.00000
  16     196.4        0.0000        0.0000        0.0000        0.0000       0.000000       0.00000
  15     218.7        0.0000        0.0000        0.0000        0.0000       0.000000       0.00000
  14     243.0        0.0000        0.0000        0.0000        0.0000       0.000000       0.00000
  13     269.0        0.0000        0.0000        0.0000        0.0000       0.000000       0.00000
  12     297.5        0.0000        0.0000        0.0000        0.0000       0.000000       0.00000
  11     328.5        0.0000        0.0000        0.0000        0.0000       0.000000       0.00000
  10     361.9        0.0000        0.0000        0.0000        0.0000       0.000000       0.00000
   9     398.1        0.0000        0.0000        0.0000        0.0000       0.000000       0.00000
   8     437.6        0.0000        0.0000        0.0000        0.0000       0.000000       0.00000
   7     480.5        0.0000        0.0000        0.0000        0.0000       0.000000       0.00000
   6     533.0        0.0000        0.0000        0.0000        0.0000       0.000000       0.00000
   5     589.8        0.0000        0.0000        0.0000        0.0000       0.000000       0.00000
   4     651.6        0.0000        0.0000        0.0000        0.0000       0.000000       0.00000
   3     718.7        0.0000        0.0000        0.0000        0.0000       0.000000       0.00000
   2     792.3        0.0000        0.0000        0.0000        0.0000       0.000000       0.00000
   1     891.5        0.0000        0.0000        0.0000        0.0000       0.000000       0.00000
   0    1013.0        0.0000        0.0000        0.0000        0.0000       0.000000       0.00000



 Wavenumbers:   820. -  2600. cm-1, ATM      1
 LEVEL PRESSURE   UPWARD FLUX   DIFDOWN FLUX  DIRDOWN FLUX  DOWNWARD FLUX   NET FLUX    HEATING RATE
          mb          W/m2          W/m2          W/m2        W/m2          W/m2       degree/day
  51    .06700        0.6047        0.0000        5.3797        5.3797       4.774918       0.00000
  50    .07753        0.6047        0.0000        5.3761        5.3761       4.771388       2.82934
  49    .09103        0.6047        0.0000        5.3753        5.3753       4.770522       0.54150
  48    0.1069        0.6047        0.0000        5.3743        5.3743       4.769552       0.51637
  47    0.1255        0.6047        0.0000        5.3732        5.3732       4.768467       0.49191
  46    0.1487        0.6047        0.0000        5.3719        5.3719       4.767163       0.47539
  45    0.1794        0.6047        0.0000        5.3703        5.3703       4.765531       0.44791
  44    0.2165        0.6047        0.0000        5.3685        5.3685       4.763802       0.39326
  43    0.2613        0.6047        0.0000        5.3667        5.3667       4.761972       0.34504
  42    0.3336        0.6047        0.0000        5.3640        5.3640       4.759267       0.31531
  41    0.4307        0.6047        0.0000        5.3607        5.3607       4.755951       0.28833
  40    0.5894        0.6047        0.0000        5.3554        5.3554       4.750616       0.28375
  39     1.339        0.6047        0.0000        5.3308        5.3308       4.726021       0.27689
  38     1.782        0.6047        0.0000        5.3172        5.3172       4.712415       0.25904
  37     2.292        0.6047        0.0000        5.3020        5.3020       4.697289       0.25053
  36     2.964        0.6047        0.0000        5.2831        5.2831       4.678400       0.23711
  35     3.853        0.6047        0.0000        5.2597        5.2597       4.655006       0.22202
  34     5.035        0.6047        0.0000        5.2308        5.2308       4.626102       0.20647
  33     6.613        0.6047        0.0000        5.1949        5.1949       4.590155       0.19217
  32     8.786        0.6047        0.0000        5.1502        5.1502       4.545454       0.17360
  31     11.80        0.6048        0.0000        5.0959        5.0959       4.491114       0.15213
  30     15.07        0.6048        0.0000        5.0515        5.0515       4.446695       0.11468
  29     18.79        0.6048        0.0000        5.0158        5.0158       4.411074       0.08076
  28     23.16        0.6048        0.0000        4.9869        4.9869       4.382163       0.05591
  27     28.12        0.6048        0.0000        4.9621        4.9621       4.357335       0.04221
  26     33.73        0.6048        0.0000        4.9384        4.9384       4.333618       0.03566
  25     40.54        0.6048        0.0000        4.9117        4.9117       4.306909       0.03313
  24     48.69        0.6048        0.0000        4.8809        4.8809       4.276043       0.03194
  23     57.69        0.6048        0.0000        4.8479        4.8479       4.243076       0.03090
  22     68.43        0.6048        0.0000        4.8098        4.8098       4.204941       0.02998
  21     81.20        0.6049        0.0000        4.7664        4.7665       4.161580       0.02865
  20     96.49        0.6049        0.0000        4.7170        4.7170       4.112096       0.02731
  19     114.6        0.6049        0.0000        4.6606        4.6606       4.055641       0.02636
  18     136.5        0.6050        0.0000        4.5971        4.5971       3.992166       0.02441
  17     162.9        0.6050        0.0000        4.5202        4.5203       3.915225       0.02459
  16     196.4        0.6051        0.0000        4.4083        4.4083       3.803165       0.02821
  15     218.7        0.6052        0.0000        4.3109        4.3109       3.705717       0.03700
  14     243.0        0.6054        0.0000        4.1781        4.1782       3.572767       0.04611
  13     269.0        0.6056        0.0000        4.0260        4.0260       3.420342       0.04945
  12     297.5        0.6061        0.0000        3.8498        3.8498       3.243743       0.05238
  11     328.5        0.6066        0.0000        3.6472        3.6472       3.040593       0.05524
  10     361.9        0.6074        0.0000        3.4144        3.4145       2.807062       0.05909
   9     398.1        0.6084        0.0000        3.1778        3.1779       2.569440       0.05536
   8     437.6        0.6098        0.0000        2.9709        2.9710       2.361186       0.04453
   7     480.5        0.6115        0.0000        2.8202        2.8202       2.208771       0.02993
   6     533.0        0.6141        0.0000        2.6905        2.6906       2.076481       0.02128
   5     589.8        0.6180        0.0000        2.5565        2.5565       1.938492       0.02048
   4     651.6        0.6253        0.0000        2.3859        2.3859       1.760673       0.02432
   3     718.7        0.6378        0.0000        2.1932        2.1932       1.555393       0.02580
   2     792.3        0.6610        0.0000        1.9869        1.9870       1.326003       0.02631
   1     891.5        0.7199        0.0000        1.7010        1.7011       0.981204       0.02934
   0    1013.0        0.8670        0.0000        1.3157        1.3158       0.448814       0.03697

  Modules and versions used in this calculation:

       rrtmg_sw.1col.f90:  $Revision$                    rrtmg_sw_init.f90:  $Revision$        
     rrtmgsw_cldprop.f90:  $Revision$                  rrtmgsw_cldprmc.f90:  NOT USED          
     rrtmg_sw_reftra.f90:  $Revision$                  rrtmg_sw_spcvrt.f90:  NOT USED          
     rrtmg_sw_spcvmc.f90:  NOT USED                    rrtmgsw_setcoef.f90:  NOT USED          
     rrtmg_sw_taumol.f90:  $Revision$                  rrtmg_sw_vrtqdr.f90:  NOT USED          
                rrtatm.f:  NOT USED                             util_xxx.f:  NOT USED          
                 extra.f:  NOT USED                       rrtmg_sw_k_g.f90:  $Revision$        

