

 Wavenumbers:   820. - 50000. cm-1, ATM      1
 LEVEL PRESSURE   UPWARD FLUX   DIFDOWN FLUX  DIRDOWN FLUX  DOWNWARD FLUX   NET FLUX    HEATING RATE
          mb          W/m2          W/m2          W/m2        W/m2          W/m2       degree/day
  51    .06700      671.5903        0.0000     1100.9501     1100.9501     429.359818       0.00000
  50    .07753      671.5903        0.0017     1100.9294     1100.9311     429.340759      15.27575
  49    .09103      671.5904        0.0038     1100.9107     1100.9145     429.324090      10.41892
  48    0.1069      671.5906        0.0062     1100.8895     1100.8958     429.305209      10.05002
  47    0.1255      671.5908        0.0090     1100.8642     1100.8732     429.282351      10.36301
  46    0.1487      671.5913        0.0126     1100.8297     1100.8422     429.250961      11.44184
  45    0.1794      671.5920        0.0174     1100.7790     1100.7964     429.204324      12.80292
  44    0.2165      671.5931        0.0231     1100.7138     1100.7369     429.143744      13.78103
  43    0.2613      671.5947        0.0298     1100.6296     1100.6594     429.064670      14.90502
  42    0.3336      671.5978        0.0409     1100.4774     1100.5183     428.920426      16.81747
  41    0.4307      671.6028        0.0555     1100.2597     1100.3153     428.712521      18.07689
  40    0.5894      671.6125        0.0793     1099.8712     1099.9505     428.337989      19.91710
  39     1.339      671.6902        0.1881     1097.6161     1097.8041     426.113932      25.03884
  38     1.782      671.7582        0.2497     1096.2253     1096.4750     424.716798      26.59918
  37     2.292      671.8575        0.3200     1094.7274     1095.0473     423.189896      25.28948
  36     2.964      672.0191        0.4115     1093.0381     1093.4496     421.430454      22.08631
  35     3.853      672.2765        0.5316     1091.2408     1091.7724     419.495950      18.35880
  34     5.035      672.6615        0.6905     1089.3708     1090.0613     417.399768      14.97426
  33     6.613      673.1988        0.9021     1087.4199     1088.3220     415.123200      12.17053
  32     8.786      673.9021        1.1865     1085.3732     1086.5597     412.657612       9.57545
  31     11.80      674.8279        1.5922     1083.0794     1084.6716     409.843750       7.87793
  30     15.07      675.7288        2.0268     1081.0637     1083.0905     407.361668       6.40825
  29     18.79      676.6635        2.5165     1079.1000     1081.6165     404.952972       5.46126
  28     23.16      677.6597        3.0873     1077.0907     1080.1780     402.518329       4.70781
  27     28.12      678.6866        3.7389     1075.0600     1078.7989     400.112304       4.09008
  26     33.73      679.6702        4.4679     1073.0759     1077.5438     397.873680       3.36583
  25     40.54      680.6639        5.3484     1070.9672     1076.3155     395.651668       2.75666
  24     48.69      681.6725        6.4089     1068.6911     1075.1000     393.427510       2.30166
  23     57.69      682.5950        7.5727     1066.4278     1074.0005     391.405455       1.89537
  22     68.43      683.4904        8.9575     1063.9684     1072.9259     389.435542       1.54862
  21     81.20      684.2709       10.6070     1061.3283     1071.9354     387.664457       1.17031
  20     96.49      684.9315       12.5710     1058.4424     1071.0134     386.081884       0.87347
  19     114.6      685.5998       14.8954     1055.1476     1070.0430     384.443179       0.76516
  18     136.5      686.2939       17.6341     1051.3642     1068.9983     382.704420       0.66859
  17     162.9      687.0308       20.8745     1046.9287     1067.8032     380.772401       0.61755
  16     196.4      687.7860       25.0393     1041.1499     1066.1892     378.403110       0.59638
  15     218.7      688.2089       27.7577     1036.9273     1064.6850     376.476081       0.73162
  14     243.0      688.6350       30.6932     1031.6918     1062.3850     373.750010       0.94549
  13     269.0      689.0629       33.8523     1025.0834     1058.9357     369.872751       1.25777
  12     297.5      689.4959       37.2406     1016.9021     1054.1426     364.646696       1.54999
  11     328.5      689.9539       40.8717     1007.8944     1048.7661     358.812181       1.58639
  10     361.9      690.4418       44.7468      998.1745     1042.9213     352.479478       1.60224
   9     398.1      690.9695       48.8781      987.4796     1036.3577     345.388185       1.65211
   8     437.6      691.5557       53.2698      975.4831     1028.7529     337.197163       1.75129
   7     480.5      692.2170       57.9275      962.3001     1020.2276     328.010634       1.80420
   6     533.0      693.1054       63.5915      945.8539     1009.4454     316.340066       1.87742
   5     589.8      694.2178       69.6140      927.7158      997.3299     303.112102       1.96346
   4     651.6      695.7544       75.9912      906.9083      982.8995     287.145108       2.18353
   3     718.7      697.9379       82.7231      884.1138      966.8369     268.899018       2.29303
   2     792.3      701.3071       89.7951      859.2080      949.0031     247.695974       2.43175
   1     891.5      708.6459       99.1164      825.6264      924.7428     216.096984       2.68892
   0    1013.0      725.3198      109.9815      786.7408      896.7223     171.402463       3.10337



 Wavenumbers:  2600. -  3250. cm-1, ATM      1
 LEVEL PRESSURE   UPWARD FLUX   DIFDOWN FLUX  DIRDOWN FLUX  DOWNWARD FLUX   NET FLUX    HEATING RATE
          mb          W/m2          W/m2          W/m2        W/m2          W/m2       degree/day
  51    .06700        0.0184        0.0000        9.7031        9.7031       9.684699       0.00000
  50    .07753        0.0184        0.0000        9.7031        9.7031       9.684691       0.00640
  49    .09103        0.0184        0.0000        9.7031        9.7031       9.684681       0.00627
  48    0.1069        0.0184        0.0000        9.7031        9.7031       9.684670       0.00613
  47    0.1255        0.0184        0.0000        9.7031        9.7031       9.684656       0.00600
  46    0.1487        0.0184        0.0000        9.7031        9.7031       9.684640       0.00608
  45    0.1794        0.0184        0.0000        9.7030        9.7030       9.684617       0.00625
  44    0.2165        0.0184        0.0000        9.7030        9.7030       9.684590       0.00613
  43    0.2613        0.0184        0.0000        9.7030        9.7030       9.684558       0.00601
  42    0.3336        0.0184        0.0000        9.7029        9.7029       9.684505       0.00618
  41    0.4307        0.0184        0.0000        9.7029        9.7029       9.684433       0.00622
  40    0.5894        0.0184        0.0000        9.7027        9.7027       9.684313       0.00639
  39     1.339        0.0184        0.0000        9.7020        9.7020       9.683599       0.00804
  38     1.782        0.0184        0.0000        9.7015        9.7015       9.683046       0.01053
  37     2.292        0.0184        0.0000        9.7007        9.7007       9.682311       0.01218
  36     2.964        0.0184        0.0000        9.6997        9.6997       9.681231       0.01355
  35     3.853        0.0184        0.0000        9.6981        9.6981       9.679668       0.01483
  34     5.035        0.0184        0.0000        9.6959        9.6959       9.677440       0.01592
  33     6.613        0.0184        0.0000        9.6927        9.6927       9.674319       0.01668
  32     8.786        0.0184        0.0000        9.6884        9.6884       9.670015       0.01672
  31     11.80        0.0184        0.0000        9.6823        9.6824       9.663934       0.01703
  30     15.07        0.0184        0.0000        9.6761        9.6761       9.657682       0.01614
  29     18.79        0.0184        0.0000        9.6696        9.6696       9.651144       0.01482
  28     23.16        0.0184        0.0000        9.6626        9.6626       9.644197       0.01343
  27     28.12        0.0184        0.0000        9.6554        9.6554       9.637007       0.01222
  26     33.73        0.0184        0.0000        9.6477        9.6477       9.629322       0.01155
  25     40.54        0.0184        0.0000        9.6384        9.6385       9.620057       0.01150
  24     48.69        0.0184        0.0000        9.6270        9.6270       9.608627       0.01183
  23     57.69        0.0184        0.0000        9.6137        9.6138       9.595358       0.01244
  22     68.43        0.0184        0.0000        9.5967        9.5968       9.578375       0.01335
  21     81.20        0.0184        0.0000        9.5749        9.5749       9.556552       0.01442
  20     96.49        0.0184        0.0000        9.5472        9.5472       9.528820       0.01531
  19     114.6        0.0184        0.0000        9.5116        9.5116       9.493263       0.01660
  18     136.5        0.0184        0.0000        9.4682        9.4683       9.449913       0.01667
  17     162.9        0.0184        0.0001        9.4161        9.4161       9.397752       0.01667
  16     196.4        0.0184        0.0001        9.3486        9.3487       9.330285       0.01698
  15     218.7        0.0184        0.0001        9.3017        9.3017       9.283388       0.01781
  14     243.0        0.0184        0.0001        9.2444        9.2445       9.226107       0.01987
  13     269.0        0.0184        0.0001        9.1726        9.1727       9.154322       0.02329
  12     297.5        0.0184        0.0001        9.0846        9.0847       9.066323       0.02610
  11     328.5        0.0184        0.0001        8.9855        8.9856       8.967239       0.02694
  10     361.9        0.0184        0.0001        8.8745        8.8746       8.856249       0.02808
   9     398.1        0.0184        0.0001        8.7449        8.7451       8.726635       0.03020
   8     437.6        0.0185        0.0001        8.5865        8.5866       8.568143       0.03389
   7     480.5        0.0185        0.0001        8.3880        8.3882       8.369649       0.03898
   6     533.0        0.0186        0.0002        8.1031        8.1033       8.084663       0.04585
   5     589.8        0.0188        0.0002        7.7424        7.7426       7.723799       0.05356
   4     651.6        0.0191        0.0002        7.2924        7.2926       7.273532       0.06158
   3     718.7        0.0195        0.0002        6.7927        6.7929       6.773371       0.06286
   2     792.3        0.0202        0.0002        6.2465        6.2467       6.226461       0.06272
   1     891.5        0.0220        0.0002        5.4927        5.4929       5.470869       0.06430
   0    1013.0        0.0268        0.0002        4.6134        4.6136       4.586829       0.06138



 Wavenumbers:  3250. -  4000. cm-1, ATM      1
 LEVEL PRESSURE   UPWARD FLUX   DIFDOWN FLUX  DIRDOWN FLUX  DOWNWARD FLUX   NET FLUX    HEATING RATE
          mb          W/m2          W/m2          W/m2        W/m2          W/m2       degree/day
  51    .06700        0.0005        0.0000       16.3580       16.3580      16.357540       0.00000
  50    .07753        0.0005        0.0000       16.3526       16.3526      16.352053       4.39745
  49    .09103        0.0005        0.0000       16.3478       16.3478      16.347293       2.97509
  48    0.1069        0.0005        0.0000       16.3440       16.3440      16.343446       2.04780
  47    0.1255        0.0005        0.0000       16.3406       16.3406      16.340116       1.50966
  46    0.1487        0.0005        0.0000       16.3372       16.3372      16.336719       1.23832
  45    0.1794        0.0005        0.0000       16.3333       16.3333      16.332787       1.07954
  44    0.2165        0.0005        0.0000       16.3292       16.3292      16.328704       0.92864
  43    0.2613        0.0005        0.0000       16.3249       16.3249      16.324397       0.81188
  42    0.3336        0.0005        0.0000       16.3187       16.3187      16.318231       0.71892
  41    0.4307        0.0005        0.0000       16.3119       16.3119      16.311379       0.59575
  40    0.5894        0.0005        0.0000       16.3025       16.3025      16.302021       0.49766
  39     1.339        0.0005        0.0000       16.2683       16.2683      16.267753       0.38579
  38     1.782        0.0005        0.0000       16.2520       16.2521      16.251549       0.30850
  37     2.292        0.0005        0.0000       16.2359       16.2359      16.235433       0.26694
  36     2.964        0.0005        0.0000       16.2177       16.2177      16.217164       0.22933
  35     3.853        0.0005        0.0000       16.1965       16.1965      16.196028       0.20058
  34     5.035        0.0005        0.0000       16.1712       16.1712      16.170745       0.18061
  33     6.613        0.0005        0.0000       16.1395       16.1395      16.139038       0.16951
  32     8.786        0.0005        0.0000       16.0971       16.0972      16.096667       0.16455
  31     11.80        0.0005        0.0000       16.0348       16.0349      16.034367       0.17442
  30     15.07        0.0005        0.0000       15.9651       15.9651      15.964647       0.18000
  29     18.79        0.0005        0.0000       15.8834       15.8834      15.882944       0.18525
  28     23.16        0.0005        0.0000       15.7858       15.7859      15.785380       0.18866
  27     28.12        0.0005        0.0000       15.6737       15.6738      15.673296       0.19054
  26     33.73        0.0005        0.0000       15.5508       15.5508      15.550386       0.18480
  25     40.54        0.0004        0.0001       15.4093       15.4093      15.408881       0.17555
  24     48.69        0.0004        0.0001       15.2527       15.2527      15.252302       0.16203
  23     57.69        0.0004        0.0001       15.0976       15.0977      15.097237       0.14535
  22     68.43        0.0004        0.0001       14.9309       14.9310      14.930575       0.13102
  21     81.20        0.0004        0.0001       14.7482       14.7483      14.747931       0.12069
  20     96.49        0.0004        0.0001       14.5408       14.5409      14.540521       0.11447
  19     114.6        0.0004        0.0001       14.2906       14.2908      14.290395       0.11679
  18     136.5        0.0003        0.0002       14.0017       14.0019      14.001518       0.11108
  17     162.9        0.0003        0.0002       13.6545       13.6547      13.654357       0.11097
  16     196.4        0.0003        0.0002       13.1514       13.1516      13.151377       0.12661
  15     218.7        0.0002        0.0002       12.6838       12.6840      12.683758       0.17754
  14     243.0        0.0002        0.0003       12.0340       12.0342      12.033998       0.22536
  13     269.0        0.0002        0.0003       11.1789       11.1791      11.178939       0.27738
  12     297.5        0.0002        0.0003       10.1790       10.1792      10.179069       0.29655
  11     328.5        0.0002        0.0003        9.1931        9.1934       9.193208       0.26805
  10     361.9        0.0001        0.0002        8.2235        8.2237       8.223565       0.24533
   9     398.1        0.0001        0.0002        7.2597        7.2600       7.259846       0.22452
   8     437.6        0.0001        0.0002        6.3301        6.3303       6.330230       0.19876
   7     480.5        0.0001        0.0002        5.4881        5.4883       5.488230       0.16537
   6     533.0        0.0001        0.0002        4.6003        4.6005       4.600476       0.14281
   5     589.8        0.0001        0.0002        3.7540        3.7541       3.754081       0.12563
   4     651.6        0.0000        0.0001        2.8963        2.8964       2.896404       0.11729
   3     718.7        0.0000        0.0001        2.0745        2.0746       2.074569       0.10328
   2     792.3        0.0001        0.0001        1.3232        1.3233       1.323199       0.08617
   1     891.5        0.0001        0.0000        0.6071        0.6071       0.607000       0.06095
   0    1013.0        0.0014        0.0000        0.1480        0.1480       0.146658       0.03196



 Wavenumbers:  4000. -  4650. cm-1, ATM      1
 LEVEL PRESSURE   UPWARD FLUX   DIFDOWN FLUX  DIRDOWN FLUX  DOWNWARD FLUX   NET FLUX    HEATING RATE
          mb          W/m2          W/m2          W/m2        W/m2          W/m2       degree/day
  51    .06700        0.5148        0.0000       19.2093       19.2093      18.694502       0.00000
  50    .07753        0.5148        0.0000       19.2093       19.2093      18.694501       0.00080
  49    .09103        0.5148        0.0000       19.2093       19.2093      18.694500       0.00078
  48    0.1069        0.5148        0.0000       19.2093       19.2093      18.694499       0.00076
  47    0.1255        0.5148        0.0000       19.2093       19.2093      18.694497       0.00075
  46    0.1487        0.5148        0.0000       19.2093       19.2093      18.694495       0.00076
  45    0.1794        0.5148        0.0000       19.2093       19.2093      18.694492       0.00078
  44    0.2165        0.5148        0.0000       19.2093       19.2093      18.694489       0.00076
  43    0.2613        0.5148        0.0000       19.2093       19.2093      18.694485       0.00075
  42    0.3336        0.5148        0.0000       19.2093       19.2093      18.694478       0.00077
  41    0.4307        0.5148        0.0000       19.2093       19.2093      18.694469       0.00077
  40    0.5894        0.5148        0.0000       19.2092       19.2092      18.694454       0.00080
  39     1.339        0.5148        0.0000       19.2091       19.2091      18.694365       0.00101
  38     1.782        0.5148        0.0000       19.2091       19.2091      18.694295       0.00133
  37     2.292        0.5148        0.0000       19.2090       19.2090      18.694201       0.00156
  36     2.964        0.5148        0.0000       19.2088       19.2088      18.694061       0.00176
  35     3.853        0.5148        0.0000       19.2086       19.2086      18.693853       0.00197
  34     5.035        0.5148        0.0000       19.2083       19.2083      18.693546       0.00219
  33     6.613        0.5148        0.0000       19.2078       19.2079      18.693093       0.00242
  32     8.786        0.5148        0.0000       19.2071       19.2072      18.692425       0.00259
  31     11.80        0.5147        0.0000       19.2061       19.2061      18.691374       0.00294
  30     15.07        0.5147        0.0001       19.2048       19.2049      18.690139       0.00319
  29     18.79        0.5147        0.0001       19.2033       19.2034      18.688643       0.00339
  28     23.16        0.5147        0.0001       19.2014       19.2015      18.686781       0.00360
  27     28.12        0.5147        0.0001       19.1991       19.1992      18.684521       0.00384
  26     33.73        0.5147        0.0001       19.1963       19.1964      18.681726       0.00420
  25     40.54        0.5147        0.0001       19.1924       19.1926      18.677921       0.00472
  24     48.69        0.5146        0.0002       19.1873       19.1875      18.672830       0.00527
  23     57.69        0.5146        0.0002       19.1812       19.1814      18.666766       0.00568
  22     68.43        0.5146        0.0002       19.1735       19.1737      18.659135       0.00600
  21     81.20        0.5145        0.0003       19.1639       19.1642      18.649688       0.00624
  20     96.49        0.5145        0.0003       19.1523       19.1527      18.638143       0.00637
  19     114.6        0.5145        0.0004       19.1377       19.1381      18.623653       0.00677
  18     136.5        0.5144        0.0005       19.1201       19.1206      18.606128       0.00674
  17     162.9        0.5144        0.0006       19.0984       19.0990      18.584602       0.00688
  16     196.4        0.5144        0.0007       19.0686       19.0693      18.554878       0.00748
  15     218.7        0.5144        0.0008       19.0456       19.0464      18.532019       0.00868
  14     243.0        0.5145        0.0009       19.0147       19.0155      18.501079       0.01073
  13     269.0        0.5146        0.0010       18.9709       18.9719      18.457322       0.01419
  12     297.5        0.5147        0.0011       18.9109       18.9120      18.397260       0.01781
  11     328.5        0.5150        0.0012       18.8370       18.8382      18.323141       0.02015
  10     361.9        0.5154        0.0013       18.7444       18.7457      18.230222       0.02351
   9     398.1        0.5159        0.0014       18.6234       18.6248      18.108860       0.02827
   8     437.6        0.5166        0.0015       18.4624       18.4639      17.947270       0.03455
   7     480.5        0.5175        0.0016       18.2581       18.2598      17.742299       0.04026
   6     533.0        0.5188        0.0018       17.9743       17.9761      17.457295       0.04585
   5     589.8        0.5206        0.0019       17.6416       17.6435      17.122849       0.04964
   4     651.6        0.5236        0.0021       17.2417       17.2437      16.720146       0.05507
   3     718.7        0.5283        0.0022       16.7550       16.7572      16.228888       0.06174
   2     792.3        0.5363        0.0023       16.1032       16.1055      15.569235       0.07565
   1     891.5        0.5553        0.0024       15.0614       15.0639      14.508552       0.09026
   0    1013.0        0.6049        0.0025       13.8403       13.8428      13.237854       0.08823



 Wavenumbers:  4650. -  5150. cm-1, ATM      1
 LEVEL PRESSURE   UPWARD FLUX   DIFDOWN FLUX  DIRDOWN FLUX  DOWNWARD FLUX   NET FLUX    HEATING RATE
          mb          W/m2          W/m2          W/m2        W/m2          W/m2       degree/day
  51    .06700        0.0877        0.0000       18.1825       18.1825      18.094779       0.00000
  50    .07753        0.0877        0.0000       18.1823       18.1823      18.094543       0.18920
  49    .09103        0.0877        0.0000       18.1820       18.1820      18.094247       0.18489
  48    0.1069        0.0877        0.0000       18.1816       18.1816      18.093908       0.18038
  47    0.1255        0.0877        0.0000       18.1812       18.1812      18.093521       0.17583
  46    0.1487        0.0877        0.0000       18.1807       18.1807      18.093033       0.17759
  45    0.1794        0.0877        0.0000       18.1801       18.1801      18.092372       0.18163
  44    0.2165        0.0877        0.0000       18.1793       18.1793      18.091594       0.17684
  43    0.2613        0.0877        0.0000       18.1784       18.1784      18.090682       0.17201
  42    0.3336        0.0877        0.0000       18.1769       18.1769      18.089191       0.17382
  41    0.4307        0.0877        0.0000       18.1750       18.1750      18.087249       0.16887
  40    0.5894        0.0877        0.0000       18.1719       18.1719      18.084159       0.16429
  39     1.339        0.0877        0.0000       18.1585       18.1585      18.070812       0.15027
  38     1.782        0.0877        0.0000       18.1515       18.1516      18.063849       0.13256
  37     2.292        0.0877        0.0000       18.1442       18.1442      18.056524       0.12132
  36     2.964        0.0877        0.0000       18.1356       18.1357      18.047956       0.10756
  35     3.853        0.0877        0.0000       18.1259       18.1259      18.038182       0.09275
  34     5.035        0.0877        0.0000       18.1150       18.1151      18.027380       0.07717
  33     6.613        0.0877        0.0000       18.1035       18.1035      18.015813       0.06183
  32     8.786        0.0877        0.0000       18.0912       18.0913      18.003621       0.04735
  31     11.80        0.0876        0.0001       18.0775       18.0776      17.989910       0.03839
  30     15.07        0.0876        0.0001       18.0648       18.0649      17.977270       0.03263
  29     18.79        0.0876        0.0001       18.0511       18.0512      17.963555       0.03110
  28     23.16        0.0876        0.0001       18.0345       18.0346      17.947015       0.03198
  27     28.12        0.0876        0.0002       18.0141       18.0143      17.926728       0.03449
  26     33.73        0.0875        0.0002       17.9895       17.9896      17.902106       0.03702
  25     40.54        0.0875        0.0002       17.9571       17.9573      17.869774       0.04011
  24     48.69        0.0875        0.0003       17.9149       17.9151      17.827664       0.04358
  23     57.69        0.0874        0.0003       17.8654       17.8657      17.778264       0.04630
  22     68.43        0.0874        0.0004       17.8034       17.8038      17.716400       0.04863
  21     81.20        0.0873        0.0004       17.7267       17.7271      17.639785       0.05063
  20     96.49        0.0873        0.0005       17.6338       17.6344      17.547093       0.05116
  19     114.6        0.0872        0.0006       17.5244       17.5250      17.437822       0.05102
  18     136.5        0.0871        0.0007       17.3990       17.3997      17.312576       0.04816
  17     162.9        0.0870        0.0008       17.2579       17.2587      17.171687       0.04503
  16     196.4        0.0869        0.0010       17.0896       17.0906      17.003683       0.04229
  15     218.7        0.0868        0.0011       16.9865       16.9876      16.900736       0.03909
  14     243.0        0.0868        0.0012       16.8780       16.8793      16.792479       0.03755
  13     269.0        0.0867        0.0014       16.7610       16.7624      16.675669       0.03789
  12     297.5        0.0867        0.0015       16.6299       16.6313      16.544654       0.03886
  11     328.5        0.0867        0.0016       16.4836       16.4853      16.398575       0.03972
  10     361.9        0.0867        0.0018       16.3183       16.3201      16.233400       0.04179
   9     398.1        0.0868        0.0019       16.1276       16.1296      16.042797       0.04441
   8     437.6        0.0869        0.0021       15.9043       15.9063      15.819484       0.04775
   7     480.5        0.0870        0.0022       15.6421       15.6443      15.557223       0.05151
   6     533.0        0.0874        0.0024       15.2857       15.2881      15.200692       0.05735
   5     589.8        0.0879        0.0025       14.8560       14.8586      14.770679       0.06383
   4     651.6        0.0888        0.0027       14.3254       14.3281      14.239308       0.07267
   3     718.7        0.0901        0.0028       13.6974       13.7002      13.610105       0.07907
   2     792.3        0.0924        0.0029       12.9830       12.9859      12.893556       0.08218
   1     891.5        0.0973        0.0030       12.0153       12.0183      11.920979       0.08276
   0    1013.0        0.1084        0.0031       10.9494       10.9525      10.844071       0.07478



 Wavenumbers:  5150. -  6150. cm-1, ATM      1
 LEVEL PRESSURE   UPWARD FLUX   DIFDOWN FLUX  DIRDOWN FLUX  DOWNWARD FLUX   NET FLUX    HEATING RATE
          mb          W/m2          W/m2          W/m2        W/m2          W/m2       degree/day
  51    .06700        1.1892        0.0000       45.5836       45.5836      44.394416       0.00000
  50    .07753        1.1892        0.0000       45.5835       45.5835      44.394376       0.03156
  49    .09103        1.1892        0.0000       45.5835       45.5835      44.394325       0.03205
  48    0.1069        1.1892        0.0000       45.5834       45.5834      44.394264       0.03256
  47    0.1255        1.1892        0.0000       45.5833       45.5833      44.394191       0.03307
  46    0.1487        1.1892        0.0000       45.5833       45.5833      44.394095       0.03484
  45    0.1794        1.1892        0.0000       45.5831       45.5831      44.393960       0.03709
  44    0.2165        1.1892        0.0000       45.5829       45.5829      44.393795       0.03767
  43    0.2613        1.1892        0.0000       45.5827       45.5827      44.393592       0.03826
  42    0.3336        1.1892        0.0000       45.5824       45.5824      44.393245       0.04044
  41    0.4307        1.1892        0.0000       45.5819       45.5819      44.392773       0.04101
  40    0.5894        1.1891        0.0000       45.5811       45.5811      44.391982       0.04206
  39     1.339        1.1891        0.0000       45.5773       45.5773      44.388158       0.04305
  38     1.782        1.1891        0.0000       45.5750       45.5750      44.385922       0.04258
  37     2.292        1.1891        0.0001       45.5724       45.5725      44.383381       0.04207
  36     2.964        1.1891        0.0001       45.5692       45.5692      44.380140       0.04069
  35     3.853        1.1891        0.0001       45.5650       45.5651      44.375997       0.03932
  34     5.035        1.1890        0.0001       45.5595       45.5597      44.370622       0.03840
  33     6.613        1.1890        0.0002       45.5524       45.5526      44.363582       0.03764
  32     8.786        1.1890        0.0002       45.5431       45.5433      44.354342       0.03588
  31     11.80        1.1889        0.0003       45.5302       45.5305      44.341630       0.03559
  30     15.07        1.1888        0.0004       45.5171       45.5175      44.328628       0.03357
  29     18.79        1.1888        0.0005       45.5030       45.5035      44.314754       0.03146
  28     23.16        1.1887        0.0006       45.4875       45.4881      44.299471       0.02955
  27     28.12        1.1886        0.0007       45.4709       45.4716      44.283008       0.02799
  26     33.73        1.1885        0.0009       45.4535       45.4544      44.265904       0.02572
  25     40.54        1.1883        0.0010       45.4341       45.4351      44.246824       0.02367
  24     48.69        1.1882        0.0012       45.4129       45.4141      44.225960       0.02159
  23     57.69        1.1880        0.0015       45.3914       45.3928      44.204821       0.01982
  22     68.43        1.1878        0.0017       45.3675       45.3692      44.181435       0.01838
  21     81.20        1.1876        0.0021       45.3408       45.3428      44.155259       0.01730
  20     96.49        1.1873        0.0025       45.3101       45.3125      44.125235       0.01657
  19     114.6        1.1870        0.0029       45.2744       45.2773      44.090348       0.01629
  18     136.5        1.1866        0.0035       45.2324       45.2358      44.049215       0.01582
  17     162.9        1.1862        0.0041       45.1691       45.1732      43.987084       0.01986
  16     196.4        1.1856        0.0049       45.0344       45.0393      43.853746       0.03356
  15     218.7        1.1852        0.0055       44.8396       44.8450      43.659799       0.07363
  14     243.0        1.1849        0.0060       44.4717       44.4777      43.292877       0.12726
  13     269.0        1.1845        0.0065       43.7909       43.7974      42.612908       0.22058
  12     297.5        1.1842        0.0070       42.7682       42.7752      41.591017       0.30308
  11     328.5        1.1839        0.0075       41.6811       41.6887      40.504801       0.29534
  10     361.9        1.1836        0.0080       40.5428       40.5509      39.367214       0.28782
   9     398.1        1.1835        0.0085       39.2256       39.2341      38.050623       0.30674
   8     437.6        1.1834        0.0089       37.6768       37.6857      36.502284       0.33104
   7     480.5        1.1836        0.0093       36.0014       36.0108      34.827187       0.32898
   6     533.0        1.1841        0.0098       34.0053       34.0151      32.831045       0.32112
   5     589.8        1.1852        0.0102       31.9528       31.9630      30.777762       0.30477
   4     651.6        1.1878        0.0106       29.8577       29.8682      28.680405       0.28682
   3     718.7        1.1929        0.0110       28.0037       28.0147      26.821787       0.23358
   2     792.3        1.2031        0.0115       26.4524       26.4639      25.260882       0.17902
   1     891.5        1.2314        0.0122       24.8448       24.8570      23.625614       0.13915
   0    1013.0        1.3220        0.0128       23.0994       23.1122      21.790196       0.12744



 Wavenumbers:  6150. -  7700. cm-1, ATM      1
 LEVEL PRESSURE   UPWARD FLUX   DIFDOWN FLUX  DIRDOWN FLUX  DOWNWARD FLUX   NET FLUX    HEATING RATE
          mb          W/m2          W/m2          W/m2        W/m2          W/m2       degree/day
  51    .06700        3.1605        0.0000       84.3086       84.3086      81.148107       0.00000
  50    .07753        3.1605        0.0000       84.3085       84.3085      81.148051       0.04553
  49    .09103        3.1605        0.0000       84.3084       84.3084      81.147977       0.04583
  48    0.1069        3.1605        0.0000       84.3083       84.3083      81.147891       0.04615
  47    0.1255        3.1605        0.0000       84.3082       84.3082      81.147788       0.04646
  46    0.1487        3.1605        0.0000       84.3081       84.3081      81.147655       0.04854
  45    0.1794        3.1605        0.0000       84.3079       84.3079      81.147468       0.05129
  44    0.2165        3.1604        0.0000       84.3077       84.3077      81.147241       0.05170
  43    0.2613        3.1604        0.0000       84.3074       84.3074      81.146964       0.05214
  42    0.3336        3.1604        0.0000       84.3069       84.3069      81.146495       0.05477
  41    0.4307        3.1604        0.0000       84.3062       84.3063      81.145859       0.05529
  40    0.5894        3.1604        0.0001       84.3051       84.3052      81.144797       0.05645
  39     1.339        3.1603        0.0001       84.2999       84.3000      81.139683       0.05758
  38     1.782        3.1603        0.0002       84.2968       84.2970      81.136691       0.05696
  37     2.292        3.1602        0.0002       84.2933       84.2935      81.133282       0.05646
  36     2.964        3.1602        0.0003       84.2888       84.2891      81.128909       0.05489
  35     3.853        3.1601        0.0004       84.2830       84.2834      81.123284       0.05339
  34     5.035        3.1600        0.0005       84.2754       84.2759      81.115950       0.05239
  33     6.613        3.1598        0.0007       84.2654       84.2661      81.106302       0.05158
  32     8.786        3.1596        0.0010       84.2522       84.2532      81.093557       0.04950
  31     11.80        3.1593        0.0013       84.2339       84.2351      81.075845       0.04959
  30     15.07        3.1590        0.0016       84.2148       84.2165      81.057495       0.04738
  29     18.79        3.1586        0.0021       84.1942       84.1962      81.037612       0.04508
  28     23.16        3.1582        0.0025       84.1710       84.1735      81.015352       0.04304
  27     28.12        3.1577        0.0031       84.1456       84.1486      80.990962       0.04146
  26     33.73        3.1571        0.0037       84.1186       84.1223      80.965126       0.03885
  25     40.54        3.1565        0.0044       84.0878       84.0922      80.935732       0.03647
  24     48.69        3.1557        0.0053       84.0532       84.0585      80.902812       0.03407
  23     57.69        3.1548        0.0063       84.0173       84.0236      80.868788       0.03189
  22     68.43        3.1537        0.0075       83.9767       83.9842      80.830451       0.03014
  21     81.20        3.1524        0.0088       83.9304       83.9393      80.786809       0.02884
  20     96.49        3.1509        0.0105       83.8767       83.8872      80.736274       0.02789
  19     114.6        3.1491        0.0125       83.8136       83.8261      80.676979       0.02769
  18     136.5        3.1470        0.0148       83.7388       83.7536      80.606569       0.02707
  17     162.9        3.1445        0.0176       83.6305       83.6480      80.503564       0.03292
  16     196.4        3.1412        0.0212       83.4087       83.4299      80.288662       0.05409
  15     218.7        3.1391        0.0235       83.0958       83.1192      79.980144       0.11713
  14     243.0        3.1369        0.0259       82.5353       82.5612      79.424325       0.19278
  13     269.0        3.1346        0.0282       81.6126       81.6408      78.506229       0.29783
  12     297.5        3.1323        0.0305       80.1276       80.1581      77.025763       0.43909
  11     328.5        3.1301        0.0328       78.2771       78.3099      75.179802       0.50191
  10     361.9        3.1281        0.0351       76.2290       76.2641      73.136031       0.51709
   9     398.1        3.1264        0.0374       73.9892       74.0265      70.900171       0.52091
   8     437.6        3.1252        0.0394       71.3975       71.4369      68.311714       0.55343
   7     480.5        3.1249        0.0412       68.4460       68.4872      65.362329       0.57925
   6     533.0        3.1262        0.0431       64.7473       64.7904      61.664189       0.59491
   5     589.8        3.1308        0.0447       60.7535       60.7982      57.667391       0.59326
   4     651.6        3.1425        0.0457       56.3005       56.3463      53.203768       0.61041
   3     718.7        3.1663        0.0465       51.8118       51.8582      48.691933       0.56701
   2     792.3        3.2140        0.0469       47.3873       47.4342      44.220215       0.51286
   1     891.5        3.3442        0.0472       42.2160       42.2632      38.918987       0.45111
   0    1013.0        3.7465        0.0476       37.2681       37.3157      33.569162       0.37147



 Wavenumbers:  7700. -  8050. cm-1, ATM      1
 LEVEL PRESSURE   UPWARD FLUX   DIFDOWN FLUX  DIRDOWN FLUX  DOWNWARD FLUX   NET FLUX    HEATING RATE
          mb          W/m2          W/m2          W/m2        W/m2          W/m2       degree/day
  51    .06700        6.4028        0.0000       19.9246       19.9246      13.521803       0.00000
  50    .07753        6.4028        0.0000       19.9246       19.9246      13.521781       0.01781
  49    .09103        6.4028        0.0000       19.9246       19.9246      13.521753       0.01745
  48    0.1069        6.4028        0.0000       19.9246       19.9246      13.521721       0.01709
  47    0.1255        6.4028        0.0000       19.9245       19.9245      13.521684       0.01672
  46    0.1487        6.4029        0.0000       19.9245       19.9245      13.521638       0.01697
  45    0.1794        6.4029        0.0000       19.9244       19.9244      13.521574       0.01746
  44    0.2165        6.4029        0.0000       19.9244       19.9244      13.521499       0.01713
  43    0.2613        6.4029        0.0000       19.9243       19.9243      13.521410       0.01681
  42    0.3336        6.4029        0.0000       19.9242       19.9242      13.521262       0.01720
  41    0.4307        6.4030        0.0000       19.9240       19.9240      13.521066       0.01701
  40    0.5894        6.4030        0.0000       19.9237       19.9238      13.520747       0.01699
  39     1.339        6.4033        0.0001       19.9225       19.9225      13.519235       0.01702
  38     1.782        6.4035        0.0001       19.9217       19.9218      13.518347       0.01691
  37     2.292        6.4037        0.0001       19.9209       19.9210      13.517318       0.01703
  36     2.964        6.4039        0.0002       19.9197       19.9199      13.515968       0.01695
  35     3.853        6.4043        0.0002       19.9182       19.9185      13.514184       0.01693
  34     5.035        6.4047        0.0003       19.9163       19.9165      13.511812       0.01694
  33     6.613        6.4053        0.0004       19.9136       19.9140      13.508644       0.01694
  32     8.786        6.4061        0.0005       19.9100       19.9105      13.504373       0.01659
  31     11.80        6.4073        0.0007       19.9049       19.9056      13.498261       0.01711
  30     15.07        6.4086        0.0008       19.8994       19.9003      13.491698       0.01695
  29     18.79        6.4100        0.0011       19.8932       19.8943      13.484282       0.01681
  28     23.16        6.4117        0.0013       19.8860       19.8873      13.475620       0.01675
  27     28.12        6.4136        0.0016       19.8777       19.8793      13.465715       0.01684
  26     33.73        6.4158        0.0019       19.8685       19.8704      13.454632       0.01666
  25     40.54        6.4184        0.0023       19.8574       19.8596      13.441247       0.01661
  24     48.69        6.4216        0.0027       19.8439       19.8467      13.425118       0.01669
  23     57.69        6.4251        0.0032       19.8292       19.8325      13.407414       0.01659
  22     68.43        6.4293        0.0038       19.8118       19.8156      13.386349       0.01656
  21     81.20        6.4343        0.0045       19.7911       19.7956      13.361283       0.01656
  20     96.49        6.4404        0.0054       19.7665       19.7719      13.331462       0.01646
  19     114.6        6.4477        0.0064       19.7374       19.7438      13.296125       0.01650
  18     136.5        6.4564        0.0076       19.7032       19.7108      13.254337       0.01607
  17     162.9        6.4670        0.0090       19.6627       19.6717      13.204707       0.01586
  16     196.4        6.4810        0.0109       19.6107       19.6215      13.140543       0.01615
  15     218.7        6.4903        0.0121       19.5767       19.5888      13.098490       0.01597
  14     243.0        6.5006        0.0134       19.5400       19.5534      13.052802       0.01585
  13     269.0        6.5120        0.0148       19.5004       19.5152      13.003238       0.01608
  12     297.5        6.5246        0.0164       19.4577       19.4741      12.949493       0.01594
  11     328.5        6.5385        0.0180       19.4117       19.4297      12.891154       0.01586
  10     361.9        6.5540        0.0198       19.3621       19.3819      12.827903       0.01600
   9     398.1        6.5712        0.0217       19.3086       19.3303      12.759114       0.01603
   8     437.6        6.5905        0.0238       19.2508       19.2746      12.684030       0.01605
   7     480.5        6.6123        0.0260       19.1881       19.2142      12.601901       0.01613
   6     533.0        6.6406        0.0288       19.1097       19.1385      12.497875       0.01673
   5     589.8        6.6737        0.0317       19.0225       19.0542      12.380556       0.01741
   4     651.6        6.7134        0.0349       18.9230       18.9579      12.244492       0.01861
   3     718.7        6.7622        0.0382       18.8075       18.8458      12.083581       0.02022
   2     792.3        6.8244        0.0418       18.6697       18.7115      11.887128       0.02253
   1     891.5        6.9302        0.0465       18.4547       18.5012      11.571055       0.02690
   0    1013.0        7.1008        0.0520       18.1506       18.2026      11.101788       0.03258



 Wavenumbers:  8050. - 12850. cm-1, ATM      1
 LEVEL PRESSURE   UPWARD FLUX   DIFDOWN FLUX  DIRDOWN FLUX  DOWNWARD FLUX   NET FLUX    HEATING RATE
          mb          W/m2          W/m2          W/m2        W/m2          W/m2       degree/day
  51    .06700      147.7147        0.0000      278.9594      278.9594     131.244765       0.00000
  50    .07753      147.7147        0.0000      278.9594      278.9594     131.244765       0.00000
  49    .09103      147.7147        0.0001      278.9593      278.9594     131.244765      -0.00000
  48    0.1069      147.7147        0.0001      278.9593      278.9594     131.244765       0.00000
  47    0.1255      147.7146        0.0002      278.9592      278.9594     131.244765       0.00000
  46    0.1487      147.7146        0.0003      278.9591      278.9594     131.244765       0.00000
  45    0.1794      147.7146        0.0004      278.9590      278.9594     131.244765      -0.00000
  44    0.2165      147.7146        0.0005      278.9588      278.9593     131.244765       0.00000
  43    0.2613      147.7146        0.0006      278.9587      278.9593     131.244765      -0.00000
  42    0.3336      147.7145        0.0009      278.9584      278.9593     131.244765       0.00000
  41    0.4307      147.7145        0.0012      278.9580      278.9592     131.244765      -0.00000
  40    0.5894      147.7144        0.0017      278.9574      278.9591     131.244765       0.00000
  39     1.339      147.7139        0.0042      278.9544      278.9587     131.244765      -0.00000
  38     1.782      147.7136        0.0057      278.9527      278.9584     131.244765      -0.00000
  37     2.292      147.7133        0.0074      278.9507      278.9581     131.244765       0.00000
  36     2.964      147.7129        0.0096      278.9480      278.9577     131.244765       0.00000
  35     3.853      147.7124        0.0126      278.9445      278.9571     131.244765      -0.00000
  34     5.035      147.7116        0.0165      278.9399      278.9564     131.244765       0.00000
  33     6.613      147.7107        0.0218      278.9337      278.9555     131.244765       0.00000
  32     8.786      147.7094        0.0288      278.9253      278.9542     131.244765      -0.00000
  31     11.80      147.7075        0.0389      278.9133      278.9523     131.244765       0.00000
  30     15.07      147.7055        0.0498      278.9005      278.9503     131.244765       0.00000
  29     18.79      147.7033        0.0621      278.8859      278.9480     131.244765       0.00000
  28     23.16      147.7006        0.0765      278.8689      278.9454     131.244765      -0.00000
  27     28.12      147.6976        0.0930      278.8494      278.9424     131.244765       0.00000
  26     33.73      147.6942        0.1115      278.8275      278.9390     131.244765       0.00000
  25     40.54      147.6901        0.1338      278.8011      278.9349     131.244765      -0.00000
  24     48.69      147.6852        0.1608      278.7692      278.9299     131.244765      -0.00000
  23     57.69      147.6797        0.1904      278.7340      278.9245     131.244765       0.00000
  22     68.43      147.6732        0.2258      278.6921      278.9180     131.244765      -0.00000
  21     81.20      147.6654        0.2681      278.6421      278.9102     131.244765      -0.00000
  20     96.49      147.6562        0.3185      278.5824      278.9009     131.244765       0.00000
  19     114.6      147.6454        0.3785      278.5053      278.8839     131.238425       0.00296
  18     136.5      147.6327        0.4498      278.4134      278.8632     131.230553       0.00303
  17     162.9      147.6175        0.5349      278.3000      278.8350     131.217487       0.00418
  16     196.4      147.5979        0.6456      278.1362      278.7818     131.183940       0.00844
  15     218.7      147.5853        0.7185      277.9877      278.7061     131.120787       0.02398
  14     243.0      147.5726        0.7977      277.7429      278.5406     130.968015       0.05299
  13     269.0      147.5609        0.8835      277.3246      278.2081     130.647173       0.10408
  12     297.5      147.5526        0.9760      276.6691      277.6451     130.092464       0.16452
  11     328.5      147.5491        1.0758      275.8369      276.9127     129.363644       0.19816
  10     361.9      147.5534        1.1832      274.8373      276.0205     128.467115       0.22683
   9     398.1      147.5704        1.2983      273.6182      274.9165     127.346132       0.26116
   8     437.6      147.6087        1.4211      272.0675      273.4886     125.879894       0.31349
   7     480.5      147.6782        1.5515      270.1089      271.6604     123.982168       0.37271
   6     533.0      147.8179        1.7100      267.2668      268.9768     121.158905       0.45417
   5     589.8      148.0675        1.8773      263.5763      265.4536     117.386110       0.56001
   4     651.6      148.5445        2.0504      258.5077      260.5581     112.013617       0.73470
   3     718.7      149.4044        2.2282      252.0638      254.2919     104.887523       0.89555
   2     792.3      150.9971        2.4068      244.1134      246.5202      95.523145       1.07399
   1     891.5      155.0330        2.6276      232.3542      234.9818      79.948782       1.32530
   0    1013.0      165.6974        2.8688      218.0021      220.8709      55.173554       1.72027



 Wavenumbers: 12850. - 16000. cm-1, ATM      1
 LEVEL PRESSURE   UPWARD FLUX   DIFDOWN FLUX  DIRDOWN FLUX  DOWNWARD FLUX   NET FLUX    HEATING RATE
          mb          W/m2          W/m2          W/m2        W/m2          W/m2       degree/day
  51    .06700      140.3934        0.0000      174.7927      174.7927      34.399359       0.00000
  50    .07753      140.3934        0.0001      174.7919      174.7920      34.398551       0.64746
  49    .09103      140.3935        0.0002      174.7908      174.7910      34.397529       0.63872
  48    0.1069      140.3935        0.0003      174.7895      174.7899      34.396345       0.63034
  47    0.1255      140.3936        0.0005      174.7881      174.7886      34.394971       0.62271
  46    0.1487      140.3937        0.0007      174.7863      174.7869      34.393218       0.63892
  45    0.1794      140.3939        0.0009      174.7838      174.7847      34.390803       0.66312
  44    0.2165      140.3942        0.0012      174.7809      174.7821      34.387918       0.65632
  43    0.2613      140.3945        0.0016      174.7774      174.7790      34.384466       0.65056
  42    0.3336      140.3952        0.0022      174.7717      174.7739      34.378709       0.67124
  41    0.4307      140.3962        0.0030      174.7643      174.7673      34.371062       0.66494
  40    0.5894      140.3981        0.0043      174.7524      174.7567      34.358554       0.66512
  39     1.339      140.4125        0.0104      174.6987      174.7091      34.296591       0.69760
  38     1.782      140.4248        0.0140      174.6682      174.6821      34.257293       0.74817
  37     2.292      140.4427        0.0181      174.6326      174.6507      34.208048       0.81563
  36     2.964      140.4716        0.0236      174.5848      174.6084      34.136713       0.89546
  35     3.853      140.5176        0.0308      174.5193      174.5500      34.032399       0.98996
  34     5.035      140.5864        0.0403      174.4306      174.4710      33.884553       1.05615
  33     6.613      140.6822        0.0531      174.3139      174.3670      33.684857       1.06757
  32     8.786      140.8071        0.0703      174.1648      174.2351      33.428017       0.99747
  31     11.80      140.9706        0.0949      173.9686      174.0635      33.092874       0.93829
  30     15.07      141.1286        0.1214      173.7755      173.8969      32.768264       0.83808
  29     18.79      141.2912        0.1512      173.5726      173.7239      32.432682       0.76087
  28     23.16      141.4627        0.1861      173.3529      173.5390      32.076256       0.68921
  27     28.12      141.6375        0.2261      173.1215      173.3475      31.709992       0.62262
  26     33.73      141.8026        0.2708      172.8906      173.1614      31.358807       0.52802
  25     40.54      141.9665        0.3249      172.6440      172.9689      31.002358       0.44222
  24     48.69      142.1297        0.3902      172.3786      172.7688      30.639150       0.37586
  23     57.69      142.2755        0.4620      172.1187      172.5807      30.305210       0.31302
  22     68.43      142.4130        0.5478      171.8437      172.3914      29.978410       0.25691
  21     81.20      142.5273        0.6501      171.5634      172.2135      29.686284       0.19303
  20     96.49      142.6175        0.7724      171.2757      172.0480      29.430529       0.14116
  19     114.6      142.7244        0.9196      170.9605      171.8801      29.155711       0.12832
  18     136.5      142.8307        1.0943      170.6106      171.7049      28.874170       0.10826
  17     162.9      142.9386        1.3027      170.2150      171.5177      28.579077       0.09432
  16     196.4      143.0390        1.5734      169.7345      171.3079      28.268933       0.07807
  15     218.7      143.0908        1.7516      169.4279      171.1795      28.088710       0.06842
  14     243.0      143.1411        1.9455      169.0949      171.0404      27.899332       0.06568
  13     269.0      143.1902        2.1559      168.7327      170.8887      27.698474       0.06516
  12     297.5      143.2394        2.3837      168.3355      170.7193      27.479810       0.06485
  11     328.5      143.2930        2.6303      167.8984      170.5287      27.235676       0.06638
  10     361.9      143.3528        2.8963      167.4173      170.3136      26.960765       0.06956
   9     398.1      143.4221        3.1831      166.8870      170.0701      26.648001       0.07287
   8     437.6      143.5067        3.4916      166.2990      169.7906      26.283906       0.07785
   7     480.5      143.6124        3.8230      165.6464      169.4695      25.857019       0.08384
   6     533.0      143.7720        4.2317      164.8054      169.0371      25.265109       0.09522
   5     589.8      143.9987        4.6728      163.8346      168.5074      24.508650       0.11228
   4     651.6      144.3547        5.1465      162.6619      167.8084      23.453629       0.14428
   3     718.7      144.8839        5.6511      161.2653      166.9164      22.032500       0.17860
   2     792.3      145.7217        6.1829      159.5506      165.7335      20.011770       0.23176
   1     891.5      147.5139        6.8816      156.8547      163.7364      16.222483       0.32245
   0    1013.0      151.1051        7.6934      153.1937      160.8871       9.781933       0.44720



 Wavenumbers: 16000. - 22650. cm-1, ATM      1
 LEVEL PRESSURE   UPWARD FLUX   DIFDOWN FLUX  DIRDOWN FLUX  DOWNWARD FLUX   NET FLUX    HEATING RATE
          mb          W/m2          W/m2          W/m2        W/m2          W/m2       degree/day
  51    .06700      252.3156        0.0000      278.6877      278.6877      26.372105       0.00000
  50    .07753      252.3157        0.0005      278.6871      278.6876      26.371905       0.15998
  49    .09103      252.3159        0.0012      278.6864      278.6875      26.371615       0.18146
  48    0.1069      252.3162        0.0019      278.6855      278.6874      26.371226       0.20692
  47    0.1255      252.3165        0.0028      278.6845      278.6873      26.370706       0.23586
  46    0.1487      252.3171        0.0038      278.6831      278.6870      26.369939       0.27949
  45    0.1794      252.3178        0.0053      278.6813      278.6866      26.368740       0.32909
  44    0.2165      252.3189        0.0071      278.6789      278.6860      26.367114       0.36986
  43    0.2613      252.3203        0.0091      278.6761      278.6852      26.364908       0.41581
  42    0.3336      252.3229        0.0126      278.6711      278.6836      26.360714       0.48899
  41    0.4307      252.3269        0.0171      278.6641      278.6813      26.354392       0.54969
  40    0.5894      252.3343        0.0245      278.6521      278.6767      26.342335       0.64121
  39     1.339      252.3883        0.0597      278.5818      278.6415      26.253239       1.00305
  38     1.782      252.4337        0.0803      278.5308      278.6111      26.177324       1.44529
  37     2.292      252.4992        0.1042      278.4625      278.5667      26.067414       1.82041
  36     2.964      252.6050        0.1356      278.3588      278.4943      25.889299       2.23587
  35     3.853      252.7726        0.1770      278.2021      278.3791      25.606534       2.68350
  34     5.035      253.0226        0.2319      277.9750      278.2069      25.184353       3.01588
  33     6.613      253.3706        0.3054      277.6623      277.9677      24.597023       3.13987
  32     8.786      253.8252        0.4043      277.2526      277.6569      23.831688       2.97228
  31     11.80      254.4215        0.5457      276.7071      277.2528      22.831265       2.80087
  30     15.07      254.9988        0.6976      276.1681      276.8657      21.866882       2.48985
  29     18.79      255.5942        0.8691      275.6015      276.4706      20.876405       2.24572
  28     23.16      256.2242        1.0695      274.9881      276.0576      19.833372       2.01689
  27     28.12      256.8681        1.2987      274.3426      275.6413      18.773111       1.80237
  26     33.73      257.4788        1.5554      273.6984      275.2537      17.774899       1.50084
  25     40.54      258.0894        1.8658      273.0096      274.8754      16.786013       1.22682
  24     48.69      258.7016        2.2403      272.2660      274.5063      15.804640       1.01557
  23     57.69      259.2544        2.6521      271.5323      274.1844      14.930006       0.81984
  22     68.43      259.7834        3.1430      270.7474      273.8905      14.107017       0.64698
  21     81.20      260.2364        3.7290      269.9321      273.6611      13.424610       0.45092
  20     96.49      260.6114        4.4282      269.0710      273.4993      12.887862       0.29625
  19     114.6      260.9707        5.2584      268.1081      273.3665      12.395759       0.22978
  18     136.5      261.3384        6.2418      267.0070      273.2488      11.910428       0.18662
  17     162.9      261.7226        7.4119      265.7336      273.1455      11.422876       0.15584
  16     196.4      262.1059        8.9284      264.1604      273.0888      10.982905       0.11075
  15     218.7      262.3148        9.9236      263.1567      273.0803      10.765519       0.08253
  14     243.0      262.5215       11.0044      262.0803      273.0847      10.563155       0.07019
  13     269.0      262.7242       12.1746      260.9290      273.1036      10.379320       0.05964
  12     297.5      262.9228       13.4381      259.6993      273.1374      10.214647       0.04884
  11     328.5      263.1268       14.8019      258.3789      273.1808      10.054017       0.04367
  10     361.9      263.3362       16.2686      256.9653      273.2339       9.897640       0.03957
   9     398.1      263.5525       17.8454      255.4513      273.2967       9.744259       0.03573
   8     437.6      263.7783       19.5366      253.8311      273.3677       9.589367       0.03312
   7     480.5      264.0144       21.3473      252.0996      273.4469       9.432517       0.03080
   6     533.0      264.3008       23.5735      249.9723      273.5458       9.245003       0.03017
   5     589.8      264.6121       25.9703      247.6784      273.6487       9.036604       0.03093
   4     651.6      264.9621       28.5443      245.2012      273.7455       8.783382       0.03463
   3     718.7      265.3646       31.3028      242.5246      273.8274       8.462713       0.04030
   2     792.3      265.8531       34.2483      239.6241      273.8724       8.019357       0.05085
   1     891.5      266.6574       38.2074      235.6303      273.8377       7.180225       0.07141
   0    1013.0      267.8651       42.9352      230.7316      273.6668       5.801736       0.09572



 Wavenumbers: 22650. - 29000. cm-1, ATM      1
 LEVEL PRESSURE   UPWARD FLUX   DIFDOWN FLUX  DIRDOWN FLUX  DOWNWARD FLUX   NET FLUX    HEATING RATE
          mb          W/m2          W/m2          W/m2        W/m2          W/m2       degree/day
  51    .06700      103.5550        0.0000      105.1666      105.1666       1.611626       0.00000
  50    .07753      103.5550        0.0006      105.1660      105.1666       1.611626       0.00000
  49    .09103      103.5551        0.0014      105.1653      105.1667       1.611626      -0.00000
  48    0.1069      103.5552        0.0022      105.1645      105.1668       1.611626       0.00000
  47    0.1255      103.5552        0.0032      105.1636      105.1669       1.611626      -0.00000
  46    0.1487      103.5554        0.0045      105.1625      105.1670       1.611626       0.00000
  45    0.1794      103.5555        0.0063      105.1609      105.1671       1.611626       0.00000
  44    0.2165      103.5557        0.0083      105.1590      105.1673       1.611626       0.00000
  43    0.2613      103.5559        0.0107      105.1568      105.1675       1.611626      -0.00000
  42    0.3336      103.5563        0.0148      105.1531      105.1679       1.611626       0.00000
  41    0.4307      103.5567        0.0201      105.1483      105.1684       1.611626      -0.00000
  40    0.5894      103.5575        0.0288      105.1403      105.1691       1.611626       0.00000
  39     1.339      103.5612        0.0701      105.1027      105.1728       1.611626       0.00000
  38     1.782      103.5633        0.0943      105.0807      105.1750       1.611626      -0.00000
  37     2.292      103.5658        0.1224      105.0551      105.1774       1.611626       0.00000
  36     2.964      103.5691        0.1592      105.0215      105.1807       1.611626       0.00000
  35     3.853      103.5734        0.2078      104.9772      105.1850       1.611626      -0.00000
  34     5.035      103.5791        0.2725      104.9183      105.1908       1.611626       0.00000
  33     6.613      103.5868        0.3588      104.8396      105.1984       1.611626       0.00000
  32     8.786      103.5971        0.4751      104.7336      105.2088       1.611626      -0.00000
  31     11.80      103.6119        0.6415      104.5820      105.2235       1.611626       0.00000
  30     15.07      103.6277        0.8200      104.4194      105.2394       1.611626      -0.00000
  29     18.79      103.6456        1.0215      104.2357      105.2573       1.611626       0.00000
  28     23.16      103.6665        1.2568      104.0214      105.2781       1.611626       0.00000
  27     28.12      103.6903        1.5254      103.7765      105.3019       1.611626       0.00000
  26     33.73      103.7169        1.8257      103.5028      105.3286       1.611626       0.00000
  25     40.54      103.7490        2.1879      103.1728      105.3607       1.611626      -0.00000
  24     48.69      103.7877        2.6235      102.7757      105.3993       1.611626       0.00000
  23     57.69      103.8299        3.1008      102.3408      105.4416       1.611626      -0.00000
  22     68.43      103.8801        3.6674      101.8244      105.4917       1.611626       0.00000
  21     81.20      103.9396        4.3396      101.2116      105.5512       1.611626      -0.00000
  20     96.49      104.0101        5.1366      100.4851      105.6217       1.611626       0.00000
  19     114.6      104.0931        6.0769       99.6279      105.7048       1.611626       0.00000
  18     136.5      104.1908        7.1831       98.6193      105.8024       1.611626      -0.00000
  17     162.9      104.3059        8.4884       97.4291      105.9175       1.611626      -0.00000
  16     196.4      104.4532       10.1617       95.9032      106.0648       1.611626       0.00000
  15     218.7      104.5488       11.2487       94.9118      106.1604       1.611626      -0.00000
  14     243.0      104.6516       12.4197       93.8435      106.2633       1.611626       0.00000
  13     269.0      104.7619       13.6766       92.6969      106.3735       1.611626       0.00000
  12     297.5      104.8796       15.0208       91.4705      106.4912       1.611626      -0.00000
  11     328.5      105.0052       16.4573       90.1596      106.6169       1.611626       0.00000
  10     361.9      105.1387       17.9856       88.7647      106.7503       1.611626       0.00000
   9     398.1      105.2802       19.6094       87.2824      106.8918       1.611626      -0.00000
   8     437.6      105.4297       21.3295       85.7118      107.0414       1.611626       0.00000
   7     480.5      105.5874       23.1465       84.0525      107.1990       1.611626       0.00000
   6     533.0      105.7777       25.3460       82.0433      107.3893       1.611626       0.00000
   5     589.8      105.9783       27.6726       79.9174      107.5899       1.611626      -0.00000
   4     651.6      106.1890       30.1245       77.6761      107.8006       1.611626      -0.00000
   3     718.7      106.4094       32.7000       75.3211      108.0210       1.611626      -0.00000
   2     792.3      106.6388       35.3933       72.8571      108.2505       1.611626       0.00000
   1     891.5      106.9383       38.9284       69.6215      108.5499       1.611626       0.00000
   0    1013.0      107.2820       43.0196       65.8741      108.8936       1.611626      -0.00000



 Wavenumbers: 29000. - 38000. cm-1, ATM      1
 LEVEL PRESSURE   UPWARD FLUX   DIFDOWN FLUX  DIRDOWN FLUX  DOWNWARD FLUX   NET FLUX    HEATING RATE
          mb          W/m2          W/m2          W/m2        W/m2          W/m2       degree/day
  51    .06700       16.2209        0.0000       37.0861       37.0861      20.865166       0.00000
  50    .07753       16.2208        0.0004       37.0818       37.0822      20.861341       3.06514
  49    .09103       16.2207        0.0008       37.0756       37.0765      20.855776       3.47878
  48    0.1069       16.2205        0.0014       37.0675       37.0689      20.848320       3.96866
  47    0.1255       16.2204        0.0020       37.0567       37.0587      20.838341       4.52401
  46    0.1487       16.2202        0.0027       37.0411       37.0438      20.823642       5.35805
  45    0.1794       16.2200        0.0038       37.0169       37.0207      20.800702       6.29756
  44    0.2165       16.2198        0.0050       36.9844       36.9894      20.769687       7.05536
  43    0.2613       16.2196        0.0065       36.9409       36.9474      20.727811       7.89349
  42    0.3336       16.2194        0.0089       36.8594       36.8683      20.648916       9.19829
  41    0.4307       16.2193        0.0121       36.7391       36.7512      20.531903      10.17402
  40    0.5894       16.2195        0.0171       36.5175       36.5346      20.315164      11.52592
  39     1.339       16.2272        0.0394       35.1365       35.1759      18.948744      15.38341
  38     1.782       16.2361        0.0512       34.2300       34.2812      18.045036      17.20514
  37     2.292       16.2503        0.0641       33.2129       33.2770      17.026675      16.86670
  36     2.964       16.2747        0.0801       32.0277       32.1079      15.833129      14.98261
  35     3.853       16.3149        0.1004       30.7557       30.8562      14.541234      12.26033
  34     5.035       16.3762        0.1265       29.4744       29.6009      13.224667       9.40501
  33     6.613       16.4628        0.1604       28.2279       28.3883      11.925500       6.94535
  32     8.786       16.5772        0.2051       27.0487       27.2538      10.676593       4.85030
  31     11.80       16.7296        0.2679       25.8939       26.1618       9.432206       3.48389
  30     15.07       16.8807        0.3344       25.0113       25.3457       8.464963       2.49723
  29     18.79       17.0409        0.4082       24.2485       24.6567       7.615820       1.92527
  28     23.16       17.2162        0.4934       23.5511       24.0446       6.828326       1.52276
  27     28.12       17.4024        0.5898       22.9178       23.5076       6.105196       1.22927
  26     33.73       17.5856        0.6977       22.3648       23.0625       5.476895       0.94467
  25     40.54       17.7751        0.8278       21.8377       22.6655       4.890403       0.72761
  24     48.69       17.9725        0.9842       21.3230       22.3072       4.334686       0.57508
  23     57.69       18.1572        1.1557       20.8577       22.0134       3.856220       0.44849
  22     68.43       18.3395        1.3597       20.3962       21.7559       3.416369       0.34578
  21     81.20       18.4976        1.6039       19.9505       21.5545       3.056841       0.23757
  20     96.49       18.6277        1.8959       19.5089       21.4049       2.777192       0.15435
  19     114.6       18.7524        2.2390       19.0360       21.2750       2.522643       0.11886
  18     136.5       18.8814        2.6378       18.5153       21.1531       2.271620       0.09652
  17     162.9       19.0189        3.1042       17.9354       21.0396       2.020729       0.08019
  16     196.4       19.1528        3.6911       17.2502       20.9414       1.788570       0.05844
  15     218.7       19.2252        4.0721       16.8277       20.8998       1.674640       0.04326
  14     243.0       19.2965        4.4783       16.3858       20.8641       1.567597       0.03713
  13     269.0       19.3653        4.9094       15.9256       20.8350       1.469795       0.03173
  12     297.5       19.4309        5.3652       15.4478       20.8130       1.382065       0.02602
  11     328.5       19.4975        5.8448       14.9493       20.7941       1.296604       0.02324
  10     361.9       19.5648        6.3467       14.4319       20.7786       1.213855       0.02094
   9     398.1       19.6325        6.8707       13.8958       20.7665       1.134008       0.01860
   8     437.6       19.7015        7.4149       13.3423       20.7571       1.055671       0.01675
   7     480.5       19.7710        7.9783       12.7728       20.7510       0.980011       0.01486
   6     533.0       19.8516        8.6441       12.1035       20.7476       0.895980       0.01352
   5     589.8       19.9342        9.3296       11.4176       20.7472       0.812949       0.01232
   4     651.6       20.0190       10.0293       10.7197       20.7490       0.730050       0.01134
   3     718.7       20.1061       10.7401       10.0133       20.7533       0.647265       0.01040
   2     792.3       20.1954       11.4581        9.3021       20.7601       0.564701       0.00947
   1     891.5       20.3112       12.3599        8.4119       20.7718       0.460640       0.00886
   0    1013.0       20.4450       13.3464        7.4416       20.7880       0.343002       0.00817



 Wavenumbers: 38000. - 50000. cm-1, ATM      1
 LEVEL PRESSURE   UPWARD FLUX   DIFDOWN FLUX  DIRDOWN FLUX  DOWNWARD FLUX   NET FLUX    HEATING RATE
          mb          W/m2          W/m2          W/m2        W/m2          W/m2       degree/day
  51    .06700        0.0073        0.0000        2.2874        2.2874       2.280132       0.00000
  50    .07753        0.0073        0.0001        2.2850        2.2851       2.277794       1.87364
  49    .09103        0.0072        0.0002        2.2815        2.2816       2.274455       2.08725
  48    0.1069        0.0071        0.0003        2.2769        2.2772       2.270059       2.33968
  47    0.1255        0.0070        0.0004        2.2709        2.2713       2.264269       2.62486
  46    0.1487        0.0069        0.0005        2.2623        2.2628       2.255868       3.06256
  45    0.1794        0.0068        0.0007        2.2490        2.2497       2.242924       3.55329
  44    0.2165        0.0066        0.0009        2.2313        2.2323       2.225653       3.92890
  43    0.2613        0.0064        0.0011        2.2079        2.2091       2.202646       4.33681
  42    0.3336        0.0061        0.0015        2.1646        2.1661       2.159991       4.97307
  41    0.4307        0.0057        0.0020        2.1017        2.1037       2.097972       5.39246
  40    0.5894        0.0052        0.0027        1.9889        1.9916       1.986375       5.93456
  39     1.339        0.0034        0.0040        1.3685        1.3725       1.369114       6.94924
  38     1.782        0.0027        0.0038        1.0369        1.0408       1.038123       6.30153
  37     2.292        0.0021        0.0034        0.7381        0.7415       0.739395       4.94771
  36     2.964        0.0016        0.0028        0.4835        0.4863       0.484699       3.19720
  35     3.853        0.0012        0.0022        0.3041        0.3063       0.305117       1.70427
  34     5.035        0.0009        0.0018        0.1887        0.1905       0.189552       0.82555
  33     6.613        0.0007        0.0014        0.1159        0.1173       0.116563       0.39020
  32     8.786        0.0005        0.0011        0.0712        0.0723       0.071817       0.17378
  31     11.80        0.0003        0.0008        0.0421        0.0429       0.042599       0.08180
  30     15.07        0.0002        0.0006        0.0264        0.0270       0.026737       0.04095
  29     18.79        0.0002        0.0004        0.0164        0.0169       0.016703       0.02275
  28     23.16        0.0001        0.0003        0.0099        0.0103       0.010140       0.01269
  27     28.12        0.0001        0.0002        0.0059        0.0061       0.006032       0.00698
  26     33.73        0.0000        0.0001        0.0035        0.0036       0.003593       0.00367
  25     40.54        0.0000        0.0001        0.0020        0.0021       0.002055       0.00191
  24     48.69        0.0000        0.0001        0.0011        0.0011       0.001114       0.00097
  23     57.69        0.0000        0.0000        0.0006        0.0006       0.000600       0.00048
  22     68.43        0.0000        0.0000        0.0003        0.0003       0.000303       0.00023
  21     81.20        0.0000        0.0000        0.0001        0.0001       0.000144       0.00011
  20     96.49        0.0000        0.0000        0.0001        0.0001       0.000063       0.00004
  19     114.6        0.0000        0.0000        0.0000        0.0000       0.000024       0.00002
  18     136.5        0.0000        0.0000        0.0000        0.0000       0.000008       0.00001
  17     162.9        0.0000        0.0000        0.0000        0.0000       0.000002       0.00000
  16     196.4        0.0000        0.0000        0.0000        0.0000       0.000000       0.00000
  15     218.7        0.0000        0.0000        0.0000        0.0000       0.000000       0.00000
  14     243.0        0.0000        0.0000        0.0000        0.0000       0.000000       0.00000
  13     269.0        0.0000        0.0000        0.0000        0.0000       0.000000       0.00000
  12     297.5        0.0000        0.0000        0.0000        0.0000       0.000000       0.00000
  11     328.5        0.0000        0.0000        0.0000        0.0000       0.000000       0.00000
  10     361.9        0.0000        0.0000        0.0000        0.0000       0.000000       0.00000
   9     398.1        0.0000        0.0000        0.0000        0.0000       0.000000       0.00000
   8     437.6        0.0000        0.0000        0.0000        0.0000       0.000000       0.00000
   7     480.5        0.0000        0.0000        0.0000        0.0000       0.000000       0.00000
   6     533.0        0.0000        0.0000        0.0000        0.0000       0.000000       0.00000
   5     589.8        0.0000        0.0000        0.0000        0.0000       0.000000       0.00000
   4     651.6        0.0000        0.0000        0.0000        0.0000       0.000000       0.00000
   3     718.7        0.0000        0.0000        0.0000        0.0000       0.000000       0.00000
   2     792.3        0.0000        0.0000        0.0000        0.0000       0.000000       0.00000
   1     891.5        0.0000        0.0000        0.0000        0.0000       0.000000       0.00000
   0    1013.0        0.0000        0.0000        0.0000        0.0000       0.000000       0.00000



 Wavenumbers:   820. -  2600. cm-1, ATM      1
 LEVEL PRESSURE   UPWARD FLUX   DIFDOWN FLUX  DIRDOWN FLUX  DOWNWARD FLUX   NET FLUX    HEATING RATE
          mb          W/m2          W/m2          W/m2        W/m2          W/m2       degree/day
  51    .06700        0.0095        0.0000       10.7004       10.7004      10.690819       0.00000
  50    .07753        0.0095        0.0000       10.6943       10.6943      10.684780       4.84077
  49    .09103        0.0095        0.0000       10.6931       10.6931      10.683547       0.77035
  48    0.1069        0.0095        0.0000       10.6920       10.6920      10.682470       0.57355
  47    0.1255        0.0095        0.0000       10.6908       10.6908      10.681219       0.56709
  46    0.1487        0.0095        0.0000       10.6892       10.6892      10.679628       0.57972
  45    0.1794        0.0095        0.0000       10.6870       10.6870      10.677494       0.58582
  44    0.2165        0.0095        0.0000       10.6846       10.6846      10.675069       0.55173
  43    0.2613        0.0095        0.0000       10.6819       10.6819      10.672361       0.51050
  42    0.3336        0.0095        0.0000       10.6778       10.6778      10.668297       0.47378
  41    0.4307        0.0095        0.0000       10.6731       10.6731      10.663572       0.41085
  40    0.5894        0.0095        0.0000       10.6662       10.6662      10.656696       0.36565
  39     1.339        0.0095        0.0000       10.6358       10.6358      10.626249       0.34277
  38     1.782        0.0095        0.0000       10.6185       10.6185      10.608933       0.32968
  37     2.292        0.0095        0.0000       10.5991       10.5991      10.589524       0.32147
  36     2.964        0.0095        0.0000       10.5743       10.5743      10.564795       0.31042
  35     3.853        0.0095        0.0000       10.5426       10.5426      10.533081       0.30097
  34     5.035        0.0095        0.0000       10.5023       10.5023      10.492758       0.28805
  33     6.613        0.0095        0.0000       10.4516       10.4516      10.442076       0.27095
  32     8.786        0.0095        0.0000       10.3877       10.3877      10.378106       0.24843
  31     11.80        0.0095        0.0000       10.3026       10.3026      10.293094       0.23801
  30     15.07        0.0095        0.0000       10.2204       10.2204      10.210873       0.21228
  29     18.79        0.0095        0.0000       10.1416       10.1416      10.132036       0.17875
  28     23.16        0.0095        0.0000       10.0696       10.0696      10.060027       0.13924
  27     28.12        0.0095        0.0000       10.0099       10.0099      10.000345       0.10146
  26     33.73        0.0095        0.0000        9.9634        9.9634       9.953892       0.06984
  25     40.54        0.0095        0.0000        9.9236        9.9236       9.914013       0.04947
  24     48.69        0.0095        0.0000        9.8858        9.8858       9.876217       0.03911
  23     57.69        0.0095        0.0000        9.8479        9.8479       9.838380       0.03547
  22     68.43        0.0095        0.0000        9.8039        9.8039       9.794332       0.03463
  21     81.20        0.0095        0.0000        9.7524        9.7524       9.742881       0.03400
  20     96.49        0.0095        0.0000        9.6918        9.6918       9.682300       0.03344
  19     114.6        0.0095        0.0000        9.6199        9.6199       9.610408       0.03357
  18     136.5        0.0095        0.0000        9.5353        9.5353       9.525758       0.03255
  17     162.9        0.0095        0.0000        9.4264        9.4264       9.416851       0.03481
  16     196.4        0.0095        0.0000        9.2535        9.2535       9.243961       0.04352
  15     218.7        0.0095        0.0000        9.0860        9.0860       9.076466       0.06359
  14     243.0        0.0095        0.0000        8.8261        8.8262       8.816619       0.09012
  13     269.0        0.0095        0.0000        8.4872        8.4873       8.477734       0.10993
  12     297.5        0.0095        0.0000        8.1220        8.1220       8.112506       0.10832
  11     328.5        0.0096        0.0000        7.8022        7.8022       7.792694       0.08696
  10     361.9        0.0096        0.0000        7.4634        7.4635       7.453893       0.08572
   9     398.1        0.0096        0.0000        7.0657        7.0657       7.056113       0.09267
   8     437.6        0.0096        0.0000        6.6231        6.6231       6.613544       0.09462
   7     480.5        0.0096        0.0000        6.2081        6.2081       6.198474       0.08152
   6     533.0        0.0097        0.0000        5.8369        5.8369       5.827208       0.05972
   5     589.8        0.0098        0.0000        5.5688        5.5688       5.559048       0.03980
   4     651.6        0.0099        0.0000        5.3046        5.3046       5.294751       0.03614
   3     718.7        0.0101        0.0000        4.9832        4.9833       4.973158       0.04042
   2     792.3        0.0105        0.0000        4.5952        4.5952       4.584699       0.04455
   1     891.5        0.0116        0.0000        4.0617        4.0618       4.050170       0.04549
   0    1013.0        0.0144        0.0000        3.4284        3.4285       3.414055       0.04417

  Modules and versions used in this calculation:

       rrtmg_sw.1col.f90:  $Revision$                    rrtmg_sw_init.f90:  $Revision$        
     rrtmgsw_cldprop.f90:  $Revision$                  rrtmgsw_cldprmc.f90:  NOT USED          
     rrtmg_sw_reftra.f90:  $Revision$                  rrtmg_sw_spcvrt.f90:  NOT USED          
     rrtmg_sw_spcvmc.f90:  NOT USED                    rrtmgsw_setcoef.f90:  NOT USED          
     rrtmg_sw_taumol.f90:  $Revision$                  rrtmg_sw_vrtqdr.f90:  NOT USED          
                rrtatm.f:  NOT USED                             util_xxx.f:  NOT USED          
                 extra.f:  NOT USED                       rrtmg_sw_k_g.f90:  $Revision$        

