

 Wavenumbers:   820. - 50000. cm-1, ATM      1
 LEVEL PRESSURE   UPWARD FLUX   DIFDOWN FLUX  DIRDOWN FLUX  DOWNWARD FLUX   NET FLUX    HEATING RATE
          mb          W/m2          W/m2          W/m2        W/m2          W/m2       degree/day
  51    .06700      594.4012        0.0000      978.9129      978.9129     384.511763       0.00000
  50    .07753      594.4011        0.0016      978.8929      978.8945     384.493348      14.76013
  49    .09103      594.4011        0.0036      978.8746      978.8782     384.477117      10.14428
  48    0.1069      594.4010        0.0059      978.8538      978.8597     384.458619       9.84700
  47    0.1255      594.4011        0.0085      978.8287      978.8372     384.436133      10.19388
  46    0.1487      594.4012        0.0118      978.7945      978.8064     384.405156      11.29134
  45    0.1794      594.4015        0.0164      978.7442      978.7606     384.359061      12.65419
  44    0.2165      594.4021        0.0217      978.6795      978.7013     384.299180      13.62206
  43    0.2613      594.4030        0.0281      978.5960      978.6241     384.221079      14.72157
  42    0.3336      594.4050        0.0385      978.4452      978.4837     384.078775      16.59123
  41    0.4307      594.4082        0.0523      978.2299      978.2823     383.874038      17.80145
  40    0.5894      594.4150        0.0746      977.8465      977.9211     383.506113      19.56580
  39     1.339      594.4745        0.1766      975.6649      975.8415     381.366968      24.08288
  38     1.782      594.5288        0.2343      974.3576      974.5919     380.063066      24.82419
  37     2.292      594.6094        0.3000      972.9788      973.2788     378.669390      23.08291
  36     2.964      594.7422        0.3855      971.4458      971.8314     377.089195      19.83622
  35     3.853      594.9552        0.4978      969.8133      970.3111     375.355931      16.44899
  34     5.035      595.2753        0.6462      968.0951      968.7413     373.466014      13.50078
  33     6.613      595.7226        0.8438      966.2838      967.1276     371.405050      11.01792
  32     8.786      596.3075        1.1091      964.3677      965.4768     369.169304       8.68283
  31     11.80      597.0757        1.4874      962.1995      963.6869     366.611268       7.16169
  30     15.07      597.8206        1.8925      960.2817      962.1742     364.353554       5.82898
  29     18.79      598.5910        2.3487      958.4070      960.7558     362.164764       4.96266
  28     23.16      599.4089        2.8802      956.4817      959.3619     359.953011       4.27682
  27     28.12      600.2480        3.4867      954.5298      958.0165     357.768486       3.71354
  26     33.73      601.0453        4.1648      952.6157      956.7805     355.735188       3.05712
  25     40.54      601.8423        4.9832      950.5746      955.5578     353.715518       2.50563
  24     48.69      602.6413        5.9684      948.3660      954.3344     351.693033       2.09296
  23     57.69      603.3609        7.0488      946.1647      953.2135     349.852632       1.72510
  22     68.43      604.0447        8.3331      943.7683      952.1014     348.056730       1.41182
  21     81.20      604.6162        9.8619      941.1917      951.0536     346.437453       1.06999
  20     96.49      605.0686       11.6802      938.3714      950.0515     344.982971       0.80277
  19     114.6      605.5060       13.8292      935.1517      948.9810     343.474922       0.70415
  18     136.5      605.9463       16.3900      931.4592      947.8492     341.902831       0.60451
  17     162.9      606.3912       19.3752      927.1381      946.5133     340.122106       0.56919
  16     196.4      606.8022       23.2115      921.5266      944.7380     337.935868       0.55030
  15     218.7      607.0118       25.7092      917.4507      943.1599     336.148113       0.67874
  14     243.0      607.2134       28.4033      912.4185      940.8217     333.608321       0.88088
  13     269.0      607.4062       31.2987      906.0822      937.3808     329.974644       1.17875
  12     297.5      607.5936       34.3995      898.2914      932.6910     325.097415       1.44653
  11     328.5      607.7917       37.7179      889.7597      927.4776     319.685897       1.47138
  10     361.9      608.0051       41.2536      880.5541      921.8077     313.802568       1.48854
   9     398.1      608.2424       45.0165      870.4166      915.4330     307.190636       1.54043
   8     437.6      608.5202       49.0093      859.0685      908.0778     299.557627       1.63198
   7     480.5      608.8534       53.2352      846.6624      899.8976     291.044202       1.67200
   6     533.0      609.3396       58.3630      831.2587      889.6218     280.282165       1.73127
   5     589.8      610.0162       63.8006      814.3290      878.1296     268.113404       1.80624
   4     651.6      611.0723       69.5430      794.9846      864.5277     253.455379       2.00452
   3     718.7      612.7249       75.5865      773.8805      849.4671     236.742155       2.10039
   2     792.3      615.4901       81.9168      750.8876      832.8044     217.314328       2.22815
   1     891.5      621.9323       90.2276      719.8687      810.0963     188.164046       2.48055
   0    1013.0      637.5128       99.8649      684.0363      783.9012     146.388391       2.90070



 Wavenumbers:  2600. -  3250. cm-1, ATM      1
 LEVEL PRESSURE   UPWARD FLUX   DIFDOWN FLUX  DIRDOWN FLUX  DOWNWARD FLUX   NET FLUX    HEATING RATE
          mb          W/m2          W/m2          W/m2        W/m2          W/m2       degree/day
  51    .06700        1.6788        0.0000        8.6276        8.6276       6.948723       0.00000
  50    .07753        1.6788        0.0000        8.6276        8.6276       6.948715       0.00640
  49    .09103        1.6788        0.0000        8.6275        8.6275       6.948705       0.00627
  48    0.1069        1.6788        0.0000        8.6275        8.6275       6.948693       0.00613
  47    0.1255        1.6788        0.0000        8.6275        8.6275       6.948680       0.00600
  46    0.1487        1.6788        0.0000        8.6275        8.6275       6.948663       0.00608
  45    0.1794        1.6788        0.0000        8.6275        8.6275       6.948640       0.00625
  44    0.2165        1.6788        0.0000        8.6274        8.6274       6.948614       0.00613
  43    0.2613        1.6788        0.0000        8.6274        8.6274       6.948582       0.00601
  42    0.3336        1.6788        0.0000        8.6274        8.6274       6.948529       0.00618
  41    0.4307        1.6788        0.0000        8.6273        8.6273       6.948457       0.00622
  40    0.5894        1.6788        0.0000        8.6272        8.6272       6.948337       0.00639
  39     1.339        1.6788        0.0000        8.6265        8.6265       6.947624       0.00803
  38     1.782        1.6788        0.0000        8.6259        8.6259       6.947072       0.01050
  37     2.292        1.6788        0.0000        8.6252        8.6252       6.946340       0.01213
  36     2.964        1.6788        0.0000        8.6241        8.6241       6.945267       0.01347
  35     3.853        1.6788        0.0000        8.6226        8.6226       6.943718       0.01470
  34     5.035        1.6788        0.0000        8.6204        8.6204       6.941519       0.01571
  33     6.613        1.6788        0.0000        8.6173        8.6173       6.938450       0.01641
  32     8.786        1.6788        0.0000        8.6131        8.6131       6.934263       0.01626
  31     11.80        1.6788        0.0000        8.6072        8.6072       6.928414       0.01637
  30     15.07        1.6788        0.0000        8.6013        8.6013       6.922497       0.01528
  29     18.79        1.6788        0.0000        8.5952        8.5952       6.916392       0.01384
  28     23.16        1.6788        0.0000        8.5888        8.5888       6.909980       0.01240
  27     28.12        1.6788        0.0000        8.5822        8.5822       6.903390       0.01120
  26     33.73        1.6788        0.0000        8.5752        8.5752       6.896330       0.01061
  25     40.54        1.6789        0.0000        8.5666        8.5666       6.887713       0.01069
  24     48.69        1.6789        0.0000        8.5557        8.5557       6.876862       0.01123
  23     57.69        1.6789        0.0000        8.5429        8.5429       6.864016       0.01204
  22     68.43        1.6789        0.0000        8.5263        8.5263       6.847373       0.01308
  21     81.20        1.6790        0.0000        8.5048        8.5049       6.825900       0.01419
  20     96.49        1.6790        0.0000        8.4776        8.4777       6.798635       0.01505
  19     114.6        1.6791        0.0001        8.4430        8.4431       6.763944       0.01620
  18     136.5        1.6793        0.0001        8.4012        8.4013       6.721988       0.01613
  17     162.9        1.6795        0.0001        8.3514        8.3515       6.672016       0.01597
  16     196.4        1.6798        0.0001        8.2879        8.2880       6.608179       0.01607
  15     218.7        1.6802        0.0001        8.2442        8.2443       6.564127       0.01672
  14     243.0        1.6808        0.0001        8.1912        8.1913       6.510484       0.01861
  13     269.0        1.6818        0.0001        8.1252        8.1254       6.443609       0.02169
  12     297.5        1.6832        0.0001        8.0450        8.0451       6.361893       0.02424
  11     328.5        1.6852        0.0001        7.9546        7.9547       6.269581       0.02510
  10     361.9        1.6879        0.0001        7.8524        7.8526       6.164712       0.02653
   9     398.1        1.6915        0.0002        7.7310        7.7312       6.039618       0.02914
   8     437.6        1.6965        0.0002        7.5800        7.5802       5.883610       0.03336
   7     480.5        1.7033        0.0002        7.3899        7.3901       5.686783       0.03866
   6     533.0        1.7142        0.0002        7.1185        7.1187       5.404474       0.04541
   5     589.8        1.7303        0.0002        6.7801        6.7803       5.050018       0.05261
   4     651.6        1.7560        0.0002        6.3658        6.3660       4.609988       0.06018
   3     718.7        1.7962        0.0002        5.9125        5.9127       4.116483       0.06202
   2     792.3        1.8631        0.0002        5.4174        5.4176       3.554549       0.06445
   1     891.5        2.0197        0.0002        4.7285        4.7287       2.709010       0.07195
   0    1013.0        2.4299        0.0002        3.9380        3.9382       1.508320       0.08337



 Wavenumbers:  3250. -  4000. cm-1, ATM      1
 LEVEL PRESSURE   UPWARD FLUX   DIFDOWN FLUX  DIRDOWN FLUX  DOWNWARD FLUX   NET FLUX    HEATING RATE
          mb          W/m2          W/m2          W/m2        W/m2          W/m2       degree/day
  51    .06700        0.0011        0.0000       14.5448       14.5448      14.543687       0.00000
  50    .07753        0.0011        0.0000       14.5394       14.5394      14.538311       4.30869
  49    .09103        0.0011        0.0000       14.5349       14.5349      14.533829       2.80133
  48    0.1069        0.0011        0.0000       14.5314       14.5314      14.530289       1.88427
  47    0.1255        0.0011        0.0000       14.5283       14.5283      14.527230       1.38703
  46    0.1487        0.0011        0.0000       14.5252       14.5252      14.524079       1.14850
  45    0.1794        0.0011        0.0000       14.5215       14.5215      14.520391       1.01247
  44    0.2165        0.0011        0.0000       14.5177       14.5177      14.516555       0.87268
  43    0.2613        0.0011        0.0000       14.5136       14.5136      14.512534       0.75783
  42    0.3336        0.0011        0.0000       14.5079       14.5079      14.506819       0.66631
  41    0.4307        0.0011        0.0000       14.5016       14.5016      14.500486       0.55063
  40    0.5894        0.0011        0.0000       14.4929       14.4929      14.491739       0.46516
  39     1.339        0.0011        0.0000       14.4602       14.4602      14.459104       0.36742
  38     1.782        0.0011        0.0000       14.4449       14.4449      14.443824       0.29091
  37     2.292        0.0011        0.0000       14.4299       14.4299      14.428792       0.24896
  36     2.964        0.0011        0.0000       14.4130       14.4130      14.411852       0.21264
  35     3.853        0.0011        0.0000       14.3934       14.3934      14.392281       0.18574
  34     5.035        0.0011        0.0000       14.3698       14.3698      14.368700       0.16845
  33     6.613        0.0011        0.0000       14.3399       14.3399      14.338766       0.16003
  32     8.786        0.0011        0.0000       14.2993       14.2993      14.298244       0.15737
  31     11.80        0.0011        0.0000       14.2394       14.2394      14.238287       0.16786
  30     15.07        0.0011        0.0000       14.1723       14.1724      14.171256       0.17306
  29     18.79        0.0011        0.0000       14.0941       14.0942      14.093086       0.17724
  28     23.16        0.0011        0.0000       14.0012       14.0012      14.000143       0.17972
  27     28.12        0.0011        0.0000       13.8952       13.8952      13.894124       0.18022
  26     33.73        0.0011        0.0000       13.7802       13.7803      13.779219       0.17276
  25     40.54        0.0011        0.0001       13.6497       13.6497      13.648683       0.16195
  24     48.69        0.0010        0.0001       13.5071       13.5071      13.506096       0.14756
  23     57.69        0.0010        0.0001       13.3665       13.3666      13.365543       0.13175
  22     68.43        0.0010        0.0001       13.2147       13.2148      13.213771       0.11931
  21     81.20        0.0010        0.0001       13.0461       13.0462      13.045158       0.11142
  20     96.49        0.0010        0.0001       12.8522       12.8523      12.851302       0.10699
  19     114.6        0.0010        0.0001       12.6174       12.6175      12.616569       0.10960
  18     136.5        0.0009        0.0002       12.3479       12.3481      12.347137       0.10360
  17     162.9        0.0009        0.0002       12.0268       12.0270      12.026105       0.10261
  16     196.4        0.0009        0.0002       11.5651       11.5653      11.564418       0.11621
  15     218.7        0.0009        0.0002       11.1352       11.1355      11.134618       0.16318
  14     243.0        0.0008        0.0003       10.5408       10.5410      10.540179       0.20617
  13     269.0        0.0008        0.0003        9.7678        9.7681       9.767253       0.25073
  12     297.5        0.0008        0.0003        8.8733        8.8735       8.872748       0.26530
  11     328.5        0.0008        0.0002        7.9887        7.9889       7.988158       0.24052
  10     361.9        0.0008        0.0002        7.1143        7.1145       7.113764       0.22123
   9     398.1        0.0007        0.0002        6.2538        6.2540       6.253279       0.20047
   8     437.6        0.0007        0.0002        5.4352        5.4354       5.434659       0.17503
   7     480.5        0.0007        0.0002        4.6971        4.6973       4.696567       0.14496
   6     533.0        0.0008        0.0002        3.9177        3.9179       3.917117       0.12539
   5     589.8        0.0008        0.0002        3.1747        3.1749       3.174054       0.11029
   4     651.6        0.0009        0.0001        2.4204        2.4206       2.419662       0.10317
   3     718.7        0.0012        0.0001        1.6987        1.6988       1.697589       0.09074
   2     792.3        0.0019        0.0001        1.0538        1.0539       1.051912       0.07405
   1     891.5        0.0059        0.0000        0.4517        0.4517       0.445763       0.05158
   0    1013.0        0.0573        0.0000        0.0929        0.0929       0.035578       0.02848



 Wavenumbers:  4000. -  4650. cm-1, ATM      1
 LEVEL PRESSURE   UPWARD FLUX   DIFDOWN FLUX  DIRDOWN FLUX  DOWNWARD FLUX   NET FLUX    HEATING RATE
          mb          W/m2          W/m2          W/m2        W/m2          W/m2       degree/day
  51    .06700        6.3647        0.0000       17.0800       17.0800      10.715297       0.00000
  50    .07753        6.3647        0.0000       17.0800       17.0800      10.715296       0.00080
  49    .09103        6.3647        0.0000       17.0800       17.0800      10.715294       0.00078
  48    0.1069        6.3647        0.0000       17.0800       17.0800      10.715293       0.00076
  47    0.1255        6.3647        0.0000       17.0800       17.0800      10.715291       0.00075
  46    0.1487        6.3647        0.0000       17.0800       17.0800      10.715289       0.00076
  45    0.1794        6.3647        0.0000       17.0800       17.0800      10.715286       0.00078
  44    0.2165        6.3647        0.0000       17.0800       17.0800      10.715283       0.00076
  43    0.2613        6.3647        0.0000       17.0800       17.0800      10.715279       0.00075
  42    0.3336        6.3647        0.0000       17.0800       17.0800      10.715272       0.00077
  41    0.4307        6.3647        0.0000       17.0800       17.0800      10.715264       0.00077
  40    0.5894        6.3647        0.0000       17.0799       17.0799      10.715249       0.00080
  39     1.339        6.3647        0.0000       17.0798       17.0799      10.715159       0.00101
  38     1.782        6.3647        0.0000       17.0798       17.0798      10.715089       0.00133
  37     2.292        6.3647        0.0000       17.0797       17.0797      10.714995       0.00156
  36     2.964        6.3647        0.0000       17.0795       17.0795      10.714855       0.00176
  35     3.853        6.3647        0.0000       17.0793       17.0793      10.714647       0.00198
  34     5.035        6.3647        0.0000       17.0790       17.0790      10.714339       0.00220
  33     6.613        6.3647        0.0000       17.0785       17.0786      10.713887       0.00242
  32     8.786        6.3647        0.0000       17.0779       17.0779      10.713218       0.00260
  31     11.80        6.3647        0.0001       17.0768       17.0768      10.712165       0.00295
  30     15.07        6.3647        0.0001       17.0755       17.0756      10.710928       0.00319
  29     18.79        6.3647        0.0001       17.0740       17.0741      10.709428       0.00340
  28     23.16        6.3647        0.0001       17.0721       17.0722      10.707562       0.00361
  27     28.12        6.3647        0.0001       17.0698       17.0700      10.705296       0.00385
  26     33.73        6.3647        0.0002       17.0670       17.0672      10.702492       0.00422
  25     40.54        6.3647        0.0002       17.0632       17.0634      10.698674       0.00474
  24     48.69        6.3647        0.0002       17.0581       17.0583      10.693563       0.00529
  23     57.69        6.3648        0.0003       17.0520       17.0522      10.687473       0.00571
  22     68.43        6.3649        0.0003       17.0443       17.0447      10.679802       0.00603
  21     81.20        6.3650        0.0004       17.0349       17.0353      10.670295       0.00628
  20     96.49        6.3651        0.0005       17.0233       17.0238      10.658661       0.00642
  19     114.6        6.3654        0.0006       17.0089       17.0094      10.644020       0.00684
  18     136.5        6.3658        0.0007       16.9914       16.9921      10.626286       0.00682
  17     162.9        6.3664        0.0008       16.9700       16.9708      10.604419       0.00699
  16     196.4        6.3675        0.0010       16.9406       16.9415      10.574053       0.00764
  15     218.7        6.3685        0.0011       16.9180       16.9191      10.550614       0.00890
  14     243.0        6.3700        0.0012       16.8877       16.8889      10.518926       0.01099
  13     269.0        6.3722        0.0013       16.8453       16.8466      10.474405       0.01444
  12     297.5        6.3756        0.0014       16.7877       16.7892      10.413595       0.01804
  11     328.5        6.3802        0.0016       16.7166       16.7182      10.337991       0.02056
  10     361.9        6.3863        0.0017       16.6269       16.6287      10.242360       0.02420
   9     398.1        6.3939        0.0019       16.5094       16.5113      10.117452       0.02910
   8     437.6        6.4034        0.0021       16.3543       16.3564       9.953031       0.03515
   7     480.5        6.4152        0.0023       16.1605       16.1627       9.747526       0.04036
   6     533.0        6.4329        0.0025       15.8957       15.8982       9.465266       0.04541
   5     589.8        6.4576        0.0027       15.5898       15.5925       9.134908       0.04904
   4     651.6        6.4954        0.0029       15.2219       15.2248       8.729406       0.05545
   3     718.7        6.5545        0.0031       14.7640       14.7671       8.212664       0.06494
   2     792.3        6.6528        0.0033       14.1483       14.1516       7.498773       0.08188
   1     891.5        6.8830        0.0035       13.1875       13.1911       6.308037       0.10133
   0    1013.0        7.4626        0.0037       12.0912       12.0949       4.632355       0.11635



 Wavenumbers:  4650. -  5150. cm-1, ATM      1
 LEVEL PRESSURE   UPWARD FLUX   DIFDOWN FLUX  DIRDOWN FLUX  DOWNWARD FLUX   NET FLUX    HEATING RATE
          mb          W/m2          W/m2          W/m2        W/m2          W/m2       degree/day
  51    .06700        4.5709        0.0000       16.1670       16.1670      11.596114       0.00000
  50    .07753        4.5709        0.0000       16.1668       16.1668      11.595878       0.18917
  49    .09103        4.5709        0.0000       16.1665       16.1665      11.595583       0.18479
  48    0.1069        4.5709        0.0000       16.1661       16.1661      11.595244       0.18021
  47    0.1255        4.5709        0.0000       16.1658       16.1658      11.594857       0.17558
  46    0.1487        4.5709        0.0000       16.1653       16.1653      11.594371       0.17723
  45    0.1794        4.5709        0.0000       16.1646       16.1646      11.593711       0.18113
  44    0.2165        4.5709        0.0000       16.1638       16.1638      11.592936       0.17619
  43    0.2613        4.5709        0.0000       16.1629       16.1629      11.592028       0.17118
  42    0.3336        4.5709        0.0000       16.1614       16.1614      11.590547       0.17272
  41    0.4307        4.5709        0.0000       16.1595       16.1595      11.588621       0.16743
  40    0.5894        4.5709        0.0000       16.1565       16.1565      11.585568       0.16235
  39     1.339        4.5709        0.0000       16.1434       16.1434      11.572517       0.14693
  38     1.782        4.5709        0.0000       16.1367       16.1367      11.565819       0.12752
  37     2.292        4.5709        0.0000       16.1297       16.1297      11.558847       0.11548
  36     2.964        4.5709        0.0000       16.1217       16.1217      11.550793       0.10110
  35     3.853        4.5709        0.0000       16.1126       16.1126      11.541744       0.08587
  34     5.035        4.5709        0.0000       16.1028       16.1028      11.531906       0.07028
  33     6.613        4.5709        0.0000       16.0924       16.0924      11.521535       0.05544
  32     8.786        4.5709        0.0001       16.0815       16.0816      11.510684       0.04214
  31     11.80        4.5709        0.0001       16.0692       16.0692      11.498337       0.03457
  30     15.07        4.5709        0.0001       16.0574       16.0575      11.486594       0.03032
  29     18.79        4.5709        0.0001       16.0443       16.0444      11.473447       0.02981
  28     23.16        4.5710        0.0002       16.0281       16.0282      11.457259       0.03130
  27     28.12        4.5710        0.0002       16.0080       16.0082      11.437202       0.03410
  26     33.73        4.5711        0.0002       15.9837       15.9839      11.412788       0.03671
  25     40.54        4.5712        0.0003       15.9517       15.9520      11.380752       0.03974
  24     48.69        4.5714        0.0003       15.9102       15.9105      11.339144       0.04306
  23     57.69        4.5716        0.0004       15.8617       15.8621      11.290528       0.04557
  22     68.43        4.5719        0.0005       15.8013       15.8017      11.229823       0.04772
  21     81.20        4.5723        0.0006       15.7272       15.7278      11.155473       0.04913
  20     96.49        4.5729        0.0007       15.6384       15.6390      11.066087       0.04933
  19     114.6        4.5738        0.0008       15.5345       15.5353      10.961498       0.04884
  18     136.5        4.5749        0.0009       15.4168       15.4178      10.842813       0.04564
  17     162.9        4.5766        0.0011       15.2860       15.2871      10.710503       0.04229
  16     196.4        4.5791        0.0013       15.1317       15.1330      10.553986       0.03940
  15     218.7        4.5811        0.0015       15.0376       15.0391      10.458028       0.03643
  14     243.0        4.5837        0.0016       14.9385       14.9402      10.356501       0.03521
  13     269.0        4.5872        0.0018       14.8311       14.8329      10.245655       0.03596
  12     297.5        4.5922        0.0020       14.7094       14.7114      10.119180       0.03751
  11     328.5        4.5988        0.0022       14.5727       14.5749       9.976049       0.03892
  10     361.9        4.6073        0.0023       14.4168       14.4191       9.811847       0.04154
   9     398.1        4.6183        0.0026       14.2356       14.2382       9.619862       0.04473
   8     437.6        4.6326        0.0028       14.0227       14.0254       9.392827       0.04854
   7     480.5        4.6511        0.0030       13.7720       13.7750       9.123884       0.05282
   6     533.0        4.6792        0.0032       13.4325       13.4358       8.756517       0.05910
   5     589.8        4.7180        0.0035       13.0257       13.0292       8.311147       0.06611
   4     651.6        4.7748        0.0037       12.5281       12.5319       7.757076       0.07577
   3     718.7        4.8588        0.0039       11.9486       11.9526       7.093735       0.08336
   2     792.3        4.9877        0.0042       11.2995       11.3036       6.315906       0.08921
   1     891.5        5.2620        0.0044       10.4298       10.4342       5.172161       0.09733
   0    1013.0        5.8465        0.0046        9.4710        9.4756       3.629173       0.10714



 Wavenumbers:  5150. -  6150. cm-1, ATM      1
 LEVEL PRESSURE   UPWARD FLUX   DIFDOWN FLUX  DIRDOWN FLUX  DOWNWARD FLUX   NET FLUX    HEATING RATE
          mb          W/m2          W/m2          W/m2        W/m2          W/m2       degree/day
  51    .06700       11.1912        0.0000       40.5308       40.5308      29.339617       0.00000
  50    .07753       11.1912        0.0000       40.5307       40.5307      29.339577       0.03161
  49    .09103       11.1912        0.0000       40.5307       40.5307      29.339526       0.03210
  48    0.1069       11.1912        0.0000       40.5306       40.5306      29.339464       0.03261
  47    0.1255       11.1911        0.0000       40.5305       40.5305      29.339391       0.03311
  46    0.1487       11.1911        0.0000       40.5304       40.5304      29.339296       0.03489
  45    0.1794       11.1911        0.0000       40.5303       40.5303      29.339160       0.03714
  44    0.2165       11.1911        0.0000       40.5301       40.5301      29.338995       0.03771
  43    0.2613       11.1911        0.0000       40.5299       40.5299      29.338792       0.03829
  42    0.3336       11.1911        0.0000       40.5296       40.5296      29.338444       0.04048
  41    0.4307       11.1911        0.0000       40.5291       40.5291      29.337972       0.04104
  40    0.5894       11.1911        0.0000       40.5283       40.5283      29.337181       0.04209
  39     1.339       11.1911        0.0000       40.5245       40.5245      29.333356       0.04307
  38     1.782       11.1911        0.0001       40.5222       40.5223      29.331119       0.04258
  37     2.292       11.1911        0.0001       40.5196       40.5197      29.328579       0.04206
  36     2.964       11.1911        0.0001       40.5164       40.5165      29.325340       0.04067
  35     3.853       11.1911        0.0001       40.5122       40.5123      29.321201       0.03927
  34     5.035       11.1911        0.0002       40.5068       40.5070      29.315837       0.03832
  33     6.613       11.1911        0.0002       40.4997       40.5000      29.308818       0.03752
  32     8.786       11.1911        0.0003       40.4905       40.4908      29.299622       0.03572
  31     11.80       11.1912        0.0004       40.4778       40.4782      29.286996       0.03535
  30     15.07       11.1912        0.0005       40.4648       40.4653      29.274114       0.03326
  29     18.79       11.1912        0.0006       40.4510       40.4516      29.260404       0.03108
  28     23.16       11.1913        0.0007       40.4359       40.4366      29.245343       0.02912
  27     28.12       11.1914        0.0009       40.4196       40.4205      29.229165       0.02750
  26     33.73       11.1915        0.0011       40.4028       40.4039      29.212396       0.02521
  25     40.54       11.1916        0.0013       40.3840       40.3853      29.193720       0.02317
  24     48.69       11.1918        0.0016       40.3635       40.3651      29.173265       0.02117
  23     57.69       11.1921        0.0018       40.3428       40.3447      29.152584       0.01938
  22     68.43       11.1925        0.0022       40.3200       40.3222      29.129763       0.01794
  21     81.20       11.1929        0.0026       40.2946       40.2972      29.104244       0.01686
  20     96.49       11.1935        0.0031       40.2655       40.2686      29.075121       0.01607
  19     114.6       11.1942        0.0037       40.2319       40.2355      29.041289       0.01580
  18     136.5       11.1951        0.0044       40.1923       40.1966      29.001508       0.01530
  17     162.9       11.1962        0.0052       40.1332       40.1383      28.942082       0.01899
  16     196.4       11.1978        0.0062       40.0083       40.0145      28.816716       0.03156
  15     218.7       11.1989        0.0069       39.8272       39.8342      28.635298       0.06888
  14     243.0       11.2002        0.0076       39.4756       39.4832      28.282997       0.12219
  13     269.0       11.2018        0.0083       38.8201       38.8284      27.626636       0.21292
  12     297.5       11.2039        0.0090       37.8632       37.8722      26.668303       0.28423
  11     328.5       11.2066        0.0097       36.8665       36.8762      25.669601       0.27154
  10     361.9       11.2100        0.0104       35.8092       35.8197      24.609679       0.26817
   9     398.1       11.2143        0.0111       34.5762       34.5873      23.373061       0.28810
   8     437.6       11.2199        0.0118       33.1458       33.1576      21.937664       0.30690
   7     480.5       11.2273        0.0125       31.6212       31.6337      20.406392       0.30074
   6     533.0       11.2392        0.0132       29.8207       29.8339      18.594726       0.29144
   5     589.8       11.2572        0.0140       27.9963       28.0104      16.753117       0.27336
   4     651.6       11.2882        0.0148       26.1673       26.1821      14.893889       0.25425
   3     718.7       11.3417        0.0157       24.5749       24.5906      13.248900       0.20673
   2     792.3       11.4402        0.0167       23.2493       23.2659      11.825777       0.16322
   1     891.5       11.7008        0.0179       21.8291       21.8470      10.146167       0.14293
   0    1013.0       12.5000        0.0193       20.2400       20.2592       7.759291       0.16573



 Wavenumbers:  6150. -  7700. cm-1, ATM      1
 LEVEL PRESSURE   UPWARD FLUX   DIFDOWN FLUX  DIRDOWN FLUX  DOWNWARD FLUX   NET FLUX    HEATING RATE
          mb          W/m2          W/m2          W/m2        W/m2          W/m2       degree/day
  51    .06700       16.7856        0.0000       74.9632       74.9632      58.177619       0.00000
  50    .07753       16.7856        0.0000       74.9631       74.9632      58.177562       0.04553
  49    .09103       16.7856        0.0000       74.9631       74.9631      58.177489       0.04583
  48    0.1069       16.7856        0.0000       74.9630       74.9630      58.177402       0.04615
  47    0.1255       16.7856        0.0000       74.9629       74.9629      58.177300       0.04646
  46    0.1487       16.7856        0.0000       74.9627       74.9627      58.177167       0.04853
  45    0.1794       16.7856        0.0000       74.9625       74.9626      58.176980       0.05129
  44    0.2165       16.7856        0.0000       74.9623       74.9623      58.176752       0.05170
  43    0.2613       16.7856        0.0000       74.9620       74.9620      58.176476       0.05214
  42    0.3336       16.7856        0.0000       74.9615       74.9616      58.176006       0.05476
  41    0.4307       16.7856        0.0000       74.9609       74.9609      58.175370       0.05528
  40    0.5894       16.7855        0.0001       74.9598       74.9599      58.174309       0.05643
  39     1.339       16.7855        0.0002       74.9545       74.9547      58.169198       0.05754
  38     1.782       16.7855        0.0002       74.9514       74.9517      58.166210       0.05690
  37     2.292       16.7854        0.0003       74.9479       74.9482      58.162806       0.05637
  36     2.964       16.7854        0.0004       74.9434       74.9438      58.158442       0.05478
  35     3.853       16.7853        0.0005       74.9376       74.9381      58.152831       0.05325
  34     5.035       16.7852        0.0006       74.9301       74.9307      58.145522       0.05221
  33     6.613       16.7851        0.0009       74.9201       74.9210      58.135916       0.05136
  32     8.786       16.7849        0.0011       74.9070       74.9081      58.123243       0.04922
  31     11.80       16.7847        0.0015       74.8888       74.8903      58.105662       0.04922
  30     15.07       16.7844        0.0020       74.8699       74.8719      58.087485       0.04693
  29     18.79       16.7841        0.0024       74.8495       74.8520      58.067833       0.04456
  28     23.16       16.7838        0.0030       74.8267       74.8297      58.045883       0.04245
  27     28.12       16.7834        0.0037       74.8016       74.8053      58.021892       0.04078
  26     33.73       16.7830        0.0044       74.7751       74.7795      57.996547       0.03811
  25     40.54       16.7824        0.0053       74.7450       74.7502      57.967791       0.03568
  24     48.69       16.7818        0.0063       74.7112       74.7175      57.935681       0.03323
  23     57.69       16.7811        0.0075       74.6762       74.6837      57.902596       0.03101
  22     68.43       16.7803        0.0089       74.6368       74.6457      57.865428       0.02922
  21     81.20       16.7793        0.0105       74.5920       74.6025      57.823248       0.02787
  20     96.49       16.7781        0.0125       74.5402       74.5527      57.774611       0.02684
  19     114.6       16.7767        0.0148       74.4794       74.4943      57.717569       0.02663
  18     136.5       16.7750        0.0176       74.4075       74.4251      57.650094       0.02595
  17     162.9       16.7731        0.0209       74.3039       74.3249      57.551770       0.03143
  16     196.4       16.7707        0.0252       74.0937       74.1189      57.348206       0.05124
  15     218.7       16.7692        0.0279       73.8010       73.8289      57.059774       0.10951
  14     243.0       16.7677        0.0308       73.2776       73.3084      56.540704       0.18003
  13     269.0       16.7666        0.0337       72.3952       72.4290      55.662385       0.28492
  12     297.5       16.7662        0.0366       70.9735       71.0101      54.243969       0.42069
  11     328.5       16.7666        0.0395       69.2415       69.2810      52.514447       0.47025
  10     361.9       16.7683        0.0425       67.3544       67.3969      50.628586       0.47714
   9     398.1       16.7721        0.0455       65.2833       65.3288      48.556661       0.48271
   8     437.6       16.7792        0.0483       62.8699       62.9182      46.138941       0.51692
   7     480.5       16.7910        0.0510       60.1446       60.1956      43.404542       0.53703
   6     533.0       16.8138        0.0539       56.7748       56.8287      40.014902       0.54529
   5     589.8       16.8539        0.0566       53.1680       53.2247      36.370775       0.54091
   4     651.6       16.9302        0.0589       49.1847       49.2436      32.313450       0.55485
   3     718.7       17.0688        0.0609       45.2007       45.2616      28.192763       0.51786
   2     792.3       17.3293        0.0626       41.2879       41.3505      24.021265       0.47842
   1     891.5       18.0111        0.0647       36.7266       36.7913      18.780155       0.44599
   0    1013.0       20.0198        0.0670       32.3800       32.4470      12.427208       0.44112



 Wavenumbers:  7700. -  8050. cm-1, ATM      1
 LEVEL PRESSURE   UPWARD FLUX   DIFDOWN FLUX  DIRDOWN FLUX  DOWNWARD FLUX   NET FLUX    HEATING RATE
          mb          W/m2          W/m2          W/m2        W/m2          W/m2       degree/day
  51    .06700        8.9255        0.0000       17.7160       17.7160       8.790559       0.00000
  50    .07753        8.9255        0.0000       17.7160       17.7160       8.790535       0.01916
  49    .09103        8.9255        0.0000       17.7160       17.7160       8.790505       0.01878
  48    0.1069        8.9255        0.0000       17.7160       17.7160       8.790471       0.01838
  47    0.1255        8.9255        0.0000       17.7159       17.7159       8.790431       0.01799
  46    0.1487        8.9255        0.0000       17.7159       17.7159       8.790381       0.01826
  45    0.1794        8.9255        0.0000       17.7158       17.7159       8.790313       0.01879
  44    0.2165        8.9256        0.0000       17.7158       17.7158       8.790232       0.01843
  43    0.2613        8.9256        0.0000       17.7157       17.7157       8.790136       0.01808
  42    0.3336        8.9256        0.0000       17.7156       17.7156       8.789977       0.01850
  41    0.4307        8.9257        0.0000       17.7154       17.7154       8.789766       0.01830
  40    0.5894        8.9258        0.0000       17.7152       17.7152       8.789423       0.01828
  39     1.339        8.9262        0.0001       17.7139       17.7140       8.787796       0.01832
  38     1.782        8.9264        0.0001       17.7131       17.7132       8.786840       0.01820
  37     2.292        8.9267        0.0001       17.7123       17.7124       8.785733       0.01833
  36     2.964        8.9270        0.0002       17.7111       17.7113       8.784280       0.01824
  35     3.853        8.9275        0.0002       17.7097       17.7099       8.782360       0.01822
  34     5.035        8.9282        0.0003       17.7077       17.7080       8.779809       0.01823
  33     6.613        8.9290        0.0004       17.7050       17.7054       8.776399       0.01823
  32     8.786        8.9302        0.0005       17.7014       17.7020       8.771803       0.01785
  31     11.80        8.9318        0.0007       17.6963       17.6971       8.765227       0.01841
  30     15.07        8.9336        0.0009       17.6909       17.6918       8.758164       0.01823
  29     18.79        8.9357        0.0012       17.6847       17.6858       8.750184       0.01809
  28     23.16        8.9380        0.0014       17.6774       17.6789       8.740862       0.01802
  27     28.12        8.9407        0.0018       17.6692       17.6709       8.730202       0.01812
  26     33.73        8.9438        0.0021       17.6600       17.6621       8.718275       0.01793
  25     40.54        8.9475        0.0025       17.6488       17.6514       8.703868       0.01787
  24     48.69        8.9520        0.0030       17.6355       17.6385       8.686508       0.01797
  23     57.69        8.9570        0.0036       17.6208       17.6244       8.667450       0.01786
  22     68.43        8.9629        0.0043       17.6034       17.6077       8.644772       0.01783
  21     81.20        8.9701        0.0050       17.5828       17.5878       8.617783       0.01783
  20     96.49        8.9786        0.0060       17.5583       17.5643       8.585670       0.01772
  19     114.6        8.9890        0.0071       17.5294       17.5366       8.547607       0.01777
  18     136.5        9.0013        0.0084       17.4955       17.5039       8.502584       0.01731
  17     162.9        9.0162        0.0100       17.4553       17.4653       8.449092       0.01710
  16     196.4        9.0359        0.0121       17.4038       17.4158       8.379899       0.01742
  15     218.7        9.0491        0.0134       17.3702       17.3836       8.334525       0.01723
  14     243.0        9.0636        0.0149       17.3339       17.3488       8.285204       0.01711
  13     269.0        9.0797        0.0165       17.2948       17.3113       8.231668       0.01737
  12     297.5        9.0974        0.0182       17.2528       17.2709       8.173571       0.01723
  11     328.5        9.1170        0.0200       17.2074       17.2274       8.110452       0.01716
  10     361.9        9.1387        0.0220       17.1586       17.1807       8.041946       0.01733
   9     398.1        9.1629        0.0242       17.1061       17.1303       7.967347       0.01738
   8     437.6        9.1900        0.0265       17.0493       17.0758       7.885790       0.01744
   7     480.5        9.2205        0.0290       16.9879       17.0169       7.796438       0.01755
   6     533.0        9.2601        0.0320       16.9112       16.9432       7.683054       0.01824
   5     589.8        9.3064        0.0353       16.8259       16.8612       7.554885       0.01902
   4     651.6        9.3618        0.0388       16.7288       16.7677       7.405893       0.02038
   3     718.7        9.4297        0.0426       16.6164       16.6590       7.229299       0.02219
   2     792.3        9.5159        0.0466       16.4822       16.5288       7.012948       0.02481
   1     891.5        9.6617        0.0519       16.2737       16.3255       6.663862       0.02971
   0    1013.0        9.8955        0.0580       15.9800       16.0380       6.142571       0.03620



 Wavenumbers:  8050. - 12850. cm-1, ATM      1
 LEVEL PRESSURE   UPWARD FLUX   DIFDOWN FLUX  DIRDOWN FLUX  DOWNWARD FLUX   NET FLUX    HEATING RATE
          mb          W/m2          W/m2          W/m2        W/m2          W/m2       degree/day
  51    .06700      107.6043        0.0000      248.0376      248.0376     140.433328       0.00000
  50    .07753      107.6043        0.0000      248.0376      248.0376     140.433328       0.00000
  49    .09103      107.6042        0.0001      248.0375      248.0376     140.433328      -0.00000
  48    0.1069      107.6042        0.0001      248.0374      248.0376     140.433328      -0.00000
  47    0.1255      107.6042        0.0002      248.0374      248.0375     140.433328       0.00000
  46    0.1487      107.6042        0.0002      248.0373      248.0375     140.433328       0.00000
  45    0.1794      107.6042        0.0003      248.0371      248.0375     140.433328       0.00000
  44    0.2165      107.6041        0.0004      248.0370      248.0374     140.433328      -0.00000
  43    0.2613      107.6041        0.0006      248.0368      248.0374     140.433328       0.00000
  42    0.3336      107.6040        0.0008      248.0365      248.0373     140.433328       0.00000
  41    0.4307      107.6039        0.0011      248.0362      248.0372     140.433328      -0.00000
  40    0.5894      107.6038        0.0016      248.0355      248.0371     140.433328       0.00000
  39     1.339      107.6030        0.0038      248.0326      248.0363     140.433328      -0.00000
  38     1.782      107.6026        0.0051      248.0308      248.0359     140.433328       0.00000
  37     2.292      107.6021        0.0066      248.0288      248.0354     140.433328       0.00000
  36     2.964      107.6014        0.0086      248.0262      248.0348     140.433328       0.00000
  35     3.853      107.6006        0.0112      248.0227      248.0339     140.433328       0.00000
  34     5.035      107.5994        0.0147      248.0180      248.0327     140.433328       0.00000
  33     6.613      107.5979        0.0193      248.0118      248.0312     140.433328      -0.00000
  32     8.786      107.5958        0.0256      248.0035      248.0291     140.433328       0.00000
  31     11.80      107.5928        0.0346      247.9915      248.0261     140.433328      -0.00000
  30     15.07      107.5896        0.0443      247.9786      248.0229     140.433328       0.00000
  29     18.79      107.5860        0.0553      247.9641      248.0193     140.433328       0.00000
  28     23.16      107.5818        0.0681      247.9470      248.0151     140.433328      -0.00000
  27     28.12      107.5769        0.0827      247.9275      248.0102     140.433328       0.00000
  26     33.73      107.5715        0.0991      247.9057      248.0048     140.433328      -0.00000
  25     40.54      107.5649        0.1190      247.8792      247.9982     140.433328       0.00000
  24     48.69      107.5570        0.1430      247.8473      247.9903     140.433328       0.00000
  23     57.69      107.5482        0.1693      247.8122      247.9816     140.433328       0.00000
  22     68.43      107.5378        0.2008      247.7703      247.9711     140.433328       0.00000
  21     81.20      107.5254        0.2384      247.7203      247.9587     140.433328       0.00000
  20     96.49      107.5105        0.2832      247.6606      247.9438     140.433328      -0.00000
  19     114.6      107.4930        0.3366      247.5835      247.9201     140.427072       0.00292
  18     136.5      107.4723        0.3999      247.4916      247.8916     140.419300       0.00299
  17     162.9      107.4475        0.4756      247.3783      247.8539     140.406379       0.00413
  16     196.4      107.4154        0.5740      247.2146      247.7885     140.373128       0.00837
  15     218.7      107.3945        0.6387      247.0663      247.7050     140.310484       0.02378
  14     243.0      107.3725        0.7091      246.8229      247.5320     140.159525       0.05236
  13     269.0      107.3500        0.7852      246.4104      247.1956     139.845560       0.10185
  12     297.5      107.3288        0.8672      245.7722      246.6395     139.310698       0.15863
  11     328.5      107.3097        0.9558      244.9726      245.9283     138.618639       0.18817
  10     361.9      107.2948        1.0509      244.0177      245.0685     137.773681       0.21378
   9     398.1      107.2875        1.1527      242.8483      244.0010     136.713462       0.24701
   8     437.6      107.2937        1.2611      241.3537      242.6148     135.321114       0.29769
   7     480.5      107.3204        1.3761      239.4695      240.8456     133.525215       0.35271
   6     533.0      107.3911        1.5154      236.7498      238.2653     130.874213       0.42646
   5     589.8      107.5367        1.6620      233.2356      234.8976     127.360957       0.52148
   4     651.6      107.8390        1.8127      228.4394      230.2522     122.413128       0.67663
   3     718.7      108.4062        1.9667      222.4070      224.3737     115.967536       0.81003
   2     792.3      109.4796        2.1202      215.0298      217.1499     107.670316       0.95160
   1     891.5      112.2225        2.3079      204.1552      206.4631      94.240579       1.14281
   0    1013.0      119.3838        2.5107      190.9800      193.4907      74.106933       1.39798



 Wavenumbers: 12850. - 16000. cm-1, ATM      1
 LEVEL PRESSURE   UPWARD FLUX   DIFDOWN FLUX  DIRDOWN FLUX  DOWNWARD FLUX   NET FLUX    HEATING RATE
          mb          W/m2          W/m2          W/m2        W/m2          W/m2       degree/day
  51    .06700      107.1804        0.0000      155.4175      155.4175      48.237064       0.00000
  50    .07753      107.1804        0.0001      155.4166      155.4167      48.236264       0.64102
  49    .09103      107.1804        0.0002      155.4155      155.4157      48.235254       0.63100
  48    0.1069      107.1805        0.0003      155.4143      155.4146      48.234087       0.62113
  47    0.1255      107.1805        0.0004      155.4128      155.4133      48.232738       0.61184
  46    0.1487      107.1806        0.0006      155.4110      155.4116      48.231021       0.62566
  45    0.1794      107.1807        0.0008      155.4085      155.4094      48.228665       0.64698
  44    0.2165      107.1809        0.0011      155.4056      155.4067      48.225862       0.63763
  43    0.2613      107.1811        0.0014      155.4022      155.4036      48.222525       0.62902
  42    0.3336      107.1815        0.0019      155.3966      155.3985      48.216991       0.64514
  41    0.4307      107.1822        0.0026      155.3893      155.3919      48.209694       0.63448
  40    0.5894      107.1835        0.0038      155.3776      155.3814      48.197866       0.62897
  39     1.339      107.1937        0.0092      155.3255      155.3347      48.140951       0.64076
  38     1.782      107.2026        0.0123      155.2960      155.3084      48.105733       0.67050
  37     2.292      107.2157        0.0160      155.2618      155.2778      48.062100       0.72267
  36     2.964      107.2371        0.0208      155.2156      155.2364      47.999341       0.78781
  35     3.853      107.2712        0.0272      155.1519      155.1791      47.907893       0.86786
  34     5.035      107.3224        0.0357      155.0651      155.1007      47.778358       0.92534
  33     6.613      107.3937        0.0470      154.9499      154.9969      47.603181       0.93650
  32     8.786      107.4867        0.0622      154.8019      154.8641      47.377442       0.87669
  31     11.80      107.6081        0.0839      154.6066      154.6905      47.082381       0.82608
  30     15.07      107.7251        0.1073      154.4141      154.5214      46.796340       0.73850
  29     18.79      107.8451        0.1337      154.2121      154.3457      46.500567       0.67061
  28     23.16      107.9714        0.1645      153.9933      154.1578      46.186379       0.60754
  27     28.12      108.0996        0.1997      153.7633      153.9630      45.863445       0.54897
  26     33.73      108.2197        0.2392      153.5343      153.7735      45.553760       0.46562
  25     40.54      108.3378        0.2869      153.2902      153.5771      45.239217       0.39023
  24     48.69      108.4541        0.3445      153.0284      153.3729      44.918868       0.33151
  23     57.69      108.5563        0.4078      152.7728      153.1807      44.624350       0.27607
  22     68.43      108.6505        0.4834      152.5035      152.9869      44.336352       0.22641
  21     81.20      108.7251        0.5735      152.2306      152.8041      44.079038       0.17003
  20     96.49      108.7789        0.6812      151.9516      152.6328      43.853857       0.12428
  19     114.6      108.8430        0.8106      151.6465      152.4571      43.614071       0.11196
  18     136.5      108.9033        0.9642      151.3072      152.2714      43.368034       0.09461
  17     162.9      108.9608        1.1472      150.9222      152.0694      43.108586       0.08293
  16     196.4      109.0050        1.3849      150.4521      151.8371      42.832069       0.06960
  15     218.7      109.0232        1.5413      150.1511      151.6924      42.669239       0.06182
  14     243.0      109.0383        1.7114      149.8238      151.5352      42.496919       0.05977
  13     269.0      109.0503        1.8959      149.4674      151.3632      42.312898       0.05970
  12     297.5      109.0603        2.0955      149.0771      151.1725      42.112252       0.05951
  11     328.5      109.0711        2.3114      148.6481      150.9595      41.888386       0.06087
  10     361.9      109.0841        2.5442      148.1770      150.7212      41.637101       0.06358
   9     398.1      109.1015        2.7951      147.6588      150.4539      41.352410       0.06633
   8     437.6      109.1274        3.0648      147.0851      150.1499      41.022544       0.07053
   7     480.5      109.1659        3.3542      146.4496      149.8038      40.637878       0.07555
   6     533.0      109.2346        3.7106      145.6316      149.3423      40.107716       0.08529
   5     589.8      109.3485        4.0949      144.6885      148.7835      39.434998       0.09985
   4     651.6      109.5529        4.5068      143.5506      148.0574      38.504516       0.12725
   3     718.7      109.8793        4.9449      142.1982      147.1431      37.263768       0.15593
   2     792.3      110.4264        5.4053      140.5420      145.9473      35.520925       0.19988
   1     891.5      111.6440        6.0084      137.9514      143.9598      32.315809       0.27274
   0    1013.0      114.1332        6.7057      134.4608      141.1665      27.033393       0.36679



 Wavenumbers: 16000. - 22650. cm-1, ATM      1
 LEVEL PRESSURE   UPWARD FLUX   DIFDOWN FLUX  DIRDOWN FLUX  DOWNWARD FLUX   NET FLUX    HEATING RATE
          mb          W/m2          W/m2          W/m2        W/m2          W/m2       degree/day
  51    .06700      223.2957        0.0000      247.7960      247.7960      24.500286       0.00000
  50    .07753      223.2958        0.0005      247.7954      247.7959      24.500100       0.14908
  49    .09103      223.2959        0.0011      247.7947      247.7957      24.499830       0.16909
  48    0.1069      223.2961        0.0018      247.7938      247.7956      24.499467       0.19282
  47    0.1255      223.2964        0.0026      247.7928      247.7954      24.498983       0.21979
  46    0.1487      223.2968        0.0036      247.7914      247.7950      24.498268       0.26045
  45    0.1794      223.2974        0.0050      247.7895      247.7945      24.497151       0.30666
  44    0.2165      223.2982        0.0066      247.7872      247.7938      24.495636       0.34466
  43    0.2613      223.2993        0.0086      247.7843      247.7929      24.493580       0.38748
  42    0.3336      223.3015        0.0118      247.7793      247.7912      24.489672       0.45567
  41    0.4307      223.3047        0.0161      247.7724      247.7885      24.483781       0.51224
  40    0.5894      223.3109        0.0231      247.7604      247.7835      24.472545       0.59751
  39     1.339      223.3567        0.0561      247.6901      247.7462      24.389523       0.93468
  38     1.782      223.3957        0.0755      247.6390      247.7145      24.318785       1.34672
  37     2.292      223.4523        0.0979      247.5707      247.6686      24.216374       1.69620
  36     2.964      223.5440        0.1274      247.4671      247.5944      24.050421       2.08321
  35     3.853      223.6898        0.1663      247.3105      247.4767      23.786984       2.50006
  34     5.035      223.9076        0.2179      247.0834      247.3013      23.393711       2.80938
  33     6.613      224.2110        0.2869      246.7709      247.0577      22.846691       2.92437
  32     8.786      224.6072        0.3798      246.3615      246.7412      22.134050       2.76764
  31     11.80      225.1262        0.5126      245.8164      246.3290      21.202792       2.60723
  30     15.07      225.6279        0.6551      245.2781      245.9332      20.305389       2.31692
  29     18.79      226.1445        0.8161      244.7124      245.5285      19.384021       2.08902
  28     23.16      226.6901        1.0041      244.1000      245.1042      18.414115       1.87548
  27     28.12      227.2464        1.2191      243.4559      244.6750      17.428564       1.67537
  26     33.73      227.7720        1.4598      242.8132      244.2730      16.501042       1.39455
  25     40.54      228.2946        1.7508      242.1263      243.8771      15.582536       1.13951
  24     48.69      228.8153        2.1018      241.3849      243.4867      14.671368       0.94292
  23     57.69      229.2816        2.4876      240.6537      243.1412      13.859622       0.76089
  22     68.43      229.7228        2.9474      239.8715      242.8189      13.096102       0.60023
  21     81.20      230.0919        3.4959      239.0593      242.5552      12.463249       0.41818
  20     96.49      230.3864        4.1502      238.2018      242.3520      11.965663       0.27463
  19     114.6      230.6603        4.9267      237.2432      242.1698      11.509551       0.21297
  18     136.5      230.9336        5.8460      236.1475      241.9935      11.059900       0.17290
  17     162.9      231.2119        6.9391      234.8811      241.8203      10.608401       0.14432
  16     196.4      231.4713        8.3549      233.3176      241.6725      10.201184       0.10250
  15     218.7      231.6040        9.2833      232.3207      241.6040      10.000077       0.07635
  14     243.0      231.7303       10.2911      231.2522      241.5432       9.812938       0.06491
  13     269.0      231.8484       11.3815      230.1099      241.4914       9.642998       0.05513
  12     297.5      231.9580       12.5581      228.8907      241.4489       9.490831       0.04513
  11     328.5      232.0672       13.8273      227.5823      241.4097       9.342462       0.04034
  10     361.9      232.1758       15.1913      226.1827      241.3739       9.198085       0.03653
   9     398.1      232.2846       16.6563      224.6848      241.3412       9.056540       0.03298
   8     437.6      232.3959       18.2264      223.0832      241.3096       8.913669       0.03055
   7     480.5      232.5099       19.9058      221.3731      241.2789       8.769071       0.02840
   6     533.0      232.6464       21.9684      219.2743      241.2427       8.596319       0.02779
   5     589.8      232.7957       24.1863      217.0139      241.2002       8.404490       0.02847
   4     651.6      232.9692       26.5648      214.5760      241.1409       8.171669       0.03184
   3     718.7      233.1787       29.1101      211.9458      241.0560       7.877315       0.03699
   2     792.3      233.4526       31.8236      209.1002      240.9238       7.471265       0.04657
   1     891.5      233.9480       35.4633      205.1896      240.6529       6.704913       0.06521
   0    1013.0      234.7518       39.7981      200.4063      240.2045       5.452641       0.08695



 Wavenumbers: 22650. - 29000. cm-1, ATM      1
 LEVEL PRESSURE   UPWARD FLUX   DIFDOWN FLUX  DIRDOWN FLUX  DOWNWARD FLUX   NET FLUX    HEATING RATE
          mb          W/m2          W/m2          W/m2        W/m2          W/m2       degree/day
  51    .06700       91.3664        0.0000       93.5092       93.5092       2.142798       0.00000
  50    .07753       91.3664        0.0006       93.5086       93.5092       2.142798       0.00000
  49    .09103       91.3664        0.0013       93.5079       93.5092       2.142798      -0.00000
  48    0.1069       91.3664        0.0021       93.5071       93.5092       2.142798       0.00000
  47    0.1255       91.3665        0.0030       93.5062       93.5093       2.142798       0.00000
  46    0.1487       91.3665        0.0042       93.5051       93.5093       2.142798       0.00000
  45    0.1794       91.3665        0.0058       93.5035       93.5093       2.142798      -0.00000
  44    0.2165       91.3666        0.0078       93.5016       93.5094       2.142798      -0.00000
  43    0.2613       91.3666        0.0100       93.4994       93.5094       2.142798       0.00000
  42    0.3336       91.3667        0.0138       93.4957       93.5095       2.142798      -0.00000
  41    0.4307       91.3669        0.0188       93.4909       93.5097       2.142798       0.00000
  40    0.5894       91.3671        0.0270       93.4829       93.5099       2.142798       0.00000
  39     1.339       91.3681        0.0656       93.4453       93.5109       2.142798      -0.00000
  38     1.782       91.3687        0.0883       93.4232       93.5115       2.142798       0.00000
  37     2.292       91.3694        0.1145       93.3977       93.5122       2.142798       0.00000
  36     2.964       91.3703        0.1490       93.3641       93.5131       2.142798       0.00000
  35     3.853       91.3715        0.1945       93.3198       93.5143       2.142798      -0.00000
  34     5.035       91.3731        0.2550       93.2609       93.5159       2.142798      -0.00000
  33     6.613       91.3752        0.3357       93.1823       93.5180       2.142798       0.00000
  32     8.786       91.3781        0.4446       93.0763       93.5209       2.142798       0.00000
  31     11.80       91.3822        0.6002       92.9249       93.5250       2.142798      -0.00000
  30     15.07       91.3866        0.7671       92.7623       93.5294       2.142798       0.00000
  29     18.79       91.3916        0.9555       92.5789       93.5344       2.142798      -0.00000
  28     23.16       91.3973        1.1753       92.3648       93.5401       2.142798       0.00000
  27     28.12       91.4039        1.4264       92.1203       93.5467       2.142798      -0.00000
  26     33.73       91.4113        1.7068       91.8472       93.5541       2.142798       0.00000
  25     40.54       91.4201        2.0450       91.5179       93.5629       2.142798      -0.00000
  24     48.69       91.4307        2.4515       91.1220       93.5735       2.142798       0.00000
  23     57.69       91.4423        2.8966       90.6885       93.5851       2.142798      -0.00000
  22     68.43       91.4561        3.4246       90.1742       93.5989       2.142798      -0.00000
  21     81.20       91.4723        4.0507       89.5644       93.6151       2.142798       0.00000
  20     96.49       91.4914        4.7922       88.8420       93.6342       2.142798       0.00000
  19     114.6       91.5138        5.6661       87.9905       93.6566       2.142798      -0.00000
  18     136.5       91.5401        6.6929       86.9900       93.6829       2.142798      -0.00000
  17     162.9       91.5707        7.9025       85.8111       93.7135       2.142798       0.00000
  16     196.4       91.6097        9.4500       84.3024       93.7525       2.142798      -0.00000
  15     218.7       91.6347       10.4535       83.3239       93.7775       2.142798      -0.00000
  14     243.0       91.6614       11.5330       82.2712       93.8042       2.142798       0.00000
  13     269.0       91.6898       12.6896       81.1430       93.8326       2.142798       0.00000
  12     297.5       91.7199       13.9244       79.9383       93.8627       2.142798      -0.00000
  11     328.5       91.7516       15.2414       78.6530       93.8944       2.142798      -0.00000
  10     361.9       91.7850       16.6396       77.2882       93.9278       2.142798       0.00000
   9     398.1       91.8199       18.1218       75.8409       93.9627       2.142798       0.00000
   8     437.6       91.8563       19.6881       74.3110       93.9991       2.142798      -0.00000
   7     480.5       91.8941       21.3382       72.6987       94.0369       2.142798       0.00000
   6     533.0       91.9389       23.3296       70.7521       94.0817       2.142798       0.00000
   5     589.8       91.9850       25.4285       68.6993       94.1278       2.142798       0.00000
   4     651.6       92.0323       27.6322       66.5429       94.1751       2.142798       0.00000
   3     718.7       92.0803       29.9373       64.2858       94.2230       2.142798       0.00000
   2     792.3       92.1286       32.3379       61.9334       94.2714       2.142798      -0.00000
   1     891.5       92.1888       35.4704       58.8612       94.3316       2.142798      -0.00000
   0    1013.0       92.2536       39.0673       55.3291       94.3964       2.142798       0.00000



 Wavenumbers: 29000. - 38000. cm-1, ATM      1
 LEVEL PRESSURE   UPWARD FLUX   DIFDOWN FLUX  DIRDOWN FLUX  DOWNWARD FLUX   NET FLUX    HEATING RATE
          mb          W/m2          W/m2          W/m2        W/m2          W/m2       degree/day
  51    .06700       14.2261        0.0000       32.9752       32.9752      18.749077       0.00000
  50    .07753       14.2260        0.0004       32.9709       32.9713      18.745257       3.06165
  49    .09103       14.2258        0.0008       32.9647       32.9655      18.739698       3.47440
  48    0.1069       14.2257        0.0013       32.9566       32.9579      18.732253       3.96302
  47    0.1255       14.2255        0.0019       32.9459       32.9478      18.722290       4.51661
  46    0.1487       14.2252        0.0026       32.9302       32.9329      18.707620       5.34770
  45    0.1794       14.2250        0.0037       32.9060       32.9097      18.684734       6.28259
  44    0.2165       14.2247        0.0049       32.8736       32.8785      18.653813       7.03412
  43    0.2613       14.2244        0.0063       32.8302       32.8365      18.612098       7.86304
  42    0.3336       14.2240        0.0086       32.7490       32.7576      18.533619       9.14992
  41    0.4307       14.2236        0.0116       32.6295       32.6411      18.417486      10.09750
  40    0.5894       14.2234        0.0165       32.4098       32.4263      18.202906      11.41107
  39     1.339       14.2281        0.0378       31.0679       31.1056      16.877584      14.92072
  38     1.782       14.2347        0.0490       30.2098       30.2588      16.024057      16.24978
  37     2.292       14.2458        0.0612       29.2672       29.3284      15.082611      15.59279
  36     2.964       14.2653        0.0764       28.1885       28.2649      13.999576      13.59536
  35     3.853       14.2981        0.0956       27.0400       27.1356      12.837460      11.02869
  34     5.035       14.3485        0.1201       25.8807       26.0008      11.652306       8.46625
  33     6.613       14.4199        0.1520       24.7507       24.9027      10.482825       6.25204
  32     8.786       14.5141        0.1939       23.6836       23.8775       9.363361       4.34760
  31     11.80       14.6394        0.2526       22.6371       22.8896       8.250267       3.11631
  30     15.07       14.7630        0.3146       21.8362       22.1508       7.387791       2.22675
  29     18.79       14.8936        0.3833       21.1446       21.5279       6.634233       1.70855
  28     23.16       15.0360        0.4625       20.5108       20.9732       5.937265       1.34771
  27     28.12       15.1864        0.5519       19.9347       20.4866       5.300187       1.08299
  26     33.73       15.3333        0.6517       19.4299       20.0815       4.748236       0.82987
  25     40.54       15.4838        0.7718       18.9466       19.7184       4.234651       0.63716
  24     48.69       15.6389        0.9160       18.4728       19.3888       3.749881       0.50166
  23     57.69       15.7822        1.0737       18.0423       19.1161       3.333840       0.38998
  22     68.43       15.9214        1.2607       17.6130       18.8737       2.952310       0.29993
  21     81.20       16.0381        1.4842       17.1963       18.6805       2.642307       0.20485
  20     96.49       16.1291        1.7505       16.7803       18.5308       2.401739       0.13278
  19     114.6       16.2127        2.0621       16.3338       18.3959       2.183223       0.10203
  18     136.5       16.3005        2.4547       15.8421       18.2969       1.996386       0.07184
  17     162.9       16.3871        2.8725       15.2949       18.1674       1.780380       0.06904
  16     196.4       16.4646        3.4015       14.6485       18.0500       1.585353       0.04909
  15     218.7       16.5030        3.7413       14.2505       17.9917       1.488742       0.03668
  14     243.0       16.5390        4.1023       13.8350       17.9373       1.398288       0.03137
  13     269.0       16.5717        4.4844       13.4032       17.8876       1.315931       0.02672
  12     297.5       16.6004        4.8867       12.9560       17.8426       1.242193       0.02187
  11     328.5       16.6286        5.3085       12.4908       17.7993       1.170758       0.01942
  10     361.9       16.6559        5.7482       12.0096       17.7578       1.101872       0.01743
   9     398.1       16.6823        6.2048       11.5131       17.7180       1.035638       0.01543
   8     437.6       16.7084        6.6770       11.0023       17.6794       0.970922       0.01384
   7     480.5       16.7338        7.1627       10.4797       17.6424       0.908599       0.01224
   6     533.0       16.7622        7.7336        9.8683       17.6019       0.839682       0.01109
   5     589.8       16.7907        8.3163        9.2463       17.5626       0.771890       0.01006
   4     651.6       16.8197        8.9069        8.6173       17.5243       0.704535       0.00921
   3     718.7       16.8494        9.5009        7.9861       17.4870       0.637579       0.00841
   2     792.3       16.8800       10.0960        7.3551       17.4511       0.571106       0.00762
   1     891.5       16.9202       10.8348        6.5731       17.4079       0.487759       0.00709
   0    1013.0       16.9683       11.6302        5.7322       17.3624       0.394127       0.00650



 Wavenumbers: 38000. - 50000. cm-1, ATM      1
 LEVEL PRESSURE   UPWARD FLUX   DIFDOWN FLUX  DIRDOWN FLUX  DOWNWARD FLUX   NET FLUX    HEATING RATE
          mb          W/m2          W/m2          W/m2        W/m2          W/m2       degree/day
  51    .06700        0.0071        0.0000        2.0339        2.0339       2.026805       0.00000
  50    .07753        0.0070        0.0001        2.0314        2.0315       2.024468       1.87326
  49    .09103        0.0070        0.0002        2.0279        2.0281       2.021130       2.08644
  48    0.1069        0.0069        0.0002        2.0234        2.0236       2.016738       2.33819
  47    0.1255        0.0068        0.0004        2.0174        2.0177       2.010953       2.62228
  46    0.1487        0.0067        0.0005        2.0087        2.0092       2.002564       3.05809
  45    0.1794        0.0065        0.0007        1.9955        1.9962       1.989649       3.54551
  44    0.2165        0.0064        0.0009        1.9779        1.9788       1.972433       3.91620
  43    0.2613        0.0062        0.0011        1.9546        1.9557       1.949533       4.31668
  42    0.3336        0.0059        0.0015        1.9115        1.9131       1.907176       4.93832
  41    0.4307        0.0055        0.0020        1.8493        1.8513       1.845827       5.33421
  40    0.5894        0.0049        0.0027        1.7385        1.7411       1.736180       5.83087
  39     1.339        0.0031        0.0039        1.1480        1.1519       1.148739       6.61352
  38     1.782        0.0024        0.0037        0.8485        0.8522       0.849744       5.69239
  37     2.292        0.0019        0.0032        0.5907        0.5939       0.592034       4.26834
  36     2.964        0.0014        0.0027        0.3813        0.3839       0.382507       2.63020
  35     3.853        0.0011        0.0021        0.2375        0.2396       0.238514       1.36651
  34     5.035        0.0008        0.0017        0.1451        0.1468       0.145971       0.66109
  33     6.613        0.0006        0.0013        0.0876        0.0889       0.088298       0.30832
  32     8.786        0.0004        0.0010        0.0528        0.0538       0.053421       0.13545
  31     11.80        0.0003        0.0007        0.0301        0.0309       0.030595       0.06390
  30     15.07        0.0002        0.0005        0.0180        0.0186       0.018401       0.03148
  29     18.79        0.0001        0.0004        0.0107        0.0111       0.010965       0.01686
  28     23.16        0.0001        0.0002        0.0062        0.0064       0.006327       0.00897
  27     28.12        0.0000        0.0002        0.0035        0.0036       0.003568       0.00469
  26     33.73        0.0000        0.0001        0.0019        0.0020       0.002014       0.00234
  25     40.54        0.0000        0.0001        0.0010        0.0011       0.001086       0.00115
  24     48.69        0.0000        0.0000        0.0005        0.0006       0.000550       0.00055
  23     57.69        0.0000        0.0000        0.0003        0.0003       0.000277       0.00026
  22     68.43        0.0000        0.0000        0.0001        0.0001       0.000129       0.00012
  21     81.20        0.0000        0.0000        0.0001        0.0001       0.000056       0.00005
  20     96.49        0.0000        0.0000        0.0000        0.0000       0.000022       0.00002
  19     114.6        0.0000        0.0000        0.0000        0.0000       0.000008       0.00001
  18     136.5        0.0000        0.0000        0.0000        0.0000       0.000002       0.00000
  17     162.9        0.0000        0.0000        0.0000        0.0000       0.000000       0.00000
  16     196.4        0.0000        0.0000        0.0000        0.0000       0.000000       0.00000
  15     218.7        0.0000        0.0000        0.0000        0.0000       0.000000       0.00000
  14     243.0        0.0000        0.0000        0.0000        0.0000       0.000000       0.00000
  13     269.0        0.0000        0.0000        0.0000        0.0000       0.000000       0.00000
  12     297.5        0.0000        0.0000        0.0000        0.0000       0.000000       0.00000
  11     328.5        0.0000        0.0000        0.0000        0.0000       0.000000       0.00000
  10     361.9        0.0000        0.0000        0.0000        0.0000       0.000000       0.00000
   9     398.1        0.0000        0.0000        0.0000        0.0000       0.000000       0.00000
   8     437.6        0.0000        0.0000        0.0000        0.0000       0.000000       0.00000
   7     480.5        0.0000        0.0000        0.0000        0.0000       0.000000       0.00000
   6     533.0        0.0000        0.0000        0.0000        0.0000       0.000000       0.00000
   5     589.8        0.0000        0.0000        0.0000        0.0000       0.000000       0.00000
   4     651.6        0.0000        0.0000        0.0000        0.0000       0.000000       0.00000
   3     718.7        0.0000        0.0000        0.0000        0.0000       0.000000       0.00000
   2     792.3        0.0000        0.0000        0.0000        0.0000       0.000000       0.00000
   1     891.5        0.0000        0.0000        0.0000        0.0000       0.000000       0.00000
   0    1013.0        0.0000        0.0000        0.0000        0.0000       0.000000       0.00000



 Wavenumbers:   820. -  2600. cm-1, ATM      1
 LEVEL PRESSURE   UPWARD FLUX   DIFDOWN FLUX  DIRDOWN FLUX  DOWNWARD FLUX   NET FLUX    HEATING RATE
          mb          W/m2          W/m2          W/m2        W/m2          W/m2       degree/day
  51    .06700        1.2035        0.0000        9.5143        9.5143       8.310789       0.00000
  50    .07753        1.2035        0.0000        9.5087        9.5087       8.305258       4.43375
  49    .09103        1.2035        0.0000        9.5076        9.5076       8.304148       0.69347
  48    0.1069        1.2035        0.0000        9.5066        9.5066       8.303090       0.56334
  47    0.1255        1.2035        0.0000        9.5053        9.5053       8.301863       0.55643
  46    0.1487        1.2035        0.0000        9.5038        9.5038       8.300312       0.56519
  45    0.1794        1.2035        0.0000        9.5017        9.5017       8.298255       0.56461
  44    0.2165        1.2035        0.0000        9.4994        9.4994       8.295944       0.52587
  43    0.2613        1.2035        0.0000        9.4969        9.4969       8.293391       0.48108
  42    0.3336        1.2035        0.0000        9.4931        9.4931       8.289596       0.44247
  41    0.4307        1.2035        0.0000        9.4887        9.4887       8.285187       0.38336
  40    0.5894        1.2035        0.0000        9.4822        9.4822       8.278683       0.34588
  39     1.339        1.2035        0.0000        9.4528        9.4528       8.249291       0.33090
  38     1.782        1.2035        0.0000        9.4361        9.4361       8.232649       0.31685
  37     2.292        1.2035        0.0000        9.4175        9.4175       8.214052       0.30801
  36     2.964        1.2035        0.0000        9.3939        9.3939       8.190394       0.29697
  35     3.853        1.2035        0.0000        9.3637        9.3637       8.160171       0.28683
  34     5.035        1.2035        0.0000        9.3254        9.3254       8.121911       0.27331
  33     6.613        1.2035        0.0000        9.2777        9.2777       8.074156       0.25530
  32     8.786        1.2035        0.0000        9.2173        9.2173       8.013828       0.23429
  31     11.80        1.2035        0.0000        9.1375        9.1375       7.934019       0.22344
  30     15.07        1.2035        0.0000        9.0620        9.0620       7.858467       0.19506
  29     18.79        1.2036        0.0000        8.9916        8.9916       7.788078       0.15959
  28     23.16        1.2036        0.0000        8.9293        8.9293       7.725768       0.12049
  27     28.12        1.2036        0.0000        8.8789        8.8789       7.675324       0.08575
  26     33.73        1.2036        0.0000        8.8396        8.8396       7.635962       0.05918
  25     40.54        1.2037        0.0000        8.8043        8.8044       7.600700       0.04375
  24     48.69        1.2037        0.0000        8.7688        8.7688       7.565120       0.03682
  23     57.69        1.2037        0.0000        8.7319        8.7320       7.528227       0.03458
  22     68.43        1.2038        0.0000        8.6887        8.6888       7.484979       0.03400
  21     81.20        1.2038        0.0000        8.6384        8.6384       7.434576       0.03331
  20     96.49        1.2039        0.0000        8.5794        8.5794       7.375477       0.03262
  19     114.6        1.2040        0.0000        8.5097        8.5097       7.305705       0.03258
  18     136.5        1.2041        0.0000        8.4281        8.4281       7.223999       0.03142
  17     162.9        1.2043        0.0000        8.3238        8.3238       7.119574       0.03338
  16     196.4        1.2045        0.0000        8.1604        8.1604       6.955880       0.04120
  15     218.7        1.2048        0.0000        8.0045        8.0046       6.799789       0.05926
  14     243.0        1.2052        0.0000        7.7680        7.7681       6.562857       0.08218
  13     269.0        1.2059        0.0000        7.4687        7.4687       6.262847       0.09732
  12     297.5        1.2069        0.0000        7.1523        7.1523       5.945383       0.09416
  11     328.5        1.2083        0.0000        6.8649        6.8649       5.656574       0.07853
  10     361.9        1.2102        0.0000        6.5463        6.5464       5.336137       0.08107
   9     398.1        1.2127        0.0000        6.1752        6.1752       4.962509       0.08705
   8     437.6        1.2160        0.0000        5.7760        5.7760       4.560056       0.08605
   7     480.5        1.2200        0.0000        5.4185        5.4185       4.198509       0.07101
   6     533.0        1.2262        0.0000        5.1116        5.1116       3.885382       0.05037
   5     589.8        1.2355        0.0000        4.8848        4.8848       3.649367       0.03503
   4     651.6        1.2519        0.0001        4.6413        4.6413       3.389369       0.03556
   3     718.7        1.2802        0.0001        4.3419        4.3420       3.061727       0.04118
   2     792.3        1.3321        0.0001        3.9888        3.9889       2.656790       0.04644
   1     891.5        1.4645        0.0001        3.5114        3.5115       2.047032       0.05189
   0    1013.0        1.8107        0.0001        2.9347        2.9347       1.124004       0.06409

  Modules and versions used in this calculation:

       rrtmg_sw.1col.f90:  $Revision$                    rrtmg_sw_init.f90:  $Revision$        
     rrtmgsw_cldprop.f90:  $Revision$                  rrtmgsw_cldprmc.f90:  NOT USED          
     rrtmg_sw_reftra.f90:  $Revision$                  rrtmg_sw_spcvrt.f90:  NOT USED          
     rrtmg_sw_spcvmc.f90:  NOT USED                    rrtmgsw_setcoef.f90:  NOT USED          
     rrtmg_sw_taumol.f90:  $Revision$                  rrtmg_sw_vrtqdr.f90:  NOT USED          
                rrtatm.f:  NOT USED                             util_xxx.f:  NOT USED          
                 extra.f:  NOT USED                       rrtmg_sw_k_g.f90:  $Revision$        

