

 Wavenumbers:   820. - 50000. cm-1, ATM      1
 LEVEL PRESSURE   UPWARD FLUX   DIFDOWN FLUX  DIRDOWN FLUX  DOWNWARD FLUX   NET FLUX    HEATING RATE
          mb          W/m2          W/m2          W/m2        W/m2          W/m2       degree/day
  51    .06700      722.4225        0.0000     1190.2255     1190.2255     467.802985       0.00000
  50    .07753      722.4226        0.0017     1190.2044     1190.2061     467.783489      15.62577
  49    .09103      722.4228        0.0039     1190.1854     1190.1893     467.766515      10.60942
  48    0.1069      722.4230        0.0064     1190.1640     1190.1704     467.747386      10.18221
  47    0.1255      722.4234        0.0093     1190.1384     1190.1477     467.724282      10.47434
  46    0.1487      722.4240        0.0129     1190.1037     1190.1166     467.692621      11.54086
  45    0.1794      722.4250        0.0179     1190.0527     1190.0706     467.645646      12.89574
  44    0.2165      722.4263        0.0237     1189.9872     1190.0110     467.584644      13.87691
  43    0.2613      722.4282        0.0307     1189.9026     1189.9332     467.505000      15.01262
  42    0.3336      722.4319        0.0421     1189.7494     1189.7915     467.359605      16.95154
  41    0.4307      722.4376        0.0572     1189.5303     1189.5875     467.149820      18.24035
  40    0.5894      722.4488        0.0816     1189.1383     1189.2199     466.771152      20.13710
  39     1.339      722.5346        0.1938     1186.8374     1187.0312     464.496584      25.60750
  38     1.782      722.6086        0.2575     1185.3919     1185.6493     463.040740      27.71691
  37     2.292      722.7159        0.3300     1183.8142     1184.1442     461.428333      26.70567
  36     2.964      722.8898        0.4245     1182.0145     1182.4390     459.549109      23.58995
  35     3.853      723.1659        0.5486     1180.0956     1180.6442     457.478303      19.65233
  34     5.035      723.5782        0.7128     1178.1136     1178.8264     455.248244      15.93062
  33     6.613      724.1531        0.9315     1176.0611     1176.9926     452.839459      12.87737
  32     8.786      724.9061        1.2254     1173.9202     1175.1457     450.239567      10.09704
  31     11.80      725.8987        1.6449     1171.5346     1173.1795     447.280796       8.28363
  30     15.07      726.8664        2.0943     1169.4471     1171.5415     444.675037       6.72756
  29     18.79      727.8721        2.6009     1167.4203     1170.0212     442.149064       5.72716
  28     23.16      728.9462        3.1916     1165.3508     1168.5424     439.596150       4.93651
  27     28.12      730.0564        3.8661     1163.2646     1167.1306     437.074270       4.28703
  26     33.73      731.1237        4.6208     1161.2294     1165.8502     434.726467       3.52999
  25     40.54      732.2077        5.5327     1159.0727     1164.6054     432.397707       2.88909
  24     48.69      733.3143        6.6315     1156.7493     1163.3808     430.066533       2.41240
  23     57.69      734.3337        7.8377     1154.4417     1162.2794     427.945744       1.98792
  22     68.43      735.3322        9.2736     1151.9379     1161.2115     425.879272       1.62452
  21     81.20      736.2179       10.9851     1149.2546     1160.2397     424.021877       1.22734
  20     96.49      736.9863       13.0238     1146.3242     1159.3480     422.361704       0.91630
  19     114.6      737.7714       15.4376     1142.9786     1158.4162     420.644732       0.80171
  18     136.5      738.5985       18.2836     1139.1345     1157.4181     418.819657       0.70179
  17     162.9      739.4884       21.6515     1134.6219     1156.2734     416.784961       0.65037
  16     196.4      740.4315       25.9918     1128.7311     1154.7229     414.291398       0.62766
  15     218.7      740.9730       28.8230     1124.4091     1153.2321     412.259016       0.77162
  14     243.0      741.5272       31.8822     1119.0323     1150.9145     409.387285       0.99601
  13     269.0      742.0936       35.1767     1112.2397     1147.4164     405.322798       1.31850
  12     297.5      742.6774       38.7127     1103.7949     1142.5076     399.830235       1.62903
  11     328.5      743.3005       42.5048     1094.4553     1136.9601     393.659619       1.67777
  10     361.9      743.9693       46.5549     1084.3752     1130.9301     386.960867       1.69485
   9     398.1      744.6961       50.8765     1073.2938     1124.1703     379.474194       1.74423
   8     437.6      745.5032       55.4745     1060.8528     1116.3273     370.824132       1.84944
   7     480.5      746.4103       60.3552     1047.1393     1107.4945     361.084183       1.91289
   6     533.0      747.6202       66.2969     1029.9661     1096.2630     348.642725       2.00143
   5     589.8      749.1155       72.6210     1010.9842     1083.6052     334.489661       2.10078
   4     651.6      751.1415       79.3273      989.1517     1068.4790     317.337567       2.34560
   3     718.7      753.9835       86.4169      965.1703     1051.5872     297.603677       2.48000
   2     792.3      758.3203       93.8747      938.9217     1032.7964     274.476071       2.65248
   1     891.5      767.7660      103.7228      903.5277     1007.2505     239.484504       2.97761
   0    1013.0      790.1131      115.2320      862.5046      977.7366     187.623553       3.60097



 Wavenumbers:  2600. -  3250. cm-1, ATM      1
 LEVEL PRESSURE   UPWARD FLUX   DIFDOWN FLUX  DIRDOWN FLUX  DOWNWARD FLUX   NET FLUX    HEATING RATE
          mb          W/m2          W/m2          W/m2        W/m2          W/m2       degree/day
  51    .06700        2.0825        0.0000       10.4899       10.4899       8.407460       0.00000
  50    .07753        2.0825        0.0000       10.4899       10.4899       8.407452       0.00640
  49    .09103        2.0825        0.0000       10.4899       10.4899       8.407442       0.00627
  48    0.1069        2.0825        0.0000       10.4899       10.4899       8.407430       0.00613
  47    0.1255        2.0825        0.0000       10.4899       10.4899       8.407417       0.00600
  46    0.1487        2.0825        0.0000       10.4899       10.4899       8.407400       0.00608
  45    0.1794        2.0825        0.0000       10.4899       10.4899       8.407378       0.00625
  44    0.2165        2.0825        0.0000       10.4898       10.4898       8.407351       0.00613
  43    0.2613        2.0825        0.0000       10.4898       10.4898       8.407319       0.00601
  42    0.3336        2.0825        0.0000       10.4897       10.4897       8.407266       0.00618
  41    0.4307        2.0825        0.0000       10.4897       10.4897       8.407194       0.00622
  40    0.5894        2.0825        0.0000       10.4896       10.4896       8.407074       0.00640
  39     1.339        2.0825        0.0000       10.4888       10.4888       8.406359       0.00805
  38     1.782        2.0825        0.0000       10.4883       10.4883       8.405805       0.01054
  37     2.292        2.0825        0.0000       10.4875       10.4875       8.405068       0.01221
  36     2.964        2.0825        0.0000       10.4865       10.4865       8.403984       0.01360
  35     3.853        2.0825        0.0000       10.4849       10.4849       8.402413       0.01491
  34     5.035        2.0825        0.0000       10.4826       10.4826       8.400166       0.01605
  33     6.613        2.0825        0.0000       10.4795       10.4795       8.397008       0.01689
  32     8.786        2.0825        0.0000       10.4751       10.4751       8.392636       0.01698
  31     11.80        2.0825        0.0000       10.4689       10.4689       8.386401       0.01746
  30     15.07        2.0825        0.0000       10.4624       10.4624       8.379943       0.01667
  29     18.79        2.0825        0.0000       10.4556       10.4556       8.373121       0.01547
  28     23.16        2.0825        0.0000       10.4483       10.4483       8.365813       0.01413
  27     28.12        2.0825        0.0000       10.4407       10.4407       8.358200       0.01294
  26     33.73        2.0825        0.0000       10.4325       10.4326       8.350050       0.01225
  25     40.54        2.0825        0.0000       10.4228       10.4228       8.340277       0.01212
  24     48.69        2.0825        0.0000       10.4109       10.4109       8.328356       0.01234
  23     57.69        2.0826        0.0000       10.3972       10.3973       8.314694       0.01281
  22     68.43        2.0826        0.0000       10.3799       10.3800       8.297370       0.01362
  21     81.20        2.0827        0.0000       10.3578       10.3579       8.275197       0.01465
  20     96.49        2.0828        0.0000       10.3297       10.3298       8.247004       0.01556
  19     114.6        2.0829        0.0001       10.2936       10.2937       8.210799       0.01691
  18     136.5        2.0831        0.0001       10.2493       10.2494       8.166338       0.01710
  17     162.9        2.0833        0.0001       10.1957       10.1958       8.112493       0.01721
  16     196.4        2.0838        0.0001       10.1258       10.1259       8.042105       0.01772
  15     218.7        2.0842        0.0001       10.0768       10.0769       7.992664       0.01877
  14     243.0        2.0850        0.0001       10.0167       10.0168       7.931745       0.02113
  13     269.0        2.0863        0.0001        9.9409        9.9410       7.854752       0.02498
  12     297.5        2.0881        0.0001        9.8475        9.8476       7.759526       0.02824
  11     328.5        2.0906        0.0001        9.7421        9.7423       7.651651       0.02933
  10     361.9        2.0941        0.0002        9.6246        9.6247       7.530661       0.03061
   9     398.1        2.0988        0.0002        9.4888        9.4890       7.390229       0.03272
   8     437.6        2.1052        0.0002        9.3242        9.3243       7.219125       0.03658
   7     480.5        2.1140        0.0002        9.1198        9.1200       7.006032       0.04185
   6     533.0        2.1280        0.0002        8.8262        8.8264       6.698464       0.04948
   5     589.8        2.1489        0.0002        8.4513        8.4515       6.302651       0.05875
   4     651.6        2.1822        0.0002        7.9771        7.9773       5.795125       0.06941
   3     718.7        2.2346        0.0002        7.4441        7.4444       5.209743       0.07357
   2     792.3        2.3224        0.0002        6.8606        6.8609       4.538494       0.07698
   1     891.5        2.5316        0.0002        6.0600        6.0602       3.528654       0.08593
   0    1013.0        3.1069        0.0002        5.1191        5.1194       2.012424       0.10528



 Wavenumbers:  3250. -  4000. cm-1, ATM      1
 LEVEL PRESSURE   UPWARD FLUX   DIFDOWN FLUX  DIRDOWN FLUX  DOWNWARD FLUX   NET FLUX    HEATING RATE
          mb          W/m2          W/m2          W/m2        W/m2          W/m2       degree/day
  51    .06700        0.0018        0.0000       17.6845       17.6845      17.682699       0.00000
  50    .07753        0.0018        0.0000       17.6790       17.6790      17.677142       4.45437
  49    .09103        0.0018        0.0000       17.6740       17.6740      17.672204       3.08583
  48    0.1069        0.0018        0.0000       17.6700       17.6700      17.668153       2.15666
  47    0.1255        0.0018        0.0000       17.6664       17.6664      17.664632       1.59598
  46    0.1487        0.0018        0.0000       17.6629       17.6629      17.661057       1.30345
  45    0.1794        0.0018        0.0000       17.6588       17.6588      17.656948       1.12799
  44    0.2165        0.0018        0.0000       17.6545       17.6545      17.652692       0.96809
  43    0.2613        0.0018        0.0000       17.6500       17.6500      17.648193       0.84811
  42    0.3336        0.0018        0.0000       17.6435       17.6435      17.641712       0.75554
  41    0.4307        0.0018        0.0000       17.6363       17.6363      17.634489       0.62803
  40    0.5894        0.0018        0.0000       17.6265       17.6265      17.624670       0.52219
  39     1.339        0.0018        0.0000       17.5911       17.5911      17.589269       0.39855
  38     1.782        0.0018        0.0000       17.5743       17.5743      17.572458       0.32005
  37     2.292        0.0018        0.0000       17.5574       17.5574      17.555640       0.27855
  36     2.964        0.0018        0.0000       17.5383       17.5383      17.536466       0.24070
  35     3.853        0.0018        0.0000       17.5160       17.5160      17.514240       0.21092
  34     5.035        0.0018        0.0000       17.4895       17.4895      17.487718       0.18947
  33     6.613        0.0018        0.0000       17.4565       17.4565      17.454693       0.17655
  32     8.786        0.0018        0.0000       17.4127       17.4127      17.410948       0.16989
  31     11.80        0.0018        0.0000       17.3488       17.3488      17.346986       0.17907
  30     15.07        0.0018        0.0000       17.2773       17.2773      17.275513       0.18453
  29     18.79        0.0018        0.0000       17.1934       17.1935      17.191669       0.19010
  28     23.16        0.0018        0.0000       17.0928       17.0929      17.091076       0.19451
  27     28.12        0.0018        0.0000       16.9766       16.9766      16.974858       0.19756
  26     33.73        0.0018        0.0000       16.8483       16.8483      16.846566       0.19289
  25     40.54        0.0018        0.0001       16.6994       16.6994      16.697656       0.18474
  24     48.69        0.0017        0.0001       16.5332       16.5333      16.531532       0.17191
  23     57.69        0.0017        0.0001       16.3678       16.3679      16.366166       0.15501
  22     68.43        0.0017        0.0001       16.1902       16.1903      16.188600       0.13959
  21     81.20        0.0017        0.0001       15.9968       15.9969      15.995235       0.12777
  20     96.49        0.0017        0.0001       15.7793       15.7794      15.777757       0.12003
  19     114.6        0.0017        0.0001       15.5183       15.5184      15.516775       0.12186
  18     136.5        0.0016        0.0002       15.2161       15.2163      15.214678       0.11616
  17     162.9        0.0016        0.0002       14.8506       14.8508      14.849146       0.11684
  16     196.4        0.0016        0.0002       14.3191       14.3193      14.317715       0.13377
  15     218.7        0.0015        0.0002       13.8246       13.8248      13.823287       0.18772
  14     243.0        0.0015        0.0003       13.1359       13.1362      13.134650       0.23884
  13     269.0        0.0015        0.0003       12.2244       12.2247      12.223169       0.29568
  12     297.5        0.0015        0.0003       11.1496       11.1498      11.148348       0.31878
  11     328.5        0.0015        0.0003       10.0879       10.0882      10.086714       0.28866
  10     361.9        0.0015        0.0002        9.0494        9.0496       9.048196       0.26276
   9     398.1        0.0014        0.0002        8.0117        8.0120       8.010523       0.24175
   8     437.6        0.0015        0.0002        7.0018        7.0020       7.000545       0.21594
   7     480.5        0.0015        0.0002        6.0827        6.0829       6.081473       0.18050
   6     533.0        0.0015        0.0002        5.1144        5.1146       5.113072       0.15578
   5     589.8        0.0016        0.0002        4.1916        4.1918       4.190115       0.13700
   4     651.6        0.0019        0.0001        3.2565        3.2567       3.254760       0.12791
   3     718.7        0.0025        0.0001        2.3615        2.3616       2.359113       0.11256
   2     792.3        0.0040        0.0001        1.5326        1.5326       1.528583       0.09525
   1     891.5        0.0124        0.0000        0.7313        0.7313       0.718885       0.06890
   0    1013.0        0.1197        0.0000        0.1973        0.1973       0.077551       0.04453



 Wavenumbers:  4000. -  4650. cm-1, ATM      1
 LEVEL PRESSURE   UPWARD FLUX   DIFDOWN FLUX  DIRDOWN FLUX  DOWNWARD FLUX   NET FLUX    HEATING RATE
          mb          W/m2          W/m2          W/m2        W/m2          W/m2       degree/day
  51    .06700        7.7335        0.0000       20.7670       20.7670      13.033415       0.00000
  50    .07753        7.7335        0.0000       20.7670       20.7670      13.033414       0.00080
  49    .09103        7.7335        0.0000       20.7670       20.7670      13.033413       0.00078
  48    0.1069        7.7335        0.0000       20.7670       20.7670      13.033412       0.00076
  47    0.1255        7.7335        0.0000       20.7669       20.7669      13.033410       0.00075
  46    0.1487        7.7335        0.0000       20.7669       20.7669      13.033408       0.00076
  45    0.1794        7.7335        0.0000       20.7669       20.7669      13.033405       0.00078
  44    0.2165        7.7335        0.0000       20.7669       20.7669      13.033402       0.00076
  43    0.2613        7.7335        0.0000       20.7669       20.7669      13.033398       0.00075
  42    0.3336        7.7335        0.0000       20.7669       20.7669      13.033391       0.00077
  41    0.4307        7.7335        0.0000       20.7669       20.7669      13.033382       0.00077
  40    0.5894        7.7335        0.0000       20.7669       20.7669      13.033367       0.00080
  39     1.339        7.7335        0.0000       20.7668       20.7668      13.033278       0.00101
  38     1.782        7.7335        0.0000       20.7667       20.7667      13.033208       0.00133
  37     2.292        7.7335        0.0000       20.7666       20.7667      13.033114       0.00156
  36     2.964        7.7335        0.0000       20.7665       20.7665      13.032973       0.00176
  35     3.853        7.7335        0.0000       20.7663       20.7663      13.032765       0.00198
  34     5.035        7.7335        0.0000       20.7660       20.7660      13.032458       0.00220
  33     6.613        7.7335        0.0000       20.7655       20.7655      13.032004       0.00242
  32     8.786        7.7335        0.0000       20.7648       20.7649      13.031335       0.00260
  31     11.80        7.7335        0.0001       20.7637       20.7638      13.030280       0.00295
  30     15.07        7.7335        0.0001       20.7625       20.7626      13.029039       0.00320
  29     18.79        7.7335        0.0001       20.7610       20.7611      13.027535       0.00341
  28     23.16        7.7335        0.0001       20.7591       20.7592      13.025660       0.00363
  27     28.12        7.7335        0.0001       20.7568       20.7569      13.023381       0.00387
  26     33.73        7.7336        0.0002       20.7539       20.7541      13.020559       0.00424
  25     40.54        7.7336        0.0002       20.7501       20.7503      13.016710       0.00477
  24     48.69        7.7336        0.0003       20.7449       20.7452      13.011548       0.00534
  23     57.69        7.7337        0.0003       20.7388       20.7391      13.005384       0.00578
  22     68.43        7.7338        0.0004       20.7310       20.7314      12.997605       0.00612
  21     81.20        7.7340        0.0004       20.7215       20.7219      12.987942       0.00639
  20     96.49        7.7342        0.0005       20.7098       20.7103      12.976089       0.00654
  19     114.6        7.7346        0.0006       20.6951       20.6957      12.961140       0.00698
  18     136.5        7.7351        0.0007       20.6773       20.6781      12.942972       0.00699
  17     162.9        7.7359        0.0008       20.6555       20.6564      12.920505       0.00718
  16     196.4        7.7372        0.0010       20.6254       20.6264      12.889199       0.00788
  15     218.7        7.7385        0.0011       20.6023       20.6034      12.864900       0.00923
  14     243.0        7.7404        0.0013       20.5709       20.5721      12.831730       0.01150
  13     269.0        7.7433        0.0014       20.5262       20.5276      12.784378       0.01536
  12     297.5        7.7475        0.0015       20.4647       20.4662      12.718703       0.01948
  11     328.5        7.7533        0.0017       20.3887       20.3904      12.637086       0.02219
  10     361.9        7.7610        0.0019       20.2940       20.2959      12.534920       0.02585
   9     398.1        7.7705        0.0020       20.1707       20.1728      12.402289       0.03090
   8     437.6        7.7824        0.0022       20.0058       20.0080      12.225579       0.03778
   7     480.5        7.7974        0.0024       19.7951       19.7975      12.000111       0.04428
   6     533.0        7.8197        0.0026       19.4986       19.5012      11.681467       0.05126
   5     589.8        7.8510        0.0029       19.1469       19.1498      11.298745       0.05681
   4     651.6        7.8990        0.0031       18.7235       18.7266      10.827669       0.06442
   3     718.7        7.9743        0.0033       18.2160       18.2194      10.245083       0.07321
   2     792.3        8.1002        0.0036       17.5402       17.5438       9.443545       0.09193
   1     891.5        8.3981        0.0038       16.4435       16.4473       8.049110       0.11866
   0    1013.0        9.1872        0.0040       15.1339       15.1379       5.950722       0.14570



 Wavenumbers:  4650. -  5150. cm-1, ATM      1
 LEVEL PRESSURE   UPWARD FLUX   DIFDOWN FLUX  DIRDOWN FLUX  DOWNWARD FLUX   NET FLUX    HEATING RATE
          mb          W/m2          W/m2          W/m2        W/m2          W/m2       degree/day
  51    .06700        5.5941        0.0000       19.6569       19.6569      14.062844       0.00000
  50    .07753        5.5941        0.0000       19.6567       19.6567      14.062608       0.18922
  49    .09103        5.5941        0.0000       19.6564       19.6564      14.062312       0.18495
  48    0.1069        5.5941        0.0000       19.6560       19.6560      14.061973       0.18048
  47    0.1255        5.5941        0.0000       19.6556       19.6556      14.061585       0.17599
  46    0.1487        5.5941        0.0000       19.6551       19.6551      14.061097       0.17780
  45    0.1794        5.5941        0.0000       19.6545       19.6545      14.060434       0.18194
  44    0.2165        5.5941        0.0000       19.6537       19.6537      14.059655       0.17724
  43    0.2613        5.5941        0.0000       19.6528       19.6528      14.058740       0.17251
  42    0.3336        5.5941        0.0000       19.6513       19.6513      14.057243       0.17449
  41    0.4307        5.5941        0.0000       19.6493       19.6493      14.055291       0.16975
  40    0.5894        5.5941        0.0000       19.6462       19.6462      14.052179       0.16547
  39     1.339        5.5940        0.0000       19.6327       19.6327      14.038638       0.15245
  38     1.782        5.5940        0.0000       19.6256       19.6256      14.031532       0.13528
  37     2.292        5.5940        0.0000       19.6180       19.6180      14.024001       0.12474
  36     2.964        5.5940        0.0000       19.6091       19.6091      14.015101       0.11173
  35     3.853        5.5940        0.0000       19.5989       19.5989      14.004855       0.09723
  34     5.035        5.5940        0.0000       19.5874       19.5874      13.993401       0.08182
  33     6.613        5.5941        0.0000       19.5750       19.5750      13.980988       0.06636
  32     8.786        5.5941        0.0001       19.5618       19.5619      13.967807       0.05119
  31     11.80        5.5941        0.0001       19.5470       19.5471      13.953013       0.04142
  30     15.07        5.5941        0.0001       19.5336       19.5337      13.939594       0.03465
  29     18.79        5.5941        0.0001       19.5193       19.5195      13.925315       0.03238
  28     23.16        5.5942        0.0002       19.5024       19.5025      13.908355       0.03279
  27     28.12        5.5943        0.0002       19.4818       19.4820      13.887724       0.03507
  26     33.73        5.5944        0.0003       19.4569       19.4571      13.862759       0.03754
  25     40.54        5.5945        0.0003       19.4242       19.4245      13.829969       0.04068
  24     48.69        5.5948        0.0004       19.3816       19.3820      13.787178       0.04428
  23     57.69        5.5951        0.0004       19.3315       19.3319      13.736823       0.04720
  22     68.43        5.5955        0.0005       19.2684       19.2689      13.673442       0.04983
  21     81.20        5.5961        0.0006       19.1902       19.1908      13.594699       0.05203
  20     96.49        5.5969        0.0007       19.0951       19.0958      13.498877       0.05289
  19     114.6        5.5980        0.0008       18.9820       18.9828      13.384812       0.05326
  18     136.5        5.5996        0.0010       18.8515       18.8525      13.252928       0.05071
  17     162.9        5.6018        0.0012       18.7036       18.7047      13.102962       0.04794
  16     196.4        5.6051        0.0014       18.5259       18.5273      12.922133       0.04552
  15     218.7        5.6078        0.0016       18.4165       18.4180      12.810259       0.04247
  14     243.0        5.6112        0.0017       18.3014       18.3031      12.691889       0.04105
  13     269.0        5.6159        0.0019       18.1776       18.1795      12.563527       0.04164
  12     297.5        5.6225        0.0021       18.0394       18.0414      12.418903       0.04289
  11     328.5        5.6312        0.0023       17.8861       17.8884      12.257228       0.04396
  10     361.9        5.6423        0.0025       17.7138       17.7163      12.074003       0.04636
   9     398.1        5.6568        0.0027       17.5160       17.5187      11.861960       0.04940
   8     437.6        5.6756        0.0029       17.2856       17.2886      11.613026       0.05322
   7     480.5        5.6999        0.0032       17.0152       17.0184      11.318515       0.05784
   6     533.0        5.7368        0.0034       16.6478       16.6512      10.914414       0.06501
   5     589.8        5.7878        0.0037       16.2033       16.2070      10.419214       0.07350
   4     651.6        5.8625        0.0040       15.6501       15.6541       9.791562       0.08583
   3     718.7        5.9735        0.0042       14.9897       14.9939       9.020395       0.09691
   2     792.3        6.1444        0.0045       14.2307       14.2351       8.090702       0.10663
   1     891.5        6.5111        0.0047       13.1936       13.1984       6.687277       0.11942
   0    1013.0        7.3152        0.0050       12.0483       12.0533       4.738159       0.13534



 Wavenumbers:  5150. -  6150. cm-1, ATM      1
 LEVEL PRESSURE   UPWARD FLUX   DIFDOWN FLUX  DIRDOWN FLUX  DOWNWARD FLUX   NET FLUX    HEATING RATE
          mb          W/m2          W/m2          W/m2        W/m2          W/m2       degree/day
  51    .06700       13.5030        0.0000       49.2799       49.2799      35.776877       0.00000
  50    .07753       13.5030        0.0000       49.2799       49.2799      35.776838       0.03162
  49    .09103       13.5030        0.0000       49.2798       49.2798      35.776786       0.03211
  48    0.1069       13.5030        0.0000       49.2798       49.2798      35.776725       0.03262
  47    0.1255       13.5030        0.0000       49.2797       49.2797      35.776652       0.03312
  46    0.1487       13.5030        0.0000       49.2796       49.2796      35.776556       0.03490
  45    0.1794       13.5030        0.0000       49.2795       49.2795      35.776421       0.03716
  44    0.2165       13.5030        0.0000       49.2793       49.2793      35.776255       0.03773
  43    0.2613       13.5030        0.0000       49.2791       49.2791      35.776052       0.03832
  42    0.3336       13.5030        0.0000       49.2787       49.2787      35.775704       0.04050
  41    0.4307       13.5030        0.0000       49.2783       49.2783      35.775232       0.04108
  40    0.5894       13.5030        0.0000       49.2775       49.2775      35.774440       0.04214
  39     1.339       13.5030        0.0000       49.2736       49.2736      35.770606       0.04316
  38     1.782       13.5030        0.0001       49.2713       49.2714      35.768361       0.04273
  37     2.292       13.5030        0.0001       49.2688       49.2688      35.765810       0.04226
  36     2.964       13.5030        0.0001       49.2655       49.2656      35.762551       0.04091
  35     3.853       13.5030        0.0001       49.2613       49.2614      35.758381       0.03957
  34     5.035       13.5030        0.0002       49.2558       49.2560      35.752965       0.03869
  33     6.613       13.5031        0.0002       49.2487       49.2489      35.745860       0.03798
  32     8.786       13.5031        0.0003       49.2393       49.2396      35.736518       0.03628
  31     11.80       13.5031        0.0004       49.2264       49.2268      35.723633       0.03607
  30     15.07       13.5032        0.0005       49.2131       49.2136      35.710415       0.03413
  29     18.79       13.5032        0.0006       49.1989       49.1995      35.696268       0.03208
  28     23.16       13.5033        0.0008       49.1832       49.1840      35.680633       0.03023
  27     28.12       13.5035        0.0009       49.1662       49.1672      35.663731       0.02873
  26     33.73       13.5036        0.0011       49.1486       49.1497      35.646092       0.02652
  25     40.54       13.5038        0.0014       49.1288       49.1301      35.626313       0.02454
  24     48.69       13.5041        0.0016       49.1071       49.1087      35.604554       0.02252
  23     57.69       13.5045        0.0019       49.0850       49.0869      35.582378       0.02079
  22     68.43       13.5050        0.0023       49.0605       49.0628      35.557715       0.01939
  21     81.20       13.5057        0.0027       49.0329       49.0356      35.529915       0.01837
  20     96.49       13.5065        0.0032       49.0012       49.0044      35.497948       0.01764
  19     114.6       13.5075        0.0038       48.9643       48.9681      35.460625       0.01743
  18     136.5       13.5087        0.0046       48.9206       48.9251      35.416435       0.01699
  17     162.9       13.5102        0.0054       48.8546       48.8601      35.349830       0.02129
  16     196.4       13.5123        0.0065       48.7132       48.7197      35.207389       0.03585
  15     218.7       13.5138        0.0072       48.5083       48.5155      35.001758       0.07807
  14     243.0       13.5155        0.0080       48.1275       48.1355      34.619965       0.13242
  13     269.0       13.5177        0.0087       47.4298       47.4385      33.920793       0.22681
  12     297.5       13.5205        0.0094       46.3635       46.3730      32.852510       0.31684
  11     328.5       13.5240        0.0102       45.2123       45.2226      31.698572       0.31375
  10     361.9       13.5284        0.0110       44.0135       44.0245      30.496062       0.30425
   9     398.1       13.5340        0.0118       42.6385       42.6502      29.116225       0.32147
   8     437.6       13.5414        0.0125       41.0097       41.0222      27.480806       0.34966
   7     480.5       13.5511        0.0132       39.2305       39.2437      25.692649       0.35119
   6     533.0       13.5666        0.0141       37.0966       37.1107      23.544089       0.34563
   5     589.8       13.5904        0.0149       34.8828       34.8977      21.307340       0.33201
   4     651.6       13.6314        0.0158       32.5940       32.6098      18.978361       0.31849
   3     718.7       13.7027        0.0168       30.5455       30.5623      16.859612       0.26627
   2     792.3       13.8350        0.0179       28.8216       28.8395      15.004550       0.21275
   1     891.5       14.1908        0.0193       27.0663       27.0856      12.894787       0.17953
   0    1013.0       15.3127        0.0208       25.2103       25.2311       9.918331       0.20667



 Wavenumbers:  6150. -  7700. cm-1, ATM      1
 LEVEL PRESSURE   UPWARD FLUX   DIFDOWN FLUX  DIRDOWN FLUX  DOWNWARD FLUX   NET FLUX    HEATING RATE
          mb          W/m2          W/m2          W/m2        W/m2          W/m2       degree/day
  51    .06700       20.3749        0.0000       91.1451       91.1451      70.770225       0.00000
  50    .07753       20.3749        0.0000       91.1450       91.1450      70.770169       0.04554
  49    .09103       20.3749        0.0000       91.1450       91.1450      70.770095       0.04583
  48    0.1069       20.3749        0.0000       91.1449       91.1449      70.770009       0.04615
  47    0.1255       20.3749        0.0000       91.1448       91.1448      70.769906       0.04646
  46    0.1487       20.3749        0.0000       91.1446       91.1446      70.769773       0.04854
  45    0.1794       20.3749        0.0000       91.1444       91.1445      70.769586       0.05129
  44    0.2165       20.3749        0.0000       91.1442       91.1442      70.769359       0.05170
  43    0.2613       20.3749        0.0000       91.1439       91.1439      70.769082       0.05215
  42    0.3336       20.3749        0.0000       91.1434       91.1435      70.768612       0.05477
  41    0.4307       20.3748        0.0000       91.1428       91.1428      70.767976       0.05530
  40    0.5894       20.3748        0.0001       91.1417       91.1418      70.766915       0.05646
  39     1.339       20.3748        0.0002       91.1364       91.1366      70.761798       0.05760
  38     1.782       20.3747        0.0002       91.1333       91.1336      70.758804       0.05700
  37     2.292       20.3747        0.0003       91.1298       91.1301      70.755392       0.05651
  36     2.964       20.3747        0.0004       91.1253       91.1257      70.751014       0.05496
  35     3.853       20.3746        0.0005       91.1195       91.1200      70.745379       0.05347
  34     5.035       20.3745        0.0007       91.1119       91.1125      70.738031       0.05249
  33     6.613       20.3744        0.0009       91.1019       91.1028      70.728357       0.05172
  32     8.786       20.3742        0.0012       91.0886       91.0898      70.715568       0.04967
  31     11.80       20.3740        0.0016       91.0702       91.0718      70.697776       0.04981
  30     15.07       20.3738        0.0020       91.0511       91.0531      70.679319       0.04765
  29     18.79       20.3735        0.0025       91.0303       91.0328      70.659294       0.04540
  28     23.16       20.3732        0.0031       91.0069       91.0100      70.636843       0.04341
  27     28.12       20.3728        0.0038       90.9812       90.9850      70.612205       0.04188
  26     33.73       20.3724        0.0046       90.9539       90.9585      70.586065       0.03930
  25     40.54       20.3719        0.0055       90.9227       90.9282      70.556273       0.03696
  24     48.69       20.3714        0.0066       90.8876       90.8942      70.522844       0.03459
  23     57.69       20.3707        0.0078       90.8511       90.8589      70.488231       0.03245
  22     68.43       20.3699        0.0092       90.8099       90.8191      70.449154       0.03072
  21     81.20       20.3690        0.0110       90.7626       90.7736      70.404581       0.02945
  20     96.49       20.3679        0.0130       90.7078       90.7208      70.352861       0.02855
  19     114.6       20.3666        0.0155       90.6431       90.6585      70.291905       0.02846
  18     136.5       20.3651        0.0184       90.5663       90.5846      70.219522       0.02783
  17     162.9       20.3633        0.0218       90.4550       90.4768      70.113515       0.03388
  16     196.4       20.3611        0.0263       90.2257       90.2520      69.890895       0.05604
  15     218.7       20.3598        0.0291       89.8992       89.9283      69.568524       0.12239
  14     243.0       20.3586        0.0321       89.3111       89.3433      68.984666       0.20250
  13     269.0       20.3578        0.0352       88.3596       88.3949      68.037025       0.30741
  12     297.5       20.3580        0.0382       86.8353       86.8736      66.515607       0.45124
  11     328.5       20.3593        0.0413       84.9067       84.9481      64.588803       0.52389
  10     361.9       20.3623        0.0445       82.7477       82.7922      62.429888       0.54623
   9     398.1       20.3681        0.0477       80.3874       80.4351      60.067015       0.55050
   8     437.6       20.3782        0.0508       77.6712       77.7220      57.343772       0.58225
   7     480.5       20.3945        0.0537       74.5657       74.6194      54.224862       0.61254
   6     533.0       20.4254        0.0569       70.6344       70.6913      50.265930       0.63687
   5     589.8       20.4789        0.0599       66.3626       66.4226      45.943681       0.64156
   4     651.6       20.5800        0.0625       61.5713       61.6339      41.053842       0.66870
   3     718.7       20.7637        0.0649       56.7145       56.7794      36.015737       0.63315
   2     792.3       21.1101        0.0670       51.9133       51.9803      30.870286       0.59013
   1     891.5       22.0287        0.0694       46.2962       46.3656      24.336912       0.55596
   0    1013.0       24.8694        0.0723       40.9054       40.9777      16.108325       0.57135



 Wavenumbers:  7700. -  8050. cm-1, ATM      1
 LEVEL PRESSURE   UPWARD FLUX   DIFDOWN FLUX  DIRDOWN FLUX  DOWNWARD FLUX   NET FLUX    HEATING RATE
          mb          W/m2          W/m2          W/m2        W/m2          W/m2       degree/day
  51    .06700       10.7985        0.0000       21.5403       21.5403      10.741804       0.00000
  50    .07753       10.7985        0.0000       21.5403       21.5403      10.741779       0.02033
  49    .09103       10.7985        0.0000       21.5403       21.5403      10.741747       0.01992
  48    0.1069       10.7985        0.0000       21.5402       21.5402      10.741710       0.01950
  47    0.1255       10.7985        0.0000       21.5402       21.5402      10.741668       0.01909
  46    0.1487       10.7985        0.0000       21.5402       21.5402      10.741615       0.01937
  45    0.1794       10.7986        0.0000       21.5401       21.5401      10.741543       0.01993
  44    0.2165       10.7986        0.0000       21.5400       21.5401      10.741457       0.01955
  43    0.2613       10.7986        0.0000       21.5400       21.5400      10.741355       0.01918
  42    0.3336       10.7987        0.0000       21.5398       21.5399      10.741187       0.01963
  41    0.4307       10.7987        0.0000       21.5397       21.5397      10.740963       0.01942
  40    0.5894       10.7989        0.0000       21.5394       21.5394      10.740598       0.01940
  39     1.339       10.7994        0.0001       21.5381       21.5382      10.738873       0.01943
  38     1.782       10.7997        0.0001       21.5374       21.5375      10.737858       0.01931
  37     2.292       10.8000        0.0002       21.5365       21.5367      10.736684       0.01945
  36     2.964       10.8005        0.0002       21.5354       21.5356      10.735142       0.01936
  35     3.853       10.8011        0.0003       21.5339       21.5342      10.733105       0.01934
  34     5.035       10.8019        0.0003       21.5319       21.5323      10.730397       0.01935
  33     6.613       10.8029        0.0004       21.5293       21.5297      10.726777       0.01935
  32     8.786       10.8044        0.0006       21.5257       21.5263      10.721897       0.01895
  31     11.80       10.8065        0.0008       21.5206       21.5214      10.714913       0.01956
  30     15.07       10.8087        0.0010       21.5151       21.5161      10.707409       0.01937
  29     18.79       10.8112        0.0013       21.5089       21.5102      10.698927       0.01923
  28     23.16       10.8142        0.0016       21.5017       21.5032      10.689014       0.01917
  27     28.12       10.8176        0.0019       21.4934       21.4953      10.677672       0.01928
  26     33.73       10.8214        0.0023       21.4841       21.4864      10.664973       0.01909
  25     40.54       10.8261        0.0027       21.4730       21.4757      10.649624       0.01904
  24     48.69       10.8317        0.0033       21.4595       21.4628      10.631113       0.01916
  23     57.69       10.8379        0.0039       21.4448       21.4487      10.610772       0.01907
  22     68.43       10.8454        0.0046       21.4273       21.4319      10.586540       0.01905
  21     81.20       10.8543        0.0054       21.4066       21.4120      10.557664       0.01908
  20     96.49       10.8651        0.0064       21.3819       21.3883      10.523253       0.01899
  19     114.6       10.8780        0.0076       21.3527       21.3604      10.482393       0.01908
  18     136.5       10.8935        0.0091       21.3183       21.3274      10.433961       0.01862
  17     162.9       10.9122        0.0108       21.2777       21.2884      10.376277       0.01844
  16     196.4       10.9369        0.0130       21.2253       21.2383      10.301442       0.01884
  15     218.7       10.9534        0.0144       21.1911       21.2056      10.252237       0.01868
  14     243.0       10.9716        0.0160       21.1542       21.1702      10.198633       0.01859
  13     269.0       10.9917        0.0177       21.1143       21.1320      10.140316       0.01892
  12     297.5       11.0139        0.0196       21.0712       21.0908      10.076875       0.01882
  11     328.5       11.0385        0.0216       21.0247       21.0463      10.007776       0.01879
  10     361.9       11.0658        0.0237       20.9746       20.9984       9.932580       0.01903
   9     398.1       11.0961        0.0261       20.9205       20.9466       9.850472       0.01913
   8     437.6       11.1302        0.0286       20.8620       20.8906       9.760455       0.01925
   7     480.5       11.1683        0.0313       20.7986       20.8299       9.661549       0.01942
   6     533.0       11.2181        0.0346       20.7192       20.7537       9.535638       0.02026
   5     589.8       11.2760        0.0381       20.6307       20.6689       9.392805       0.02120
   4     651.6       11.3456        0.0419       20.5298       20.5717       9.226125       0.02279
   3     718.7       11.4308        0.0460       20.4125       20.4585       9.027718       0.02493
   2     792.3       11.5391        0.0504       20.2720       20.3224       8.783307       0.02803
   1     891.5       11.7230        0.0561       20.0527       20.1089       8.385902       0.03382
   0    1013.0       12.0196        0.0629       19.7420       19.8049       7.785288       0.04170



 Wavenumbers:  8050. - 12850. cm-1, ATM      1
 LEVEL PRESSURE   UPWARD FLUX   DIFDOWN FLUX  DIRDOWN FLUX  DOWNWARD FLUX   NET FLUX    HEATING RATE
          mb          W/m2          W/m2          W/m2        W/m2          W/m2       degree/day
  51    .06700      129.8494        0.0000      301.5801      301.5801     171.730746       0.00000
  50    .07753      129.8493        0.0000      301.5801      301.5801     171.730746      -0.00000
  49    .09103      129.8493        0.0001      301.5800      301.5801     171.730746       0.00000
  48    0.1069      129.8493        0.0001      301.5799      301.5801     171.730746       0.00000
  47    0.1255      129.8493        0.0002      301.5799      301.5801     171.730746       0.00000
  46    0.1487      129.8493        0.0003      301.5798      301.5800     171.730746      -0.00000
  45    0.1794      129.8493        0.0004      301.5797      301.5800     171.730746       0.00000
  44    0.2165      129.8492        0.0005      301.5795      301.5800     171.730746      -0.00000
  43    0.2613      129.8492        0.0006      301.5793      301.5799     171.730746      -0.00000
  42    0.3336      129.8491        0.0008      301.5790      301.5799     171.730746       0.00000
  41    0.4307      129.8491        0.0012      301.5787      301.5798     171.730746       0.00000
  40    0.5894      129.8489        0.0017      301.5780      301.5797     171.730746      -0.00000
  39     1.339      129.8484        0.0040      301.5751      301.5791     171.730746       0.00000
  38     1.782      129.8480        0.0054      301.5733      301.5788     171.730746       0.00000
  37     2.292      129.8476        0.0070      301.5713      301.5784     171.730746      -0.00000
  36     2.964      129.8471        0.0092      301.5687      301.5779     171.730746       0.00000
  35     3.853      129.8464        0.0120      301.5652      301.5772     171.730746       0.00000
  34     5.035      129.8455        0.0157      301.5606      301.5763     171.730746       0.00000
  33     6.613      129.8443        0.0207      301.5544      301.5750     171.730746       0.00000
  32     8.786      129.8426        0.0274      301.5460      301.5734     171.730746      -0.00000
  31     11.80      129.8403        0.0370      301.5340      301.5710     171.730746       0.00000
  30     15.07      129.8377        0.0474      301.5211      301.5685     171.730746       0.00000
  29     18.79      129.8349        0.0591      301.5066      301.5656     171.730746      -0.00000
  28     23.16      129.8315        0.0727      301.4895      301.5623     171.730746       0.00000
  27     28.12      129.8277        0.0884      301.4700      301.5584     171.730746      -0.00000
  26     33.73      129.8234        0.1059      301.4482      301.5541     171.730746       0.00000
  25     40.54      129.8182        0.1272      301.4217      301.5489     171.730746       0.00000
  24     48.69      129.8119        0.1528      301.3898      301.5426     171.730746       0.00000
  23     57.69      129.8049        0.1810      301.3547      301.5357     171.730746      -0.00000
  22     68.43      129.7967        0.2146      301.3128      301.5274     171.730746       0.00000
  21     81.20      129.7868        0.2548      301.2628      301.5176     171.730746      -0.00000
  20     96.49      129.7750        0.3027      301.2031      301.5058     171.730746       0.00000
  19     114.6      129.7613        0.3597      301.1260      301.4857     171.724439       0.00295
  18     136.5      129.7449        0.4275      301.0340      301.4615     171.716603       0.00301
  17     162.9      129.7254        0.5084      300.9206      301.4290     171.703582       0.00416
  16     196.4      129.7002        0.6136      300.7567      301.3703     171.670084       0.00843
  15     218.7      129.6839        0.6828      300.6080      301.2908     171.606858       0.02400
  14     243.0      129.6670        0.7581      300.3625      301.1205     171.453519       0.05318
  13     269.0      129.6506        0.8396      299.9409      300.7805     171.129833       0.10500
  12     297.5      129.6368        0.9274      299.2744      300.2018     170.564982       0.16753
  11     328.5      129.6267        1.0222      298.4208      299.4430     169.816262       0.20357
  10     361.9      129.6232        1.1242      297.3907      298.5149     168.891723       0.23392
   9     398.1      129.6305        1.2334      296.1363      297.3697     167.739179       0.26852
   8     437.6      129.6564        1.3498      294.5466      295.8964     166.240095       0.32051
   7     480.5      129.7098        1.4735      292.5376      294.0111     164.301313       0.38077
   6     533.0      129.8240        1.6236      289.6116      291.2352     161.411132       0.46494
   5     589.8      130.0364        1.7818      285.8019      287.5837     157.547276       0.57352
   4     651.6      130.4526        1.9452      280.5522      282.4974     152.044752       0.75249
   3     718.7      131.2132        2.1126      273.8301      275.9427     144.729442       0.91933
   2     792.3      132.6354        2.2803      265.4911      267.7715     135.136113       1.10025
   1     891.5      136.2724        2.4868      253.1093      255.5961     119.323749       1.34556
   0    1013.0      146.0477        2.7115      237.9339      240.6454      94.597706       1.71686



 Wavenumbers: 12850. - 16000. cm-1, ATM      1
 LEVEL PRESSURE   UPWARD FLUX   DIFDOWN FLUX  DIRDOWN FLUX  DOWNWARD FLUX   NET FLUX    HEATING RATE
          mb          W/m2          W/m2          W/m2        W/m2          W/m2       degree/day
  51    .06700      130.1911        0.0000      188.9666      188.9666      58.775440       0.00000
  50    .07753      130.1912        0.0001      188.9657      188.9658      58.774634       0.64577
  49    .09103      130.1912        0.0002      188.9646      188.9648      58.773615       0.63705
  48    0.1069      130.1913        0.0003      188.9634      188.9637      58.772434       0.62868
  47    0.1255      130.1913        0.0005      188.9619      188.9624      58.771064       0.62105
  46    0.1487      130.1914        0.0006      188.9601      188.9607      58.769316       0.63718
  45    0.1794      130.1916        0.0009      188.9576      188.9585      58.766906       0.66138
  44    0.2165      130.1918        0.0012      188.9547      188.9559      58.764028       0.65472
  43    0.2613      130.1921        0.0015      188.9512      188.9527      58.760585       0.64908
  42    0.3336      130.1927        0.0021      188.9455      188.9476      58.754838       0.66998
  41    0.4307      130.1937        0.0029      188.9380      188.9409      58.747199       0.66421
  40    0.5894      130.1954        0.0041      188.9260      188.9301      58.734669       0.66636
  39     1.339      130.2086        0.0100      188.8713      188.8813      58.672722       0.69741
  38     1.782      130.2199        0.0135      188.8400      188.8535      58.633564       0.74549
  37     2.292      130.2363        0.0175      188.8036      188.8210      58.584698       0.80935
  36     2.964      130.2631        0.0227      188.7546      188.7774      58.514284       0.88391
  35     3.853      130.3056        0.0297      188.6878      188.7175      58.411885       0.97179
  34     5.035      130.3692        0.0389      188.5978      188.6367      58.267488       1.03151
  33     6.613      130.4578        0.0512      188.4799      188.5311      58.073254       1.03837
  32     8.786      130.5734        0.0678      188.3298      188.3976      57.824204       0.96722
  31     11.80      130.7247        0.0916      188.1329      188.2245      57.499821       0.90817
  30     15.07      130.8707        0.1171      187.9394      188.0565      57.185805       0.81073
  29     18.79      131.0208        0.1459      187.7360      187.8819      56.861110       0.73618
  28     23.16      131.1791        0.1796      187.5156      187.6952      56.516047       0.66724
  27     28.12      131.3403        0.2181      187.2832      187.5014      56.161114       0.60336
  26     33.73      131.4921        0.2613      187.0512      187.3125      55.820364       0.51233
  25     40.54      131.6426        0.3135      186.8030      187.1165      55.473855       0.42988
  24     48.69      131.7920        0.3765      186.5354      186.9119      55.119934       0.36625
  23     57.69      131.9250        0.4458      186.2726      186.7184      54.793434       0.30604
  22     68.43      132.0497        0.5285      185.9939      186.5224      54.472644       0.25218
  21     81.20      132.1522        0.6273      185.7089      186.3361      54.183900       0.19080
  20     96.49      132.2317        0.7452      185.4151      186.1604      53.928660       0.14087
  19     114.6      132.3254        0.8872      185.0930      185.9801      53.654753       0.12790
  18     136.5      132.4176        1.0556      184.7354      185.7910      53.373430       0.10818
  17     162.9      132.5101        1.2565      184.3320      185.5886      53.078448       0.09429
  16     196.4      132.5934        1.5176      183.8438      185.3614      52.768029       0.07814
  15     218.7      132.6350        1.6894      183.5330      185.2224      52.587386       0.06858
  14     243.0      132.6748        1.8763      183.1962      185.0725      52.397746       0.06577
  13     269.0      132.7128        2.0792      182.8299      184.9091      52.196242       0.06537
  12     297.5      132.7505        2.2988      182.4284      184.7272      51.976667       0.06512
  11     328.5      132.7916        2.5364      181.9860      184.5225      51.730905       0.06682
  10     361.9      132.8379        2.7928      181.4986      184.2914      51.453544       0.07018
   9     398.1      132.8924        3.0692      180.9605      184.0297      51.137305       0.07368
   8     437.6      132.9606        3.3665      180.3630      183.7295      50.768861       0.07878
   7     480.5      133.0479        3.6858      179.6990      183.3848      50.336822       0.08485
   6     533.0      133.1832        4.0794      178.8424      182.9218      49.738564       0.09624
   5     589.8      133.3807        4.5041      177.8530      182.3571      48.976354       0.11314
   4     651.6      133.6991        4.9600      176.6572      181.6172      47.918119       0.14472
   3     718.7      134.1800        5.4455      175.2304      180.6760      46.495927       0.17873
   2     792.3      134.9523        5.9569      173.4774      179.4343      44.481986       0.23098
   1     891.5      136.6243        6.6285      170.7106      177.3390      40.714740       0.32057
   0    1013.0      140.0158        7.4079      166.9362      174.3442      34.328364       0.44344



 Wavenumbers: 16000. - 22650. cm-1, ATM      1
 LEVEL PRESSURE   UPWARD FLUX   DIFDOWN FLUX  DIRDOWN FLUX  DOWNWARD FLUX   NET FLUX    HEATING RATE
          mb          W/m2          W/m2          W/m2        W/m2          W/m2       degree/day
  51    .06700      272.4751        0.0000      301.2863      301.2863      28.811168       0.00000
  50    .07753      272.4753        0.0005      301.2857      301.2863      28.810959       0.16757
  49    .09103      272.4756        0.0012      301.2850      301.2862      28.810654       0.19006
  48    0.1069      272.4759        0.0020      301.2841      301.2861      28.810247       0.21673
  47    0.1255      272.4763        0.0029      301.2831      301.2860      28.809702       0.24704
  46    0.1487      272.4769        0.0040      301.2818      301.2858      28.808899       0.29274
  45    0.1794      272.4778        0.0055      301.2799      301.2854      28.807644       0.34468
  44    0.2165      272.4790        0.0074      301.2775      301.2849      28.805941       0.38738
  43    0.2613      272.4806        0.0095      301.2747      301.2842      28.803630       0.43552
  42    0.3336      272.4835        0.0131      301.2697      301.2828      28.799237       0.51217
  41    0.4307      272.4880        0.0178      301.2628      301.2806      28.792616       0.57574
  40    0.5894      272.4963        0.0256      301.2507      301.2763      28.779987       0.67160
  39     1.339      272.5560        0.0622      301.1805      301.2426      28.686667       1.05060
  38     1.782      272.6059        0.0837      301.1294      301.2130      28.607152       1.51384
  37     2.292      272.6776        0.1086      301.0611      301.1696      28.492026       1.90679
  36     2.964      272.7931        0.1412      300.9574      301.0986      28.305455       2.34204
  35     3.853      272.9759        0.1844      300.8007      300.9851      28.009249       2.81105
  34     5.035      273.2482        0.2417      300.5735      300.8152      27.566970       3.15946
  33     6.613      273.6273        0.3182      300.2608      300.5789      26.951615       3.28969
  32     8.786      274.1225        0.4213      299.8509      300.2722      26.149655       3.11453
  31     11.80      274.7726        0.5687      299.3051      299.8738      25.101169       2.93543
  30     15.07      275.4025        0.7270      298.7657      299.4927      24.090252       2.60999
  29     18.79      276.0527        0.9059      298.1986      299.1045      23.051773       2.35455
  28     23.16      276.7414        1.1149      297.5845      298.6994      21.957959       2.11508
  27     28.12      277.4462        1.3539      296.9382      298.2921      20.845833       1.89054
  26     33.73      278.1161        1.6216      296.2930      297.9147      19.798559       1.57461
  25     40.54      278.7878        1.9455      295.6032      297.5486      18.760839       1.28741
  24     48.69      279.4638        2.3363      294.8582      297.1945      17.730764       1.06597
  23     57.69      280.0767        2.7661      294.1231      296.8892      16.812517       0.86072
  22     68.43      280.6669        3.2787      293.3365      296.6152      15.948295       0.67939
  21     81.20      281.1782        3.8905      292.5193      296.4098      15.231538       0.47362
  20     96.49      281.6092        4.6208      291.6561      296.2769      14.667649       0.31123
  19     114.6      282.0281        5.4881      290.6905      296.1787      14.150612       0.24142
  18     136.5      282.4615        6.5159      289.5862      296.1021      13.640568       0.19612
  17     162.9      282.9196        7.7391      288.3086      296.0477      13.128051       0.16382
  16     196.4      283.3893        9.3252      286.7295      296.0547      12.665407       0.11645
  15     218.7      283.6514       10.3665      285.7217      296.0882      12.436756       0.08681
  14     243.0      283.9143       11.4977      284.6405      296.1382      12.223858       0.07384
  13     269.0      284.1762       12.7229      283.4837      296.2066      12.030411       0.06275
  12     297.5      284.4369       14.0463      282.2477      296.2940      11.857089       0.05141
  11     328.5      284.7073       15.4753      280.9200      296.3953      11.687980       0.04598
  10     361.9      284.9874       17.0129      279.4979      296.5107      11.523307       0.04166
   9     398.1      285.2790       18.6665      277.9742      296.6407      11.361745       0.03764
   8     437.6      285.5852       20.4411      276.3426      296.7838      11.198544       0.03489
   7     480.5      285.9071       22.3422      274.5982      296.9403      11.033227       0.03247
   6     533.0      286.2989       24.6809      272.4535      297.1344      10.835513       0.03181
   5     589.8      286.7242       27.2006      270.1392      297.3399      10.615665       0.03263
   4     651.6      287.1984       29.9088      267.6380      297.5468      10.348349       0.03656
   3     718.7      287.7372       32.8136      264.9331      297.7467      10.009507       0.04258
   2     792.3      288.3771       35.9184      261.9991      297.9175       9.540394       0.05380
   1     891.5      289.3998       40.0964      257.9541      298.0504       8.650672       0.07571
   0    1013.0      290.8929       45.0934      252.9832      298.0766       7.183646       0.10186



 Wavenumbers: 22650. - 29000. cm-1, ATM      1
 LEVEL PRESSURE   UPWARD FLUX   DIFDOWN FLUX  DIRDOWN FLUX  DOWNWARD FLUX   NET FLUX    HEATING RATE
          mb          W/m2          W/m2          W/m2        W/m2          W/m2       degree/day
  51    .06700      110.8243        0.0000      113.6945      113.6945       2.870215       0.00000
  50    .07753      110.8243        0.0006      113.6939      113.6946       2.870215       0.00000
  49    .09103      110.8244        0.0014      113.6932      113.6947       2.870215      -0.00000
  48    0.1069      110.8246        0.0023      113.6924      113.6948       2.870215       0.00000
  47    0.1255      110.8247        0.0034      113.6915      113.6949       2.870215       0.00000
  46    0.1487      110.8248        0.0047      113.6904      113.6951       2.870215      -0.00000
  45    0.1794      110.8251        0.0065      113.6888      113.6953       2.870215       0.00000
  44    0.2165      110.8253        0.0086      113.6869      113.6955       2.870215       0.00000
  43    0.2613      110.8256        0.0111      113.6847      113.6958       2.870215       0.00000
  42    0.3336      110.8261        0.0153      113.6810      113.6964       2.870215      -0.00000
  41    0.4307      110.8268        0.0209      113.6762      113.6970       2.870215       0.00000
  40    0.5894      110.8279        0.0299      113.6682      113.6981       2.870215       0.00000
  39     1.339      110.8332        0.0727      113.6306      113.7034       2.870215       0.00000
  38     1.782      110.8362        0.0979      113.6085      113.7065       2.870215      -0.00000
  37     2.292      110.8398        0.1270      113.5830      113.7100       2.870215       0.00000
  36     2.964      110.8445        0.1653      113.5494      113.7147       2.870215      -0.00000
  35     3.853      110.8507        0.2158      113.5051      113.7209       2.870215       0.00000
  34     5.035      110.8589        0.2829      113.4462      113.7291       2.870215       0.00000
  33     6.613      110.8698        0.3726      113.3675      113.7400       2.870215       0.00000
  32     8.786      110.8846        0.4934      113.2615      113.7548       2.870215       0.00000
  31     11.80      110.9057        0.6661      113.1098      113.7759       2.870215       0.00000
  30     15.07      110.9284        0.8516      112.9470      113.7986       2.870215      -0.00000
  29     18.79      110.9540        1.0609      112.7633      113.8242       2.870215       0.00000
  28     23.16      110.9838        1.3053      112.5487      113.8540       2.870215      -0.00000
  27     28.12      111.0179        1.5845      112.3036      113.8881       2.870215       0.00000
  26     33.73      111.0560        1.8966      112.0297      113.9263       2.870215       0.00000
  25     40.54      111.1020        2.2731      111.6991      113.9722       2.870215      -0.00000
  24     48.69      111.1573        2.7261      111.3014      114.0275       2.870215       0.00000
  23     57.69      111.2179        3.2225      110.8655      114.0881       2.870215      -0.00000
  22     68.43      111.2897        3.8121      110.3479      114.1599       2.870215       0.00000
  21     81.20      111.3750        4.5118      109.7334      114.2452       2.870215       0.00000
  20     96.49      111.4761        5.3419      109.0044      114.3463       2.870215       0.00000
  19     114.6      111.5953        6.3218      108.1436      114.4655       2.870215      -0.00000
  18     136.5      111.7355        7.4755      107.1302      114.6057       2.870215       0.00000
  17     162.9      111.9008        8.8379      105.9332      114.7710       2.870215      -0.00000
  16     196.4      112.1127       10.5861      104.3968      114.9829       2.870215       0.00000
  15     218.7      112.2502       11.7230      103.3975      115.1204       2.870215      -0.00000
  14     243.0      112.3983       12.9488      102.3198      115.2686       2.870215       0.00000
  13     269.0      112.5572       14.2655      101.1619      115.4274       2.870215       0.00000
  12     297.5      112.7271       15.6751       99.9222      115.5973       2.870215       0.00000
  11     328.5      112.9084       17.1830       98.5956      115.7786       2.870215      -0.00000
  10     361.9      113.1012       18.7891       97.1824      115.9714       2.870215       0.00000
   9     398.1      113.3059       20.4976       95.6785      116.1761       2.870215       0.00000
   8     437.6      113.5225       22.3098       94.0829      116.3927       2.870215      -0.00000
   7     480.5      113.7510       24.2267       92.3945      116.6212       2.870215       0.00000
   6     533.0      114.0273       26.5509       90.3466      116.8975       2.870215       0.00000
   5     589.8      114.3190       29.0138       88.1754      117.1892       2.870215      -0.00000
   4     651.6      114.6258       31.6146       85.8814      117.4960       2.870215       0.00000
   3     718.7      114.9474       34.3524       83.4652      117.8176       2.870215      -0.00000
   2     792.3      115.2827       37.2221       80.9308      118.1529       2.870215      -0.00000
   1     891.5      115.7209       40.9958       77.5953      118.5911       2.870215       0.00000
   0    1013.0      116.2258       45.3820       73.7140      119.0961       2.870215      -0.00000



 Wavenumbers: 29000. - 38000. cm-1, ATM      1
 LEVEL PRESSURE   UPWARD FLUX   DIFDOWN FLUX  DIRDOWN FLUX  DOWNWARD FLUX   NET FLUX    HEATING RATE
          mb          W/m2          W/m2          W/m2        W/m2          W/m2       degree/day
  51    .06700       17.4812        0.0000       40.0934       40.0934      22.612226       0.00000
  50    .07753       17.4811        0.0004       40.0891       40.0895      22.608399       3.06747
  49    .09103       17.4809        0.0009       40.0829       40.0838      22.602829       3.48168
  48    0.1069       17.4808        0.0014       40.0748       40.0762      22.595366       3.97236
  47    0.1255       17.4807        0.0020       40.0640       40.0660      22.585377       4.52881
  46    0.1487       17.4805        0.0028       40.0484       40.0512      22.570659       5.36470
  45    0.1794       17.4803        0.0039       40.0241       40.0280      22.547685       6.30707
  44    0.2165       17.4802        0.0051       39.9916       39.9968      22.516611       7.06871
  43    0.2613       17.4801        0.0066       39.9480       39.9547      22.474634       7.91249
  42    0.3336       17.4800        0.0091       39.8663       39.8755      22.395483       9.22825
  41    0.4307       17.4800        0.0123       39.7456       39.7580      22.277927      10.22117
  40    0.5894       17.4806        0.0175       39.5227       39.5402      22.059693      11.60543
  39     1.339       17.4903        0.0404       38.1179       38.1583      20.668079      15.66705
  38     1.782       17.5007        0.0526       37.1797       37.2323      19.731599      17.82908
  37     2.292       17.5170        0.0659       36.1138       36.1797      18.662678      17.70411
  36     2.964       17.5446        0.0825       34.8546       34.9371      17.392449      15.94521
  35     3.853       17.5898        0.1035       33.4929       33.5965      16.006682      13.15119
  34     5.035       17.6584        0.1305       32.1228       32.2533      14.594957      10.08477
  33     6.613       17.7551        0.1657       30.7923       30.9581      13.202942       7.44172
  32     8.786       17.8830        0.2122       29.5330       29.7452      11.862186       5.20701
  31     11.80       18.0538        0.2776       28.2992       28.5768      10.523023       3.74923
  30     15.07       18.2235        0.3468       27.3561       27.7029       9.479385       2.69447
  29     18.79       18.4039        0.4239       26.5423       26.9662       8.562331       2.07925
  28     23.16       18.6017        0.5129       25.7988       26.3117       7.710064       1.64801
  27     28.12       18.8124        0.6139       25.1253       25.7391       6.926753       1.33158
  26     33.73       19.0205        0.7267       24.5369       25.2636       6.243105       1.02788
  25     40.54       19.2369        0.8632       23.9786       24.8418       5.604888       0.79178
  24     48.69       19.4636        1.0275       23.4348       24.4623       4.998695       0.62731
  23     57.69       19.6770        1.2078       22.9440       24.1518       4.474835       0.49104
  22     68.43       19.8892        1.4226       22.4591       23.8817       3.992540       0.37915
  21     81.20       20.0760        1.6804       21.9939       23.6743       3.598307       0.26050
  20     96.49       20.2330        1.9890       21.5345       23.5235       3.290479       0.16990
  19     114.6       20.3859        2.3521       21.0433       23.3954       3.009542       0.13118
  18     136.5       20.5458        2.7752       20.5028       23.2780       2.732137       0.10667
  17     162.9       20.7175        3.2693       19.9003       23.1696       2.452121       0.08950
  16     196.4       20.8909        3.9007       19.1885       23.0892       2.198317       0.06389
  15     218.7       20.9861        4.3075       18.7498       23.0573       2.071146       0.04828
  14     243.0       21.0809        4.7420       18.2904       23.0324       1.951439       0.04152
  13     269.0       21.1738        5.2042       17.8115       23.0157       1.841873       0.03554
  12     297.5       21.2639        5.6938       17.3135       23.0074       1.743422       0.02920
  11     328.5       21.3560        6.2103       16.7930       23.0033       1.647316       0.02613
  10     361.9       21.4496        6.7520       16.2517       23.0037       1.554100       0.02358
   9     398.1       21.5446        7.3191       15.6895       23.0086       1.463987       0.02099
   8     437.6       21.6418        7.9098       15.1074       23.0172       1.375402       0.01894
   7     480.5       21.7404        8.5229       14.5071       23.0300       1.289664       0.01684
   6     533.0       21.8551        9.2501       13.7993       23.0493       1.194222       0.01535
   5     589.8       21.9728       10.0005       13.0719       23.0724       1.099657       0.01404
   4     651.6       22.0937       10.7709       12.3279       23.0988       1.005059       0.01294
   3     718.7       22.2178       11.5570       11.5712       23.1282       0.910396       0.01190
   2     792.3       22.3447       12.3534       10.8071       23.1605       0.815727       0.01086
   1     891.5       22.5086       13.3617        9.8430       23.2047       0.696131       0.01018
   0    1013.0       22.6961       14.4720        8.7846       23.2566       0.560484       0.00942



 Wavenumbers: 38000. - 50000. cm-1, ATM      1
 LEVEL PRESSURE   UPWARD FLUX   DIFDOWN FLUX  DIRDOWN FLUX  DOWNWARD FLUX   NET FLUX    HEATING RATE
          mb          W/m2          W/m2          W/m2        W/m2          W/m2       degree/day
  51    .06700        0.0075        0.0000        2.4729        2.4729       2.465471       0.00000
  50    .07753        0.0074        0.0001        2.4705        2.4705       2.463133       1.87388
  49    .09103        0.0073        0.0002        2.4670        2.4671       2.459793       2.08774
  48    0.1069        0.0073        0.0003        2.4624        2.4627       2.455396       2.34060
  47    0.1255        0.0072        0.0004        2.4564        2.4568       2.449603       2.62642
  46    0.1487        0.0071        0.0005        2.4478        2.4483       2.441193       3.06527
  45    0.1794        0.0069        0.0007        2.4345        2.4351       2.428233       3.55800
  44    0.2165        0.0067        0.0009        2.4168        2.4177       2.410928       3.93658
  43    0.2613        0.0066        0.0012        2.3933        2.3944       2.387856       4.34899
  42    0.3336        0.0063        0.0015        2.3498        2.3513       2.345021       4.99412
  41    0.4307        0.0059        0.0020        2.2865        2.2885       2.282594       5.42785
  40    0.5894        0.0054        0.0027        2.1724        2.1751       2.169754       6.00072
  39     1.339        0.0035        0.0041        1.5331        1.5372       1.533683       7.16100
  38     1.782        0.0028        0.0039        1.1805        1.1844       1.181569       6.70370
  37     2.292        0.0022        0.0034        0.8531        0.8566       0.854351       5.41957
  36     2.964        0.0017        0.0029        0.5651        0.5680       0.566279       3.61618
  35     3.853        0.0013        0.0023        0.3577        0.3600       0.358659       1.97035
  34     5.035        0.0010        0.0018        0.2240        0.2258       0.224787       0.95633
  33     6.613        0.0008        0.0015        0.1390        0.1405       0.139707       0.45484
  32     8.786        0.0006        0.0012        0.0864        0.0876       0.086996       0.20471
  31     11.80        0.0004        0.0009        0.0521        0.0530       0.052589       0.09633
  30     15.07        0.0003        0.0007        0.0334        0.0341       0.033823       0.04845
  29     18.79        0.0002        0.0005        0.0214        0.0219       0.021740       0.02740
  28     23.16        0.0001        0.0004        0.0134        0.0138       0.013620       0.01570
  27     28.12        0.0001        0.0002        0.0082        0.0085       0.008374       0.00892
  26     33.73        0.0001        0.0002        0.0050        0.0052       0.005156       0.00484
  25     40.54        0.0000        0.0001        0.0030        0.0031       0.003058       0.00260
  24     48.69        0.0000        0.0001        0.0017        0.0018       0.001725       0.00138
  23     57.69        0.0000        0.0000        0.0009        0.0010       0.000968       0.00071
  22     68.43        0.0000        0.0000        0.0005        0.0005       0.000513       0.00036
  21     81.20        0.0000        0.0000        0.0002        0.0003       0.000257       0.00017
  20     96.49        0.0000        0.0000        0.0001        0.0001       0.000119       0.00008
  19     114.6        0.0000        0.0000        0.0000        0.0000       0.000049       0.00003
  18     136.5        0.0000        0.0000        0.0000        0.0000       0.000017       0.00001
  17     162.9        0.0000        0.0000        0.0000        0.0000       0.000005       0.00000
  16     196.4        0.0000        0.0000        0.0000        0.0000       0.000001       0.00000
  15     218.7        0.0000        0.0000        0.0000        0.0000       0.000000       0.00000
  14     243.0        0.0000        0.0000        0.0000        0.0000       0.000000       0.00000
  13     269.0        0.0000        0.0000        0.0000        0.0000       0.000000       0.00000
  12     297.5        0.0000        0.0000        0.0000        0.0000       0.000000       0.00000
  11     328.5        0.0000        0.0000        0.0000        0.0000       0.000000       0.00000
  10     361.9        0.0000        0.0000        0.0000        0.0000       0.000000       0.00000
   9     398.1        0.0000        0.0000        0.0000        0.0000       0.000000       0.00000
   8     437.6        0.0000        0.0000        0.0000        0.0000       0.000000       0.00000
   7     480.5        0.0000        0.0000        0.0000        0.0000       0.000000       0.00000
   6     533.0        0.0000        0.0000        0.0000        0.0000       0.000000       0.00000
   5     589.8        0.0000        0.0000        0.0000        0.0000       0.000000       0.00000
   4     651.6        0.0000        0.0000        0.0000        0.0000       0.000000       0.00000
   3     718.7        0.0000        0.0000        0.0000        0.0000       0.000000       0.00000
   2     792.3        0.0000        0.0000        0.0000        0.0000       0.000000       0.00000
   1     891.5        0.0000        0.0000        0.0000        0.0000       0.000000       0.00000
   0    1013.0        0.0000        0.0000        0.0000        0.0000       0.000000       0.00000



 Wavenumbers:   820. -  2600. cm-1, ATM      1
 LEVEL PRESSURE   UPWARD FLUX   DIFDOWN FLUX  DIRDOWN FLUX  DOWNWARD FLUX   NET FLUX    HEATING RATE
          mb          W/m2          W/m2          W/m2        W/m2          W/m2       degree/day
  51    .06700        1.5057        0.0000       11.5681       11.5681      10.062394       0.00000
  50    .07753        1.5057        0.0000       11.5617       11.5617      10.056002       5.12281
  49    .09103        1.5057        0.0000       11.5603       11.5603      10.054663       0.83720
  48    0.1069        1.5057        0.0000       11.5592       11.5592      10.053570       0.58154
  47    0.1255        1.5057        0.0000       11.5580       11.5580      10.052305       0.57364
  46    0.1487        1.5057        0.0000       11.5563       11.5563      10.050686       0.59007
  45    0.1794        1.5057        0.0000       11.5542       11.5542      10.048503       0.59927
  44    0.2165        1.5057        0.0000       11.5517       11.5517      10.046005       0.56832
  43    0.2613        1.5057        0.0000       11.5489       11.5489      10.043196       0.52952
  42    0.3336        1.5057        0.0000       11.5446       11.5446      10.038949       0.49513
  41    0.4307        1.5057        0.0000       11.5397       11.5397      10.033994       0.43081
  40    0.5894        1.5057        0.0000       11.5325       11.5325      10.026846       0.38013
  39     1.339        1.5057        0.0000       11.5013       11.5013       9.995652       0.35119
  38     1.782        1.5057        0.0000       11.4835       11.4835       9.977869       0.33857
  37     2.292        1.5057        0.0000       11.4636       11.4636       9.957910       0.33057
  36     2.964        1.5057        0.0000       11.4381       11.4381       9.932451       0.31958
  35     3.853        1.5057        0.0000       11.4054       11.4054       9.899730       0.31053
  34     5.035        1.5057        0.0000       11.3636       11.3636       9.857947       0.29848
  33     6.613        1.5057        0.0000       11.3110       11.3110       9.805292       0.28149
  32     8.786        1.5057        0.0000       11.2446       11.2446       9.738857       0.25801
  31     11.80        1.5057        0.0000       11.1560       11.1560       9.650231       0.24812
  30     15.07        1.5057        0.0000       11.0693       11.0693       9.563580       0.22372
  29     18.79        1.5058        0.0000       10.9848       10.9848       9.479022       0.19172
  28     23.16        1.5058        0.0000       10.9059       10.9059       9.400107       0.15260
  27     28.12        1.5058        0.0000       10.8393       10.8393       9.333465       0.11329
  26     33.73        1.5059        0.0000       10.7871       10.7871       9.281258       0.07849
  25     40.54        1.5059        0.0000       10.7432       10.7432       9.237285       0.05455
  24     48.69        1.5060        0.0000       10.7033       10.7033       9.197328       0.04135
  23     57.69        1.5060        0.0000       10.6646       10.6646       9.158580       0.03632
  22     68.43        1.5061        0.0000       10.6200       10.6200       9.113896       0.03513
  21     81.20        1.5061        0.0000       10.5678       10.5678       9.061682       0.03450
  20     96.49        1.5062        0.0000       10.5063       10.5063       9.000047       0.03402
  19     114.6        1.5064        0.0000       10.4330       10.4330       8.926673       0.03426
  18     136.5        1.5065        0.0000       10.3463       10.3464       8.839852       0.03338
  17     162.9        1.5067        0.0000       10.2345       10.2345       8.727811       0.03581
  16     196.4        1.5071        0.0000       10.0555       10.0555       8.548468       0.04514
  15     218.7        1.5074        0.0000        9.8804        9.8805       8.373027       0.06661
  14     243.0        1.5080        0.0000        9.6052        9.6052       8.097228       0.09566
  13     269.0        1.5089        0.0000        9.2391        9.2391       7.730263       0.11904
  12     297.5        1.5102        0.0000        8.8376        8.8376       7.327388       0.11949
  11     328.5        1.5121        0.0000        8.4912        8.4912       6.979110       0.09470
  10     361.9        1.5146        0.0000        8.1363        8.1363       6.621669       0.09044
   9     398.1        1.5179        0.0000        7.7209        7.7210       6.203049       0.09753
   8     437.6        1.5222        0.0000        7.2499        7.2499       5.727707       0.10163
   7     480.5        1.5275        0.0000        6.7952        6.7953       5.267751       0.09033
   6     533.0        1.5357        0.0000        6.3756        6.3757       4.840005       0.06881
   5     589.8        1.5478        0.0001        6.0737        6.0737       4.525943       0.04662
   4     651.6        1.5691        0.0001        5.7927        5.7928       4.223630       0.04134
   3     718.7        1.6058        0.0001        5.4565        5.4566       3.850789       0.04686
   2     792.3        1.6728        0.0001        5.0450        5.0450       3.372169       0.05489
   1     891.5        1.8444        0.0001        4.4718        4.4719       2.627471       0.06337
   0    1013.0        2.3040        0.0001        3.7963        3.7963       1.492338       0.07882

  Modules and versions used in this calculation:

       rrtmg_sw.1col.f90:  $Revision$                    rrtmg_sw_init.f90:  $Revision$        
     rrtmgsw_cldprop.f90:  $Revision$                  rrtmgsw_cldprmc.f90:  NOT USED          
     rrtmg_sw_reftra.f90:  $Revision$                  rrtmg_sw_spcvrt.f90:  NOT USED          
     rrtmg_sw_spcvmc.f90:  NOT USED                    rrtmgsw_setcoef.f90:  NOT USED          
     rrtmg_sw_taumol.f90:  $Revision$                  rrtmg_sw_vrtqdr.f90:  NOT USED          
                rrtatm.f:  NOT USED                             util_xxx.f:  NOT USED          
                 extra.f:  NOT USED                       rrtmg_sw_k_g.f90:  $Revision$        

