

 Wavenumbers:   820. - 50000. cm-1, ATM      1
 LEVEL PRESSURE   UPWARD FLUX   DIFDOWN FLUX  DIRDOWN FLUX  DOWNWARD FLUX   NET FLUX    HEATING RATE
          mb          W/m2          W/m2          W/m2        W/m2          W/m2       degree/day
  51    .06700      277.1917        0.0000      397.8738      397.8738     120.682046       0.00000
  50    .07753      277.1912        0.0012      397.8577      397.8589     120.667752      11.45712
  49    .09103      277.1904        0.0027      397.8418      397.8445     120.654059       8.55843
  48    0.1069      277.1896        0.0044      397.8230      397.8273     120.637705       8.70511
  47    0.1255      277.1887        0.0063      397.7997      397.8060     120.617255       9.27104
  46    0.1487      277.1876        0.0088      397.7676      397.7764     120.588788      10.37683
  45    0.1794      277.1862        0.0122      397.7205      397.7327     120.546480      11.61446
  44    0.2165      277.1846        0.0161      397.6602      397.6764     120.491811      12.43620
  43    0.2613      277.1827        0.0208      397.5829      397.6037     120.420987      13.35004
  42    0.3336      277.1799        0.0285      397.4449      397.4734     120.293498      14.86398
  41    0.4307      277.1765        0.0386      397.2524      397.2910     120.114554      15.55873
  40    0.5894      277.1715        0.0549      396.9253      396.9802     119.808698      16.26506
  39     1.339      277.1600        0.1276      395.4254      395.5530     118.392971      15.93851
  38     1.782      277.1613        0.1684      394.7288      394.8972     117.735894      12.50968
  37     2.292      277.1699        0.2148      394.0572      394.2720     117.102132      10.49676
  36     2.964      277.1917        0.2751      393.3007      393.5758     116.384117       9.01325
  35     3.853      277.2352        0.3540      392.4318      392.7858     115.550548       7.91072
  34     5.035      277.3076        0.4577      391.4441      391.9018     114.594225       6.83158
  33     6.613      277.4122        0.5952      390.3268      390.9219     113.509749       5.79761
  32     8.786      277.5472        0.7790      389.0624      389.8414     112.294198       4.72076
  31     11.80      277.7156        1.0400      387.5500      388.5900     110.874422       3.97493
  30     15.07      277.8672        1.3180      386.1556      387.4736     109.606368       3.27387
  29     18.79      278.0126        1.6296      384.7502      386.3798     108.367167       2.80965
  28     23.16      278.1525        1.9907      383.2686      385.2593     107.106763       2.43721
  27     28.12      278.2776        2.4003      381.7329      384.1332     105.855577       2.12693
  26     33.73      278.3664        2.8554      380.1982      383.0536     104.687178       1.75672
  25     40.54      278.4145        3.4013      378.5384      381.9397     103.525252       1.44150
  24     48.69      278.4157        4.0538      376.7214      380.7753     102.359590       1.20628
  23     57.69      278.3626        4.7640      374.8959      379.6599     101.297267       0.99577
  22     68.43      278.2410        5.6014      372.8999      378.5013     100.260292       0.81520
  21     81.20      278.0156        6.5887      370.7496      377.3384      99.322776       0.61950
  20     96.49      277.6741        7.7507      368.4056      376.1562      98.482115       0.46398
  19     114.6      277.2454        9.1085      365.7513      374.8597      97.614316       0.40520
  18     136.5      276.7215       10.6862      362.7231      373.4093      96.687846       0.35625
  17     162.9      276.0893       12.5214      359.1748      371.6962      95.606889       0.34552
  16     196.4      275.2403       14.8369      354.5718      369.4088      94.168497       0.36206
  15     218.7      274.6785       16.3190      351.4437      367.7627      93.084185       0.41167
  14     243.0      274.0737       17.8964      347.7111      365.6075      91.533796       0.53773
  13     269.0      273.4288       19.5674      342.9441      362.5115      89.082661       0.79514
  12     297.5      272.7483       21.3300      337.4137      358.7437      85.995382       0.91565
  11     328.5      272.0417       23.1861      331.1302      354.3163      82.274606       1.01167
  10     361.9      271.3199       25.1304      324.1219      349.2523      77.932479       1.09860
   9     398.1      270.5943       27.1626      316.6066      343.7692      73.174859       1.10842
   8     437.6      269.8887       29.2783      308.5895      337.8678      67.979124       1.11088
   7     480.5      269.2456       31.4718      299.9349      331.4067      62.161123       1.14263
   6     533.0      268.6397       34.0733      289.7021      323.7755      55.135755       1.13016
   5     589.8      268.2553       36.7625      279.3388      316.1013      47.846019       1.08204
   4     651.6      268.2412       39.5274      268.7786      308.3060      40.064833       1.06410
   3     718.7      268.7252       42.3595      258.2837      300.6432      31.917977       1.02383
   2     792.3      269.8757       45.2451      248.0774      293.3225      23.446758       0.97155
   1     891.5       41.3536       61.7332        0.0000       61.7332      20.379625       0.26100
   0    1013.0       41.3176       61.0898        0.0000       61.0898      19.772251       0.04217



 Wavenumbers:  2600. -  3250. cm-1, ATM      1
 LEVEL PRESSURE   UPWARD FLUX   DIFDOWN FLUX  DIRDOWN FLUX  DOWNWARD FLUX   NET FLUX    HEATING RATE
          mb          W/m2          W/m2          W/m2        W/m2          W/m2       degree/day
  51    .06700        1.1659        0.0000        3.5066        3.5066       2.340740       0.00000
  50    .07753        1.1659        0.0000        3.5066        3.5066       2.340732       0.00640
  49    .09103        1.1659        0.0000        3.5066        3.5066       2.340722       0.00627
  48    0.1069        1.1659        0.0000        3.5066        3.5066       2.340711       0.00613
  47    0.1255        1.1659        0.0000        3.5066        3.5066       2.340698       0.00599
  46    0.1487        1.1659        0.0000        3.5066        3.5066       2.340681       0.00607
  45    0.1794        1.1659        0.0000        3.5065        3.5065       2.340658       0.00624
  44    0.2165        1.1659        0.0000        3.5065        3.5065       2.340631       0.00611
  43    0.2613        1.1659        0.0000        3.5065        3.5065       2.340600       0.00598
  42    0.3336        1.1659        0.0000        3.5064        3.5064       2.340547       0.00615
  41    0.4307        1.1659        0.0000        3.5064        3.5064       2.340476       0.00618
  40    0.5894        1.1659        0.0000        3.5062        3.5062       2.340357       0.00633
  39     1.339        1.1659        0.0000        3.5055        3.5055       2.339658       0.00787
  38     1.782        1.1659        0.0000        3.5050        3.5050       2.339127       0.01011
  37     2.292        1.1659        0.0000        3.5043        3.5043       2.338435       0.01147
  36     2.964        1.1659        0.0000        3.5033        3.5033       2.337443       0.01245
  35     3.853        1.1659        0.0000        3.5019        3.5019       2.336066       0.01307
  34     5.035        1.1659        0.0000        3.5001        3.5001       2.334205       0.01329
  33     6.613        1.1659        0.0000        3.4977        3.4977       2.331795       0.01288
  32     8.786        1.1659        0.0000        3.4947        3.4947       2.328824       0.01154
  31     11.80        1.1659        0.0000        3.4911        3.4911       2.325188       0.01018
  30     15.07        1.1659        0.0000        3.4878        3.4878       2.321966       0.00832
  29     18.79        1.1659        0.0000        3.4848        3.4848       2.318900       0.00695
  28     23.16        1.1659        0.0000        3.4816        3.4816       2.315678       0.00623
  27     28.12        1.1659        0.0000        3.4779        3.4779       2.312056       0.00616
  26     33.73        1.1659        0.0000        3.4735        3.4735       2.307585       0.00672
  25     40.54        1.1659        0.0000        3.4671        3.4672       2.301250       0.00786
  24     48.69        1.1659        0.0000        3.4582        3.4583       2.292343       0.00922
  23     57.69        1.1659        0.0000        3.4472        3.4472       2.281277       0.01037
  22     68.43        1.1660        0.0000        3.4329        3.4330       2.266992       0.01123
  21     81.20        1.1660        0.0000        3.4152        3.4152       2.249227       0.01174
  20     96.49        1.1661        0.0000        3.3940        3.3941       2.228031       0.01170
  19     114.6        1.1661        0.0000        3.3692        3.3692       2.203068       0.01166
  18     136.5        1.1663        0.0001        3.3419        3.3420       2.175745       0.01051
  17     162.9        1.1664        0.0001        3.3129        3.3129       2.146511       0.00934
  16     196.4        1.1668        0.0001        3.2793        3.2794       2.112647       0.00852
  15     218.7        1.1671        0.0001        3.2578        3.2579       2.090748       0.00831
  14     243.0        1.1676        0.0001        3.2320        3.2321       2.064433       0.00913
  13     269.0        1.1685        0.0001        3.1968        3.1969       2.028465       0.01167
  12     297.5        1.1698        0.0001        3.1489        3.1491       1.979271       0.01459
  11     328.5        1.1718        0.0001        3.0821        3.0822       1.910401       0.01873
  10     361.9        1.1747        0.0001        2.9902        2.9904       1.815638       0.02398
   9     398.1        1.1790        0.0001        2.8715        2.8716       1.692630       0.02866
   8     437.6        1.1852        0.0002        2.7276        2.7278       1.542634       0.03207
   7     480.5        1.1945        0.0002        2.5595        2.5597       1.365217       0.03484
   6     533.0        1.2102        0.0002        2.3617        2.3619       1.151710       0.03435
   5     589.8        1.2334        0.0002        2.1649        2.1651       0.931674       0.03266
   4     651.6        1.2682        0.0002        1.9608        1.9609       0.692784       0.03267
   3     718.7        1.3182        0.0002        1.7593        1.7595       0.441330       0.03160
   2     792.3        1.3887        0.0002        1.5761        1.5762       0.187549       0.02911
   1     891.5        0.0073        0.1126        0.0000        0.1126       0.105314       0.00700
   0    1013.0        0.0079        0.1026        0.0000        0.1026       0.094690       0.00074



 Wavenumbers:  3250. -  4000. cm-1, ATM      1
 LEVEL PRESSURE   UPWARD FLUX   DIFDOWN FLUX  DIRDOWN FLUX  DOWNWARD FLUX   NET FLUX    HEATING RATE
          mb          W/m2          W/m2          W/m2        W/m2          W/m2       degree/day
  51    .06700        0.0107        0.0000        5.9117        5.9117       5.900945       0.00000
  50    .07753        0.0107        0.0000        5.9075        5.9075       5.896755       3.35808
  49    .09103        0.0107        0.0000        5.9050        5.9050       5.894312       1.52677
  48    0.1069        0.0107        0.0000        5.9032        5.9032       5.892446       0.99346
  47    0.1255        0.0107        0.0000        5.9014        5.9014       5.890688       0.79708
  46    0.1487        0.0107        0.0000        5.8995        5.8995       5.888799       0.68848
  45    0.1794        0.0107        0.0000        5.8974        5.8974       5.886651       0.58983
  44    0.2165        0.0107        0.0000        5.8952        5.8952       5.884534       0.48155
  43    0.2613        0.0107        0.0000        5.8931        5.8931       5.882375       0.40696
  42    0.3336        0.0107        0.0000        5.8899        5.8899       5.879217       0.36820
  41    0.4307        0.0107        0.0000        5.8861        5.8861       5.875379       0.33365
  40    0.5894        0.0107        0.0000        5.8803        5.8803       5.869577       0.30857
  39     1.339        0.0107        0.0000        5.8597        5.8597       5.848979       0.23189
  38     1.782        0.0107        0.0000        5.8513        5.8513       5.840555       0.16039
  37     2.292        0.0107        0.0000        5.8431        5.8431       5.832384       0.13533
  36     2.964        0.0107        0.0000        5.8334        5.8334       5.822744       0.12100
  35     3.853        0.0107        0.0000        5.8213        5.8213       5.810569       0.11555
  34     5.035        0.0107        0.0000        5.8052        5.8052       5.794473       0.11498
  33     6.613        0.0107        0.0000        5.7833        5.7834       5.772652       0.11666
  32     8.786        0.0107        0.0000        5.7531        5.7531       5.742451       0.11729
  31     11.80        0.0107        0.0000        5.7090        5.7090       5.698282       0.12366
  30     15.07        0.0107        0.0000        5.6615        5.6615       5.650817       0.12254
  29     18.79        0.0107        0.0000        5.6093        5.6094       5.598681       0.11821
  28     23.16        0.0107        0.0000        5.5524        5.5524       5.541756       0.11008
  27     28.12        0.0107        0.0000        5.4935        5.4935       5.482877       0.10009
  26     33.73        0.0107        0.0000        5.4348        5.4349       5.424188       0.08824
  25     40.54        0.0107        0.0001        5.3707        5.3708       5.360126       0.07948
  24     48.69        0.0106        0.0001        5.2985        5.2985       5.287893       0.07475
  23     57.69        0.0106        0.0001        5.2215        5.2216       5.210954       0.07212
  22     68.43        0.0106        0.0001        5.1318        5.1319       5.121294       0.07048
  21     81.20        0.0106        0.0001        5.0284        5.0285       5.017865       0.06834
  20     96.49        0.0106        0.0001        4.9122        4.9123       4.901730       0.06410
  19     114.6        0.0106        0.0001        4.7780        4.7782       4.767619       0.06262
  18     136.5        0.0105        0.0002        4.6285        4.6287       4.618141       0.05748
  17     162.9        0.0105        0.0002        4.4406        4.4407       4.430228       0.06006
  16     196.4        0.0105        0.0002        4.1548        4.1550       4.144553       0.07191
  15     218.7        0.0105        0.0002        3.9564        3.9566       3.946170       0.07532
  14     243.0        0.0104        0.0002        3.7055        3.7058       3.695330       0.08700
  13     269.0        0.0104        0.0002        3.3399        3.3401       3.329678       0.11862
  12     297.5        0.0104        0.0002        2.8954        2.8956       2.885158       0.13184
  11     328.5        0.0105        0.0002        2.4388        2.4390       2.428558       0.12415
  10     361.9        0.0106        0.0002        2.0269        2.0271       2.016510       0.10425
   9     398.1        0.0108        0.0002        1.6753        1.6755       1.664730       0.08196
   8     437.6        0.0111        0.0002        1.3592        1.3594       1.348278       0.06766
   7     480.5        0.0117        0.0002        1.0616        1.0618       1.050090       0.05856
   6     533.0        0.0129        0.0001        0.7543        0.7544       0.741510       0.04964
   5     589.8        0.0152        0.0001        0.4951        0.4952       0.480021       0.03881
   4     651.6        0.0197        0.0001        0.2943        0.2943       0.274649       0.02809
   3     718.7        0.0285        0.0001        0.1528        0.1529       0.124348       0.01889
   2     792.3        0.0466        0.0000        0.0658        0.0658       0.019265       0.01205
   1     891.5        0.0000        0.0007        0.0000        0.0007       0.000731       0.00158
   0    1013.0        0.0000        0.0002        0.0000        0.0002       0.000165       0.00004



 Wavenumbers:  4000. -  4650. cm-1, ATM      1
 LEVEL PRESSURE   UPWARD FLUX   DIFDOWN FLUX  DIRDOWN FLUX  DOWNWARD FLUX   NET FLUX    HEATING RATE
          mb          W/m2          W/m2          W/m2        W/m2          W/m2       degree/day
  51    .06700        4.1257        0.0000        6.9421        6.9421       2.816402       0.00000
  50    .07753        4.1257        0.0000        6.9421        6.9421       2.816401       0.00079
  49    .09103        4.1257        0.0000        6.9421        6.9421       2.816400       0.00078
  48    0.1069        4.1257        0.0000        6.9421        6.9421       2.816398       0.00076
  47    0.1255        4.1257        0.0000        6.9421        6.9421       2.816396       0.00074
  46    0.1487        4.1257        0.0000        6.9421        6.9421       2.816394       0.00075
  45    0.1794        4.1257        0.0000        6.9421        6.9421       2.816392       0.00077
  44    0.2165        4.1257        0.0000        6.9421        6.9421       2.816388       0.00076
  43    0.2613        4.1257        0.0000        6.9420        6.9420       2.816384       0.00074
  42    0.3336        4.1257        0.0000        6.9420        6.9420       2.816378       0.00076
  41    0.4307        4.1257        0.0000        6.9420        6.9420       2.816369       0.00077
  40    0.5894        4.1257        0.0000        6.9420        6.9420       2.816354       0.00079
  39     1.339        4.1257        0.0000        6.9419        6.9419       2.816265       0.00100
  38     1.782        4.1257        0.0000        6.9418        6.9419       2.816196       0.00132
  37     2.292        4.1257        0.0000        6.9418        6.9418       2.816102       0.00155
  36     2.964        4.1257        0.0000        6.9416        6.9416       2.815963       0.00175
  35     3.853        4.1257        0.0000        6.9414        6.9414       2.815756       0.00196
  34     5.035        4.1257        0.0000        6.9411        6.9411       2.815451       0.00218
  33     6.613        4.1257        0.0000        6.9406        6.9407       2.815003       0.00240
  32     8.786        4.1256        0.0000        6.9399        6.9400       2.814342       0.00257
  31     11.80        4.1256        0.0001        6.9389        6.9389       2.813306       0.00290
  30     15.07        4.1256        0.0001        6.9377        6.9377       2.812093       0.00313
  29     18.79        4.1256        0.0001        6.9362        6.9363       2.810631       0.00332
  28     23.16        4.1256        0.0001        6.9343        6.9344       2.808822       0.00350
  27     28.12        4.1256        0.0001        6.9321        6.9323       2.806640       0.00371
  26     33.73        4.1256        0.0001        6.9294        6.9296       2.803961       0.00403
  25     40.54        4.1256        0.0002        6.9258        6.9260       2.800347       0.00448
  24     48.69        4.1257        0.0002        6.9210        6.9212       2.795558       0.00496
  23     57.69        4.1257        0.0003        6.9154        6.9156       2.789918       0.00529
  22     68.43        4.1257        0.0003        6.9083        6.9086       2.782898       0.00552
  21     81.20        4.1258        0.0004        6.8998        6.9001       2.774301       0.00568
  20     96.49        4.1260        0.0004        6.8894        6.8899       2.763899       0.00574
  19     114.6        4.1262        0.0005        6.8765        6.8770       2.750844       0.00610
  18     136.5        4.1265        0.0006        6.8610        6.8616       2.735054       0.00607
  17     162.9        4.1271        0.0007        6.8417        6.8424       2.715335       0.00630
  16     196.4        4.1280        0.0009        6.8147        6.8155       2.687550       0.00699
  15     218.7        4.1288        0.0010        6.7948        6.7958       2.666997       0.00780
  14     243.0        4.1300        0.0011        6.7698        6.7708       2.640833       0.00907
  13     269.0        4.1319        0.0012        6.7349        6.7360       2.604085       0.01192
  12     297.5        4.1348        0.0013        6.6869        6.6881       2.553314       0.01506
  11     328.5        4.1389        0.0014        6.6194        6.6208       2.481847       0.01943
  10     361.9        4.1444        0.0015        6.5295        6.5310       2.386633       0.02409
   9     398.1        4.1516        0.0017        6.4202        6.4219       2.270339       0.02709
   8     437.6        4.1612        0.0018        6.2962        6.2980       2.136790       0.02855
   7     480.5        4.1747        0.0020        6.1555        6.1575       1.982791       0.03024
   6     533.0        4.1968        0.0021        5.9675        5.9697       1.772858       0.03377
   5     589.8        4.2295        0.0023        5.7368        5.7391       1.509515       0.03909
   4     651.6        4.2786        0.0025        5.4662        5.4687       1.190095       0.04368
   3     718.7        4.3491        0.0026        5.1912        5.1938       0.844751       0.04340
   2     792.3        4.4474        0.0028        4.9395        4.9423       0.494933       0.04012
   1     891.5        0.0201        0.3963        0.0000        0.3963       0.376116       0.01011
   0    1013.0        0.0209        0.3806        0.0000        0.3806       0.359757       0.00114



 Wavenumbers:  4650. -  5150. cm-1, ATM      1
 LEVEL PRESSURE   UPWARD FLUX   DIFDOWN FLUX  DIRDOWN FLUX  DOWNWARD FLUX   NET FLUX    HEATING RATE
          mb          W/m2          W/m2          W/m2        W/m2          W/m2       degree/day
  51    .06700        2.8959        0.0000        6.5710        6.5710       3.675098       0.00000
  50    .07753        2.8959        0.0000        6.5708        6.5708       3.674862       0.18887
  49    .09103        2.8959        0.0000        6.5705        6.5705       3.674568       0.18362
  48    0.1069        2.8959        0.0000        6.5701        6.5701       3.674234       0.17806
  47    0.1255        2.8959        0.0000        6.5697        6.5697       3.673854       0.17238
  46    0.1487        2.8959        0.0000        6.5693        6.5693       3.673380       0.17268
  45    0.1794        2.8959        0.0000        6.5686        6.5686       3.672744       0.17474
  44    0.2165        2.8959        0.0000        6.5679        6.5679       3.672006       0.16788
  43    0.2613        2.8959        0.0000        6.5670        6.5670       3.671153       0.16078
  42    0.3336        2.8959        0.0000        6.5657        6.5657       3.669789       0.15894
  41    0.4307        2.8959        0.0000        6.5640        6.5640       3.668067       0.14971
  40    0.5894        2.8959        0.0000        6.5613        6.5613       3.665451       0.13913
  39     1.339        2.8959        0.0000        6.5516        6.5516       3.655673       0.11008
  38     1.782        2.8959        0.0000        6.5473        6.5473       3.651457       0.08027
  37     2.292        2.8959        0.0000        6.5434        6.5435       3.647570       0.06439
  36     2.964        2.8959        0.0000        6.5395        6.5395       3.643614       0.04965
  35     3.853        2.8959        0.0000        6.5355        6.5356       3.639670       0.03743
  34     5.035        2.8959        0.0000        6.5315        6.5315       3.635666       0.02861
  33     6.613        2.8959        0.0000        6.5271        6.5271       3.631268       0.02351
  32     8.786        2.8959        0.0001        6.5216        6.5216       3.625766       0.02137
  31     11.80        2.8959        0.0001        6.5135        6.5136       3.617676       0.02265
  30     15.07        2.8959        0.0001        6.5041        6.5042       3.608291       0.02423
  29     18.79        2.8959        0.0001        6.4925        6.4926       3.596752       0.02616
  28     23.16        2.8959        0.0002        6.4779        6.4780       3.582128       0.02828
  27     28.12        2.8960        0.0002        6.4599        6.4601       3.564109       0.03063
  26     33.73        2.8960        0.0002        6.4384        6.4386       3.542619       0.03231
  25     40.54        2.8961        0.0003        6.4112        6.4115       3.515412       0.03375
  24     48.69        2.8962        0.0003        6.3775        6.3778       3.481659       0.03493
  23     57.69        2.8963        0.0004        6.3404        6.3407       3.444420       0.03491
  22     68.43        2.8965        0.0004        6.2971        6.2976       3.401027       0.03411
  21     81.20        2.8968        0.0005        6.2483        6.2488       3.351933       0.03244
  20     96.49        2.8973        0.0006        6.1948        6.1954       3.298177       0.02967
  19     114.6        2.8978        0.0007        6.1381        6.1389       3.241014       0.02669
  18     136.5        2.8987        0.0008        6.0790        6.0798       3.181179       0.02301
  17     162.9        2.8998        0.0010        6.0160        6.0170       3.117210       0.02045
  16     196.4        2.9017        0.0012        5.9399        5.9411       3.039406       0.01958
  15     218.7        2.9031        0.0013        5.8896        5.8910       2.987841       0.01958
  14     243.0        2.9050        0.0015        5.8322        5.8336       2.928614       0.02054
  13     269.0        2.9078        0.0016        5.7624        5.7640       2.856251       0.02347
  12     297.5        2.9116        0.0018        5.6767        5.6785       2.766870       0.02651
  11     328.5        2.9169        0.0019        5.5726        5.5745       2.657630       0.02970
  10     361.9        2.9240        0.0021        5.4473        5.4494       2.525414       0.03345
   9     398.1        2.9335        0.0022        5.2995        5.3017       2.368199       0.03663
   8     437.6        2.9463        0.0024        5.1275        5.1299       2.183543       0.03948
   7     480.5        2.9638        0.0026        4.9290        4.9316       1.967711       0.04239
   6     533.0        2.9916        0.0028        4.6794        4.6821       1.690572       0.04458
   5     589.8        3.0305        0.0029        4.4188        4.4217       1.391247       0.04443
   4     651.6        3.0859        0.0031        4.1521        4.1552       1.069310       0.04403
   3     718.7        3.1618        0.0033        3.8929        3.8962       0.734397       0.04209
   2     792.3        3.2641        0.0034        3.6469        3.6503       0.386187       0.03994
   1     891.5        0.0144        0.2818        0.0000        0.2818       0.267311       0.01012
   0    1013.0        0.0151        0.2671        0.0000        0.2671       0.252010       0.00106



 Wavenumbers:  5150. -  6150. cm-1, ATM      1
 LEVEL PRESSURE   UPWARD FLUX   DIFDOWN FLUX  DIRDOWN FLUX  DOWNWARD FLUX   NET FLUX    HEATING RATE
          mb          W/m2          W/m2          W/m2        W/m2          W/m2       degree/day
  51    .06700        7.1347        0.0000       16.4735       16.4735       9.338848       0.00000
  50    .07753        7.1347        0.0000       16.4735       16.4735       9.338813       0.02764
  49    .09103        7.1347        0.0000       16.4734       16.4734       9.338768       0.02814
  48    0.1069        7.1347        0.0000       16.4734       16.4734       9.338714       0.02862
  47    0.1255        7.1347        0.0000       16.4733       16.4733       9.338650       0.02907
  46    0.1487        7.1347        0.0000       16.4732       16.4732       9.338566       0.03063
  45    0.1794        7.1347        0.0000       16.4731       16.4731       9.338447       0.03272
  44    0.2165        7.1347        0.0000       16.4730       16.4730       9.338300       0.03334
  43    0.2613        7.1347        0.0000       16.4728       16.4728       9.338121       0.03379
  42    0.3336        7.1347        0.0000       16.4725       16.4725       9.337815       0.03567
  41    0.4307        7.1347        0.0000       16.4720       16.4720       9.337395       0.03649
  40    0.5894        7.1347        0.0000       16.4713       16.4713       9.336694       0.03732
  39     1.339        7.1346        0.0000       16.4679       16.4679       9.333281       0.03842
  38     1.782        7.1346        0.0001       16.4659       16.4659       9.331279       0.03812
  37     2.292        7.1346        0.0001       16.4635       16.4636       9.328984       0.03802
  36     2.964        7.1346        0.0001       16.4605       16.4606       9.326008       0.03735
  35     3.853        7.1346        0.0001       16.4567       16.4568       9.322146       0.03665
  34     5.035        7.1346        0.0001       16.4516       16.4517       9.317136       0.03579
  33     6.613        7.1346        0.0002       16.4451       16.4453       9.310657       0.03464
  32     8.786        7.1346        0.0003       16.4367       16.4369       9.302316       0.03239
  31     11.80        7.1346        0.0003       16.4254       16.4257       9.291121       0.03134
  30     15.07        7.1346        0.0004       16.4141       16.4146       9.279982       0.02876
  29     18.79        7.1346        0.0006       16.4024       16.4030       9.268398       0.02627
  28     23.16        7.1346        0.0007       16.3900       16.3907       9.256057       0.02386
  27     28.12        7.1346        0.0008       16.3771       16.3779       9.243297       0.02169
  26     33.73        7.1347        0.0010       16.3641       16.3651       9.230451       0.01931
  25     40.54        7.1347        0.0012       16.3502       16.3514       9.216647       0.01713
  24     48.69        7.1348        0.0014       16.3354       16.3368       9.201954       0.01521
  23     57.69        7.1350        0.0017       16.3211       16.3228       9.187790       0.01328
  22     68.43        7.1352        0.0020       16.3062       16.3082       9.173068       0.01157
  21     81.20        7.1354        0.0024       16.2903       16.2927       9.157258       0.01045
  20     96.49        7.1358        0.0028       16.2726       16.2754       9.139669       0.00971
  19     114.6        7.1362        0.0034       16.2521       16.2554       9.119224       0.00955
  18     136.5        7.1367        0.0040       16.2245       16.2285       9.091787       0.01055
  17     162.9        7.1374        0.0047       16.1747       16.1795       9.042036       0.01590
  16     196.4        7.1384        0.0057       16.0518       16.0575       8.919095       0.03095
  15     218.7        7.1391        0.0063       15.8984       15.9047       8.765513       0.05831
  14     243.0        7.1401        0.0069       15.6153       15.6222       8.482095       0.09830
  13     269.0        7.1413        0.0075       15.1390       15.1465       8.005141       0.15472
  12     297.5        7.1432        0.0081       14.5779       14.5860       7.442772       0.16679
  11     328.5        7.1459        0.0086       13.8780       13.8866       6.740730       0.19088
  10     361.9        7.1499        0.0091       13.0814       13.0906       5.940636       0.20243
   9     398.1        7.1558        0.0096       12.2728       12.2824       5.126675       0.18963
   8     437.6        7.1644        0.0100       11.4776       11.4876       4.323216       0.17178
   7     480.5        7.1777        0.0104       10.7300       10.7404       3.562748       0.14935
   6     533.0        7.2014        0.0109       10.0326       10.0435       2.842126       0.11593
   5     589.8        7.2394        0.0116        9.5050        9.5166       2.277209       0.08385
   4     651.6        7.3007        0.0123        9.0814        9.0937       1.792918       0.06623
   3     718.7        7.3953        0.0131        8.7024        8.7156       1.320265       0.05940
   2     792.3        7.5356        0.0140        8.3379        8.3520       0.816385       0.05779
   1     891.5        0.0392        0.6862        0.0000        0.6862       0.647024       0.01441
   0    1013.0        0.0400        0.6666        0.0000        0.6666       0.626623       0.00142



 Wavenumbers:  6150. -  7700. cm-1, ATM      1
 LEVEL PRESSURE   UPWARD FLUX   DIFDOWN FLUX  DIRDOWN FLUX  DOWNWARD FLUX   NET FLUX    HEATING RATE
          mb          W/m2          W/m2          W/m2        W/m2          W/m2       degree/day
  51    .06700       11.1522        0.0000       30.4684       30.4684      19.316181       0.00000
  50    .07753       11.1522        0.0000       30.4683       30.4683      19.316129       0.04144
  49    .09103       11.1522        0.0000       30.4683       30.4683      19.316062       0.04174
  48    0.1069       11.1522        0.0000       30.4682       30.4682      19.315983       0.04202
  47    0.1255       11.1522        0.0000       30.4681       30.4681      19.315890       0.04227
  46    0.1487       11.1522        0.0000       30.4680       30.4680      19.315769       0.04411
  45    0.1794       11.1522        0.0000       30.4678       30.4678      19.315599       0.04669
  44    0.2165       11.1522        0.0000       30.4676       30.4676      19.315392       0.04715
  43    0.2613       11.1522        0.0000       30.4673       30.4673      19.315140       0.04744
  42    0.3336       11.1522        0.0000       30.4669       30.4669      19.314713       0.04974
  41    0.4307       11.1522        0.0000       30.4663       30.4663      19.314132       0.05052
  40    0.5894       11.1522        0.0001       30.4653       30.4653      19.313165       0.05146
  39     1.339       11.1521        0.0002       30.4604       30.4606      19.308481       0.05273
  38     1.782       11.1521        0.0002       30.4576       30.4578      19.305731       0.05235
  37     2.292       11.1520        0.0003       30.4543       30.4546      19.302573       0.05231
  36     2.964       11.1519        0.0004       30.4501       30.4504      19.298465       0.05156
  35     3.853       11.1519        0.0005       30.4445       30.4450      19.293108       0.05084
  34     5.035       11.1518        0.0006       30.4373       30.4379      19.286108       0.05000
  33     6.613       11.1516        0.0008       30.4278       30.4286      19.276961       0.04890
  32     8.786       11.1514        0.0011       30.4154       30.4165      19.265008       0.04642
  31     11.80       11.1512        0.0014       30.3984       30.3998      19.248622       0.04588
  30     15.07       11.1509        0.0018       30.3810       30.3828      19.231908       0.04315
  29     18.79       11.1506        0.0023       30.3623       30.3646      19.214006       0.04059
  28     23.16       11.1502        0.0028       30.3417       30.3445      19.194322       0.03806
  27     28.12       11.1498        0.0034       30.3196       30.3230      19.173220       0.03587
  26     33.73       11.1493        0.0041       30.2965       30.3006      19.151299       0.03296
  25     40.54       11.1487        0.0049       30.2708       30.2757      19.126959       0.03020
  24     48.69       11.1480        0.0059       30.2423       30.2482      19.100178       0.02771
  23     57.69       11.1472        0.0070       30.2139       30.2208      19.073606       0.02491
  22     68.43       11.1463        0.0083       30.1834       30.1916      19.045323       0.02223
  21     81.20       11.1452        0.0098       30.1500       30.1598      19.014584       0.02031
  20     96.49       11.1439        0.0116       30.1126       30.1243      18.980352       0.01889
  19     114.6       11.1424        0.0138       30.0695       30.0833      18.940945       0.01840
  18     136.5       11.1405        0.0164       30.0139       30.0303      18.889755       0.01968
  17     162.9       11.1384        0.0195       29.9225       29.9419      18.803503       0.02757
  16     196.4       11.1358        0.0234       29.7333       29.7567      18.620948       0.04595
  15     218.7       11.1341        0.0259       29.5259       29.5518      18.417637       0.07719
  14     243.0       11.1326        0.0286       29.1375       29.1660      18.033464       0.13324
  13     269.0       11.1315        0.0311       28.3800       28.4111      17.279675       0.24453
  12     297.5       11.1313        0.0336       27.3895       27.4231      16.291848       0.29298
  11     328.5       11.1328        0.0360       26.2257       26.2617      15.128864       0.31621
  10     361.9       11.1371        0.0382       24.8453       24.8835      13.746383       0.34978
   9     398.1       11.1458        0.0402       23.3471       23.3872      12.241477       0.35061
   8     437.6       11.1614        0.0420       21.7966       21.8386      10.677183       0.33446
   7     480.5       11.1894        0.0435       20.1977       20.2412       9.051802       0.31922
   6     533.0       11.2439        0.0451       18.4969       18.5420       7.298112       0.28211
   5     589.8       11.3349        0.0467       16.9754       17.0221       5.687186       0.23911
   4     651.6       11.4857        0.0484       15.6022       15.6505       4.164807       0.20819
   3     718.7       11.7199        0.0502       14.4232       14.4734       2.753488       0.17736
   2     792.3       12.0706        0.0524       13.4386       13.4910       1.420390       0.15289
   1     891.5        0.0621        1.0607        0.0000        1.0607       0.998539       0.03590
   0    1013.0        0.0644        1.0108        0.0000        1.0108       0.946405       0.00362



 Wavenumbers:  7700. -  8050. cm-1, ATM      1
 LEVEL PRESSURE   UPWARD FLUX   DIFDOWN FLUX  DIRDOWN FLUX  DOWNWARD FLUX   NET FLUX    HEATING RATE
          mb          W/m2          W/m2          W/m2        W/m2          W/m2       degree/day
  51    .06700        5.2886        0.0000        7.2006        7.2006       1.912027       0.00000
  50    .07753        5.2886        0.0000        7.2006        7.2006       1.912006       0.01704
  49    .09103        5.2886        0.0000        7.2005        7.2005       1.911979       0.01670
  48    0.1069        5.2886        0.0000        7.2005        7.2005       1.911948       0.01635
  47    0.1255        5.2886        0.0000        7.2005        7.2005       1.911913       0.01600
  46    0.1487        5.2886        0.0000        7.2004        7.2005       1.911868       0.01623
  45    0.1794        5.2886        0.0000        7.2004        7.2004       1.911808       0.01670
  44    0.2165        5.2886        0.0000        7.2003        7.2003       1.911736       0.01638
  43    0.2613        5.2886        0.0000        7.2003        7.2003       1.911650       0.01608
  42    0.3336        5.2886        0.0000        7.2001        7.2001       1.911509       0.01645
  41    0.4307        5.2887        0.0000        7.2000        7.2000       1.911322       0.01627
  40    0.5894        5.2887        0.0000        7.1997        7.1997       1.911016       0.01625
  39     1.339        5.2889        0.0001        7.1984        7.1985       1.909571       0.01627
  38     1.782        5.2891        0.0001        7.1977        7.1978       1.908722       0.01616
  37     2.292        5.2892        0.0001        7.1968        7.1970       1.907740       0.01627
  36     2.964        5.2894        0.0002        7.1957        7.1959       1.906451       0.01619
  35     3.853        5.2897        0.0002        7.1942        7.1944       1.904748       0.01616
  34     5.035        5.2900        0.0003        7.1922        7.1925       1.902488       0.01615
  33     6.613        5.2905        0.0004        7.1896        7.1899       1.899470       0.01613
  32     8.786        5.2911        0.0005        7.1860        7.1865       1.895409       0.01577
  31     11.80        5.2920        0.0006        7.1810        7.1816       1.889609       0.01624
  30     15.07        5.2930        0.0008        7.1755        7.1764       1.883395       0.01604
  29     18.79        5.2941        0.0010        7.1694        7.1704       1.876394       0.01587
  28     23.16        5.2953        0.0012        7.1623        7.1636       1.868241       0.01577
  27     28.12        5.2968        0.0015        7.1542        7.1557       1.858951       0.01579
  26     33.73        5.2984        0.0018        7.1452        7.1470       1.848597       0.01557
  25     40.54        5.3005        0.0022        7.1344        7.1366       1.836148       0.01544
  24     48.69        5.3029        0.0026        7.1215        7.1241       1.821229       0.01544
  23     57.69        5.3056        0.0031        7.1074        7.1105       1.804953       0.01526
  22     68.43        5.3088        0.0036        7.0909        7.0945       1.785720       0.01512
  21     81.20        5.3126        0.0043        7.0713        7.0757       1.763017       0.01500
  20     96.49        5.3173        0.0051        7.0484        7.0535       1.736258       0.01477
  19     114.6        5.3228        0.0061        7.0217        7.0277       1.704886       0.01465
  18     136.5        5.3295        0.0072        6.9906        6.9978       1.668238       0.01409
  17     162.9        5.3376        0.0085        6.9544        6.9629       1.625306       0.01372
  16     196.4        5.3483        0.0102        6.9087        6.9190       1.570711       0.01374
  15     218.7        5.3554        0.0114        6.8794        6.8908       1.535405       0.01340
  14     243.0        5.3632        0.0126        6.8481        6.8607       1.497456       0.01316
  13     269.0        5.3719        0.0139        6.8147        6.8286       1.456685       0.01323
  12     297.5        5.3816        0.0153        6.7791        6.7944       1.412833       0.01301
  11     328.5        5.3923        0.0169        6.7409        6.7578       1.365494       0.01287
  10     361.9        5.4044        0.0185        6.7002        6.7187       1.314311       0.01295
   9     398.1        5.4179        0.0203        6.6563        6.6766       1.258626       0.01297
   8     437.6        5.4333        0.0222        6.6089        6.6310       1.197727       0.01302
   7     480.5        5.4510        0.0242        6.5570        6.5812       1.130175       0.01327
   6     533.0        5.4747        0.0267        6.4915        6.5182       1.043435       0.01395
   5     589.8        5.5030        0.0294        6.4182        6.4476       0.944634       0.01467
   4     651.6        5.5369        0.0322        6.3359        6.3681       0.831213       0.01551
   3     718.7        5.5773        0.0352        6.2441        6.2794       0.702050       0.01623
   2     792.3        5.6248        0.0384        6.1437        6.1821       0.557338       0.01660
   1     891.5        0.0374        0.5361        0.0000        0.5361       0.498721       0.00499
   0    1013.0        0.0378        0.5270        0.0000        0.5270       0.489203       0.00066



 Wavenumbers:  8050. - 12850. cm-1, ATM      1
 LEVEL PRESSURE   UPWARD FLUX   DIFDOWN FLUX  DIRDOWN FLUX  DOWNWARD FLUX   NET FLUX    HEATING RATE
          mb          W/m2          W/m2          W/m2        W/m2          W/m2       degree/day
  51    .06700       68.8343        0.0000      100.8135      100.8135      31.979178       0.00000
  50    .07753       68.8343        0.0000      100.8135      100.8135      31.979178       0.00000
  49    .09103       68.8343        0.0001      100.8134      100.8135      31.979178       0.00000
  48    0.1069       68.8343        0.0001      100.8134      100.8135      31.979178      -0.00000
  47    0.1255       68.8343        0.0002      100.8133      100.8134      31.979178      -0.00000
  46    0.1487       68.8342        0.0002      100.8132      100.8134      31.979178       0.00000
  45    0.1794       68.8342        0.0003      100.8131      100.8134      31.979178       0.00000
  44    0.2165       68.8341        0.0004      100.8129      100.8133      31.979178      -0.00000
  43    0.2613       68.8341        0.0005      100.8127      100.8133      31.979178       0.00000
  42    0.3336       68.8340        0.0007      100.8125      100.8132      31.979178       0.00000
  41    0.4307       68.8338        0.0009      100.8121      100.8130      31.979178      -0.00000
  40    0.5894       68.8336        0.0014      100.8115      100.8128      31.979178       0.00000
  39     1.339       68.8326        0.0033      100.8085      100.8118      31.979178      -0.00000
  38     1.782       68.8320        0.0045      100.8068      100.8112      31.979178       0.00000
  37     2.292       68.8314        0.0058      100.8047      100.8105      31.979178       0.00000
  36     2.964       68.8305        0.0075      100.8021      100.8096      31.979178      -0.00000
  35     3.853       68.8293        0.0098      100.7986      100.8084      31.979178       0.00000
  34     5.035       68.8277        0.0129      100.7940      100.8069      31.979178      -0.00000
  33     6.613       68.8256        0.0170      100.7878      100.8047      31.979178       0.00000
  32     8.786       68.8227        0.0225      100.7794      100.8019      31.979178       0.00000
  31     11.80       68.8186        0.0304      100.7674      100.7978      31.979178      -0.00000
  30     15.07       68.8143        0.0389      100.7546      100.7934      31.979178       0.00000
  29     18.79       68.8093        0.0485      100.7400      100.7885      31.979178      -0.00000
  28     23.16       68.8035        0.0597      100.7230      100.7827      31.979178       0.00000
  27     28.12       68.7969        0.0726      100.7035      100.7761      31.979178       0.00000
  26     33.73       68.7894        0.0870      100.6817      100.7686      31.979178       0.00000
  25     40.54       68.7804        0.1044      100.6552      100.7596      31.979178       0.00000
  24     48.69       68.7696        0.1254      100.6234      100.7488      31.979178      -0.00000
  23     57.69       68.7576        0.1485      100.5883      100.7368      31.979178      -0.00000
  22     68.43       68.7434        0.1761      100.5464      100.7226      31.979178       0.00000
  21     81.20       68.7264        0.2090      100.4965      100.7056      31.979178      -0.00000
  20     96.49       68.7061        0.2483      100.4370      100.6853      31.979178      -0.00000
  19     114.6       68.6821        0.2950      100.3585      100.6535      31.971358       0.00365
  18     136.5       68.6537        0.3505      100.2634      100.6138      31.960115       0.00432
  17     162.9       68.6200        0.4166      100.1407      100.5573      31.937355       0.00727
  16     196.4       68.5763        0.5026       99.9505      100.4531      31.876789       0.01525
  15     218.7       68.5477        0.5591       99.7889      100.3480      31.800282       0.02905
  14     243.0       68.5173        0.6204       99.5472      100.1676      31.650354       0.05200
  13     269.0       68.4863        0.6866       99.1452       99.8318      31.345576       0.09887
  12     297.5       68.4564        0.7577       98.5975       99.3552      30.898717       0.13253
  11     328.5       68.4307        0.8339       97.8659       98.6998      30.269086       0.17119
  10     361.9       68.4134        0.9151       96.8848       97.7998      29.386466       0.22331
   9     398.1       68.4103        1.0009       95.6330       96.6339      28.223581       0.27093
   8     437.6       68.4323        1.0911       94.0655       95.1566      26.724268       0.32056
   7     480.5       68.5006        1.1847       92.0807       93.2655      24.764893       0.38481
   6     533.0       68.6614        1.2958       89.4449       90.7407      22.079305       0.43203
   5     589.8       68.9524        1.4111       86.5544       87.9654      19.013037       0.45513
   4     651.6       69.4490        1.5299       83.4174       84.9473      15.498305       0.48065
   3     718.7       70.2160        1.6533       80.2037       81.8570      11.640975       0.48476
   2     792.3       71.3340        1.7819       77.0811       78.8630       7.529029       0.47159
   1     891.5        1.5415        7.5914        0.0000        7.5914       6.049909       0.12587
   0    1013.0        1.5730        7.3713        0.0000        7.3713       5.798269       0.01747



 Wavenumbers: 12850. - 16000. cm-1, ATM      1
 LEVEL PRESSURE   UPWARD FLUX   DIFDOWN FLUX  DIRDOWN FLUX  DOWNWARD FLUX   NET FLUX    HEATING RATE
          mb          W/m2          W/m2          W/m2        W/m2          W/m2       degree/day
  51    .06700       49.6775        0.0000       63.1686       63.1686      13.491086       0.00000
  50    .07753       49.6775        0.0001       63.1677       63.1678      13.490303       0.62777
  49    .09103       49.6775        0.0001       63.1666       63.1668      13.489326       0.61057
  48    0.1069       49.6774        0.0002       63.1654       63.1656      13.488212       0.59265
  47    0.1255       49.6774        0.0003       63.1640       63.1644      13.486945       0.57472
  46    0.1487       49.6774        0.0005       63.1623       63.1628      13.485361       0.57709
  45    0.1794       49.6774        0.0006       63.1600       63.1606      13.483235       0.58367
  44    0.2165       49.6774        0.0008       63.1573       63.1581      13.480772       0.56029
  43    0.2613       49.6774        0.0011       63.1542       63.1553      13.477925       0.53664
  42    0.3336       49.6774        0.0015       63.1493       63.1508      13.473377       0.53028
  41    0.4307       49.6775        0.0020       63.1431       63.1452      13.467669       0.49627
  40    0.5894       49.6778        0.0029       63.1338       63.1368      13.458979       0.46215
  39     1.339       49.6809        0.0071       63.0956       63.1027      13.421792       0.41866
  38     1.782       49.6841        0.0096       63.0740       63.0836      13.399491       0.42458
  37     2.292       49.6891        0.0124       63.0477       63.0601      13.370969       0.47240
  36     2.964       49.6977        0.0162       63.0095       63.0257      13.328022       0.53911
  35     3.853       49.7117        0.0211       62.9533       62.9743      13.262623       0.62065
  34     5.035       49.7331        0.0276       62.8725       62.9001      13.167004       0.68306
  33     6.613       49.7631        0.0363       62.7621       62.7984      13.035300       0.70409
  32     8.786       49.8021        0.0481       62.6182       62.6663      12.864270       0.66422
  31     11.80       49.8524        0.0649       62.4284       62.4932      12.640814       0.62561
  30     15.07       49.9001        0.0828       62.2426       62.3254      12.425273       0.55649
  29     18.79       49.9484        0.1031       62.0493       62.1523      12.203923       0.50187
  28     23.16       49.9983        0.1267       61.8424       61.9691      11.970793       0.45080
  27     28.12       50.0477        0.1536       61.6278       61.7814      11.733665       0.40310
  26     33.73       50.0922        0.1837       61.4177       61.6014      11.509189       0.33750
  25     40.54       50.1332        0.2200       61.1983       61.4183      11.285060       0.27806
  24     48.69       50.1705        0.2637       60.9680       61.2317      11.061195       0.23167
  23     57.69       50.1996        0.3117       60.7478       61.0595      10.859895       0.18869
  22     68.43       50.2214        0.3688       60.5202       60.8890      10.667559       0.15120
  21     81.20       50.2299        0.4368       60.2938       60.7307      10.500791       0.11020
  20     96.49       50.2237        0.5179       60.0643       60.5821      10.358476       0.07855
  19     114.6       50.2157        0.6148       59.8078       60.4225      10.206821       0.07081
  18     136.5       50.1993        0.7294       59.5157       60.2451      10.045869       0.06189
  17     162.9       50.1733        0.8657       59.1770       60.0427       9.869416       0.05640
  16     196.4       50.1260        1.0420       58.7604       59.8024       9.676451       0.04857
  15     218.7       50.0901        1.1576       58.4948       59.6524       9.562253       0.04336
  14     243.0       50.0491        1.2830       58.2089       59.4919       9.442713       0.04146
  13     269.0       50.0032        1.4186       57.9006       59.3192       9.315988       0.04111
  12     297.5       49.9527        1.5650       57.5668       59.1317       9.179033       0.04062
  11     328.5       49.8994        1.7227       57.2005       58.9232       9.023811       0.04220
  10     361.9       49.8447        1.8922       56.7963       58.6885       8.843820       0.04554
   9     398.1       49.7903        2.0740       56.3475       58.4215       8.631258       0.04952
   8     437.6       49.7396        2.2685       55.8422       58.1107       8.371113       0.05562
   7     480.5       49.6990        2.4758       55.2625       57.7383       8.039266       0.06517
   6     533.0       49.6723        2.7289       54.4972       57.2261       7.553829       0.07809
   5     589.8       49.6729        2.9985       53.6307       56.6292       6.956331       0.08869
   4     651.6       49.7151        3.2839       52.6606       55.9444       6.229329       0.09942
   3     718.7       49.8083        3.5853       51.6100       55.1953       5.387026       0.10585
   2     792.3       49.9650        3.9028       50.5019       54.4047       4.439670       0.10865
   1     891.5        4.6934        8.7198        0.0000        8.7198       4.026405       0.03517
   0    1013.0        4.7258        8.6143        0.0000        8.6143       3.888503       0.00958



 Wavenumbers: 16000. - 22650. cm-1, ATM      1
 LEVEL PRESSURE   UPWARD FLUX   DIFDOWN FLUX  DIRDOWN FLUX  DOWNWARD FLUX   NET FLUX    HEATING RATE
          mb          W/m2          W/m2          W/m2        W/m2          W/m2       degree/day
  51    .06700       84.6158        0.0000      100.7153      100.7153      16.099472       0.00000
  50    .07753       84.6157        0.0003      100.7147      100.7151      16.099351       0.09735
  49    .09103       84.6156        0.0008      100.7140      100.7148      16.099174       0.11041
  48    0.1069       84.6154        0.0012      100.7131      100.7144      16.098938       0.12591
  47    0.1255       84.6153        0.0018      100.7121      100.7139      16.098621       0.14352
  46    0.1487       84.6151        0.0025      100.7108      100.7133      16.098154       0.17006
  45    0.1794       84.6149        0.0035      100.7089      100.7123      16.097425       0.20024
  44    0.2165       84.6147        0.0046      100.7066      100.7112      16.096436       0.22504
  43    0.2613       84.6145        0.0059      100.7037      100.7096      16.095094       0.25300
  42    0.3336       84.6143        0.0082      100.6987      100.7069      16.092542       0.29752
  41    0.4307       84.6142        0.0111      100.6918      100.7029      16.088695       0.33443
  40    0.5894       84.6143        0.0160      100.6797      100.6957      16.081360       0.39008
  39     1.339       84.6211        0.0388      100.6095      100.6483      16.027176       0.61002
  38     1.782       84.6297        0.0522      100.5585      100.6107      15.981030       0.87854
  37     2.292       84.6437        0.0677      100.4903      100.5580      15.914253       1.10601
  36     2.964       84.6687        0.0881      100.3868      100.4749      15.806119       1.35740
  35     3.853       84.7109        0.1150      100.2306      100.3456      15.634651       1.62726
  34     5.035       84.7760        0.1506      100.0045      100.1551      15.379088       1.82564
  33     6.613       84.8676        0.1981       99.6939       99.8920      15.024429       1.89601
  32     8.786       84.9863        0.2620       99.2881       99.5501      14.563803       1.78890
  31     11.80       85.1384        0.3531       98.7496       99.1027      13.964286       1.67846
  30     15.07       85.2812        0.4506       98.2198       98.6704      13.389161       1.48486
  29     18.79       85.4241        0.5603       97.6651       98.2255      12.801350       1.33275
  28     23.16       85.5697        0.6881       97.0671       97.7552      12.185517       1.19082
  27     28.12       85.7113        0.8336       96.4406       97.2742      11.562876       1.05845
  26     33.73       85.8340        0.9960       95.8179       96.8139      10.979828       0.87663
  25     40.54       85.9410        1.1915       95.1548       96.3463      10.405346       0.71271
  24     48.69       86.0299        1.4263       94.4420       95.8683       9.838425       0.58667
  23     57.69       86.0889        1.6833       93.7416       95.4249       9.335986       0.47096
  22     68.43       86.1177        1.9882       92.9954       94.9835       8.865816       0.36962
  21     81.20       86.0951        2.3500       92.2231       94.5732       8.478101       0.25620
  20     96.49       86.0156        2.7794       91.4110       94.1904       8.174782       0.16741
  19     114.6       85.8951        3.2858       90.5070       93.7928       7.897709       0.12937
  18     136.5       85.7354        3.8812       89.4803       93.3615       7.626071       0.10445
  17     162.9       85.5307        4.5835       88.3022       92.8857       7.355002       0.08664
  16     196.4       85.2325        5.4841       86.8606       92.3447       7.112235       0.06111
  15     218.7       85.0255        6.0694       85.9492       92.0186       6.993087       0.04524
  14     243.0       84.7963        6.7001       84.9789       91.6790       6.882733       0.03827
  13     269.0       84.5438        7.3772       83.9493       91.3265       6.782716       0.03245
  12     297.5       84.2674        8.1016       82.8589       90.9606       6.693150       0.02656
  11     328.5       83.9691        8.8760       81.6982       90.5742       6.605104       0.02394
  10     361.9       83.6490        9.7000       80.4669       90.1670       6.517999       0.02204
   9     398.1       83.3065       10.5759       79.1611       89.7370       6.430532       0.02038
   8     437.6       82.9425       11.5039       77.7777       89.2817       6.339179       0.01953
   7     480.5       82.5578       12.4846       76.3136       88.7983       6.240524       0.01938
   6     533.0       82.0929       13.6721       74.5359       88.2079       6.115033       0.02019
   5     589.8       81.6043       14.9280       72.6469       87.5749       5.970633       0.02143
   4     651.6       81.0951       16.2505       70.6456       86.8961       5.801033       0.02319
   3     718.7       80.5662       17.6378       68.5367       86.1745       5.608261       0.02423
   2     792.3       80.0209       19.0846       66.3287       85.4133       5.392418       0.02475
   1     891.5       21.5071       26.7759        0.0000       26.7759       5.268863       0.01051
   0    1013.0       21.4802       26.6702        0.0000       26.6702       5.190031       0.00547



 Wavenumbers: 22650. - 29000. cm-1, ATM      1
 LEVEL PRESSURE   UPWARD FLUX   DIFDOWN FLUX  DIRDOWN FLUX  DOWNWARD FLUX   NET FLUX    HEATING RATE
          mb          W/m2          W/m2          W/m2        W/m2          W/m2       degree/day
  51    .06700       36.2372        0.0000       38.0063       38.0063       1.769119       0.00000
  50    .07753       36.2370        0.0004       38.0057       38.0061       1.769119       0.00000
  49    .09103       36.2368        0.0009       38.0050       38.0059       1.769119       0.00000
  48    0.1069       36.2366        0.0014       38.0042       38.0057       1.769119      -0.00000
  47    0.1255       36.2363        0.0021       38.0033       38.0054       1.769119       0.00000
  46    0.1487       36.2360        0.0029       38.0022       38.0051       1.769119      -0.00000
  45    0.1794       36.2355        0.0040       38.0006       38.0046       1.769119       0.00000
  44    0.2165       36.2350        0.0054       37.9987       38.0041       1.769119      -0.00000
  43    0.2613       36.2343        0.0069       37.9965       38.0034       1.769119       0.00000
  42    0.3336       36.2333        0.0095       37.9928       38.0024       1.769119       0.00000
  41    0.4307       36.2318        0.0130       37.9880       38.0010       1.769119      -0.00000
  40    0.5894       36.2295        0.0186       37.9800       37.9987       1.769119       0.00000
  39     1.339       36.2186        0.0452       37.9425       37.9877       1.769119       0.00000
  38     1.782       36.2122        0.0609       37.9204       37.9813       1.769119       0.00000
  37     2.292       36.2048        0.0790       37.8949       37.9739       1.769119       0.00000
  36     2.964       36.1950        0.1027       37.8614       37.9641       1.769119      -0.00000
  35     3.853       36.1822        0.1341       37.8172       37.9513       1.769119       0.00000
  34     5.035       36.1651        0.1756       37.7586       37.9342       1.769119       0.00000
  33     6.613       36.1423        0.2311       37.6803       37.9114       1.769119      -0.00000
  32     8.786       36.1117        0.3058       37.5750       37.8808       1.769119      -0.00000
  31     11.80       36.0680        0.4122       37.4249       37.8371       1.769119       0.00000
  30     15.07       36.0212        0.5262       37.2642       37.7903       1.769119       0.00000
  29     18.79       35.9685        0.6544       37.0833       37.7377       1.769119      -0.00000
  28     23.16       35.9073        0.8034       36.8730       37.6764       1.769119       0.00000
  27     28.12       35.8376        0.9730       36.6338       37.6067       1.769119       0.00000
  26     33.73       35.7601        1.1615       36.3677       37.5292       1.769119       0.00000
  25     40.54       35.6671        1.3876       36.0486       37.4362       1.769119       0.00000
  24     48.69       35.5559        1.6578       35.6672       37.3250       1.769119      -0.00000
  23     57.69       35.4350        1.9514       35.2527       37.2041       1.769119       0.00000
  22     68.43       35.2926        2.2968       34.7649       37.0617       1.769119      -0.00000
  21     81.20       35.1253        2.7022       34.1922       36.8945       1.769119       0.00000
  20     96.49       34.9294        3.1767       33.5217       36.6985       1.769119      -0.00000
  19     114.6       34.7014        3.7281       32.7424       36.4705       1.769119       0.00000
  18     136.5       34.4375        4.3651       31.8416       36.2066       1.769119      -0.00000
  17     162.9       34.1323        5.1006       30.8008       35.9014       1.769119       0.00000
  16     196.4       33.7502        6.0187       29.5007       35.5194       1.769119       0.00000
  15     218.7       33.5077        6.6001       28.6767       35.2768       1.769119      -0.00000
  14     243.0       33.2513        7.2136       27.8068       35.0204       1.769119      -0.00000
  13     269.0       32.9815        7.8573       26.8933       34.7506       1.769119       0.00000
  12     297.5       32.6993        8.5291       25.9393       34.4684       1.769119      -0.00000
  11     328.5       32.4045        9.2285       24.9451       34.1736       1.769119       0.00000
  10     361.9       32.0986        9.9518       23.9160       33.8678       1.769119       0.00000
   9     398.1       31.7822       10.6972       22.8541       33.5513       1.769119      -0.00000
   8     437.6       31.4565       11.4612       21.7645       33.2256       1.769119       0.00000
   7     480.5       31.1229       12.2399       20.6521       32.8920       1.769119      -0.00000
   6     533.0       30.7328       13.1450       19.3569       32.5019       1.769119       0.00000
   5     589.8       30.3361       14.0585       18.0467       32.1052       1.769119       0.00000
   4     651.6       29.9356       14.9731       16.7316       31.7047       1.769119       0.00000
   3     718.7       29.5338       15.8815       15.4214       31.3029       1.769119      -0.00000
   2     792.3       29.1339       16.7754       14.1276       30.9030       1.769119       0.00000
   1     891.5       11.8537       13.6221        0.0000       13.6221       1.768333       0.00007
   0    1013.0       11.7925       13.5608        0.0000       13.5608       1.768333      -0.00000



 Wavenumbers: 29000. - 38000. cm-1, ATM      1
 LEVEL PRESSURE   UPWARD FLUX   DIFDOWN FLUX  DIRDOWN FLUX  DOWNWARD FLUX   NET FLUX    HEATING RATE
          mb          W/m2          W/m2          W/m2        W/m2          W/m2       degree/day
  51    .06700        5.1782        0.0000       13.4026       13.4026       8.224403       0.00000
  50    .07753        5.1780        0.0003       13.3983       13.3986       8.220604       3.04467
  49    .09103        5.1777        0.0007       13.3921       13.3928       8.215084       3.44999
  48    0.1069        5.1774        0.0011       13.3840       13.3851       8.207707       3.92714
  47    0.1255        5.1771        0.0016       13.3733       13.3749       8.197861       4.46361
  46    0.1487        5.1766        0.0022       13.3579       13.3601       8.183417       5.26491
  45    0.1794        5.1761        0.0030       13.3340       13.3371       8.161015       6.14989
  44    0.2165        5.1754        0.0040       13.3024       13.3064       8.130993       6.82949
  43    0.2613        5.1747        0.0052       13.2604       13.2656       8.090934       7.55093
  42    0.3336        5.1735        0.0071       13.1833       13.1904       8.016919       8.62941
  41    0.4307        5.1719        0.0096       13.0729       13.0825       7.910534       9.24993
  40    0.5894        5.1696        0.0135       12.8796       12.8931       7.723466       9.94806
  39     1.339        5.1615        0.0299       11.9165       11.9464       6.784936      10.56614
  38     1.782        5.1584        0.0382       11.4399       11.4782       6.319793       8.85556
  37     2.292        5.1562        0.0472       10.9796       11.0268       5.870631       7.43930
  36     2.964        5.1552        0.0582       10.4786       10.5369       5.381632       6.13841
  35     3.853        5.1566        0.0719        9.9429       10.0148       4.858196       4.96750
  34     5.035        5.1610        0.0889        9.4007        9.4896       4.328606       3.78317
  33     6.613        5.1687        0.1105        8.8752        8.9857       3.817025       2.73491
  32     8.786        5.1792        0.1383        8.3786        8.5169       3.337742       1.86136
  31     11.80        5.1922        0.1766        7.8897        8.0663       2.874047       1.29820
  30     15.07        5.2038        0.2161        7.5108        7.7269       2.523140       0.90597
  29     18.79        5.2148        0.2592        7.1776        7.4368       2.221981       0.68282
  28     23.16        5.2254        0.3078        6.8664        7.1742       1.948779       0.52828
  27     28.12        5.2347        0.3614        6.5780        6.9395       1.704822       0.41471
  26     33.73        5.2400        0.4200        6.3195        6.7395       1.499465       0.30876
  25     40.54        5.2405        0.4891        6.0663        6.5554       1.314880       0.22900
  24     48.69        5.2356        0.5701        5.8128        6.3829       1.147366       0.17335
  23     57.69        5.2249        0.6566        5.5777        6.2343       1.009383       0.12934
  22     68.43        5.2065        0.7568        5.3379        6.0947       0.888137       0.09532
  21     81.20        5.1760        0.8731        5.0965        5.9696       0.793590       0.06248
  20     96.49        5.1322        1.0076        4.8476        5.8552       0.723054       0.03893
  19     114.6        5.0785        1.1601        4.5799        5.7400       0.661540       0.02872
  18     136.5        5.0161        1.3308        4.2891        5.6199       0.603757       0.02222
  17     162.9        4.9450        1.5204        3.9732        5.4935       0.548533       0.01765
  16     196.4        4.8547        1.7479        3.6080        5.3559       0.501184       0.01192
  15     218.7        4.7979        1.8867        3.3898        5.2764       0.478580       0.00858
  14     243.0        4.7389        2.0284        3.1686        5.1969       0.458029       0.00713
  13     269.0        4.6781        2.1719        2.9461        5.1180       0.439860       0.00589
  12     297.5        4.6160        2.3162        2.7239        5.0401       0.424099       0.00467
  11     328.5        4.5534        2.4598        2.5029        4.9627       0.409253       0.00404
  10     361.9        4.4908        2.6015        2.2846        4.8861       0.395346       0.00352
   9     398.1        4.4286        2.7402        2.0708        4.8110       0.382374       0.00302
   8     437.6        4.3673        2.8748        1.8626        4.7374       0.370061       0.00263
   7     480.5        4.3074        3.0038        1.6621        4.6660       0.358543       0.00226
   6     533.0        4.2411        3.1436        1.4437        4.5873       0.346176       0.00199
   5     589.8        4.1778        3.2732        1.2390        4.5122       0.334383       0.00175
   4     651.6        4.1182        3.3912        1.0500        4.4412       0.323004       0.00156
   3     718.7        4.0626        3.4968        0.8778        4.3746       0.312000       0.00138
   2     792.3        4.0114        3.5890        0.7237        4.3127       0.301350       0.00122
   1     891.5        1.5725        1.8651        0.0000        1.8651       0.292694       0.00074
   0    1013.0        1.5544        1.8415        0.0000        1.8415       0.287090       0.00039



 Wavenumbers: 38000. - 50000. cm-1, ATM      1
 LEVEL PRESSURE   UPWARD FLUX   DIFDOWN FLUX  DIRDOWN FLUX  DOWNWARD FLUX   NET FLUX    HEATING RATE
          mb          W/m2          W/m2          W/m2        W/m2          W/m2       degree/day
  51    .06700        0.0051        0.0000        0.8267        0.8267       0.821528       0.00000
  50    .07753        0.0051        0.0001        0.8242        0.8243       0.819196       1.86936
  49    .09103        0.0050        0.0002        0.8207        0.8209       0.815872       2.07705
  48    0.1069        0.0049        0.0002        0.8162        0.8164       0.811514       2.31984
  47    0.1255        0.0048        0.0004        0.8103        0.8106       0.805801       2.59006
  46    0.1487        0.0047        0.0005        0.8018        0.8023       0.797567       3.00143
  45    0.1794        0.0045        0.0007        0.7889        0.7896       0.785013       3.44648
  44    0.2165        0.0044        0.0009        0.7720        0.7729       0.768507       3.75474
  43    0.2613        0.0042        0.0011        0.7500        0.7511       0.746955       4.06246
  42    0.3336        0.0039        0.0015        0.7106        0.7121       0.708267       4.51071
  41    0.4307        0.0035        0.0019        0.6566        0.6584       0.654972       4.63387
  40    0.5894        0.0029        0.0024        0.5680        0.5704       0.567464       4.65357
  39     1.339        0.0015        0.0030        0.2422        0.2452       0.243720       3.64476
  38     1.782        0.0010        0.0026        0.1493        0.1519       0.150889       1.76735
  37     2.292        0.0007        0.0022        0.0924        0.0946       0.093932       0.94336
  36     2.964        0.0005        0.0018        0.0539        0.0557       0.055224       0.48589
  35     3.853        0.0003        0.0013        0.0295        0.0308       0.030502       0.23462
  34     5.035        0.0002        0.0010        0.0154        0.0164       0.016181       0.10230
  33     6.613        0.0001        0.0007        0.0073        0.0080       0.007912       0.04420
  32     8.786        0.0000        0.0004        0.0030        0.0034       0.003390       0.01756
  31     11.80        0.0000        0.0003        0.0010        0.0012       0.001199       0.00613
  30     15.07        0.0000        0.0001        0.0003        0.0005       0.000463       0.00190
  29     18.79        0.0000        0.0001        0.0001        0.0002       0.000182       0.00064
  28     23.16        0.0000        0.0000        0.0000        0.0001       0.000071       0.00022
  27     28.12        0.0000        0.0000        0.0000        0.0000       0.000028       0.00007
  26     33.73        0.0000        0.0000        0.0000        0.0000       0.000011       0.00002
  25     40.54        0.0000        0.0000        0.0000        0.0000       0.000005       0.00001
  24     48.69        0.0000        0.0000        0.0000        0.0000       0.000002       0.00000
  23     57.69        0.0000        0.0000        0.0000        0.0000       0.000001       0.00000
  22     68.43        0.0000        0.0000        0.0000        0.0000       0.000000       0.00000
  21     81.20        0.0000        0.0000        0.0000        0.0000       0.000000       0.00000
  20     96.49        0.0000        0.0000        0.0000        0.0000       0.000000       0.00000
  19     114.6        0.0000        0.0000        0.0000        0.0000       0.000000       0.00000
  18     136.5        0.0000        0.0000        0.0000        0.0000       0.000000       0.00000
  17     162.9        0.0000        0.0000        0.0000        0.0000       0.000000       0.00000
  16     196.4        0.0000        0.0000        0.0000        0.0000       0.000000       0.00000
  15     218.7        0.0000        0.0000        0.0000        0.0000       0.000000       0.00000
  14     243.0        0.0000        0.0000        0.0000        0.0000       0.000000       0.00000
  13     269.0        0.0000        0.0000        0.0000        0.0000       0.000000       0.00000
  12     297.5        0.0000        0.0000        0.0000        0.0000       0.000000       0.00000
  11     328.5        0.0000        0.0000        0.0000        0.0000       0.000000       0.00000
  10     361.9        0.0000        0.0000        0.0000        0.0000       0.000000       0.00000
   9     398.1        0.0000        0.0000        0.0000        0.0000       0.000000       0.00000
   8     437.6        0.0000        0.0000        0.0000        0.0000       0.000000       0.00000
   7     480.5        0.0000        0.0000        0.0000        0.0000       0.000000       0.00000
   6     533.0        0.0000        0.0000        0.0000        0.0000       0.000000       0.00000
   5     589.8        0.0000        0.0000        0.0000        0.0000       0.000000       0.00000
   4     651.6        0.0000        0.0000        0.0000        0.0000       0.000000       0.00000
   3     718.7        0.0000        0.0000        0.0000        0.0000       0.000000       0.00000
   2     792.3        0.0000        0.0000        0.0000        0.0000       0.000000       0.00000
   1     891.5        0.0000        0.0000        0.0000        0.0000       0.000000       0.00000
   0    1013.0        0.0000        0.0000        0.0000        0.0000       0.000000       0.00000



 Wavenumbers:   820. -  2600. cm-1, ATM      1
 LEVEL PRESSURE   UPWARD FLUX   DIFDOWN FLUX  DIRDOWN FLUX  DOWNWARD FLUX   NET FLUX    HEATING RATE
          mb          W/m2          W/m2          W/m2        W/m2          W/m2       degree/day
  51    .06700        0.8700        0.0000        3.8670        3.8670       2.997021       0.00000
  50    .07753        0.8700        0.0000        3.8643        3.8643       2.994304       2.17771
  49    .09103        0.8700        0.0000        3.8635        3.8635       2.993494       0.50640
  48    0.1069        0.8700        0.0000        3.8626        3.8626       2.992603       0.47417
  47    0.1255        0.8700        0.0000        3.8616        3.8616       2.991642       0.43561
  46    0.1487        0.8700        0.0000        3.8605        3.8605       2.990533       0.40439
  45    0.1794        0.8700        0.0000        3.8592        3.8592       2.989198       0.36650
  44    0.2165        0.8700        0.0000        3.8578        3.8578       2.987820       0.31348
  43    0.2613        0.8700        0.0000        3.8564        3.8564       2.986359       0.27524
  42    0.3336        0.8700        0.0000        3.8541        3.8541       2.984128       0.26015
  41    0.4307        0.8700        0.0000        3.8512        3.8512       2.981245       0.25065
  40    0.5894        0.8700        0.0000        3.8465        3.8465       2.976519       0.25136
  39     1.339        0.8700        0.0000        3.8251        3.8251       2.955141       0.24067
  38     1.782        0.8700        0.0000        3.8133        3.8133       2.943327       0.22492
  37     2.292        0.8700        0.0000        3.8003        3.8003       2.930264       0.21635
  36     2.964        0.8700        0.0000        3.7841        3.7841       2.914133       0.20249
  35     3.853        0.8700        0.0000        3.7642        3.7642       2.894216       0.18902
  34     5.035        0.8700        0.0000        3.7395        3.7395       2.869522       0.17641
  33     6.613        0.8700        0.0000        3.7090        3.7090       2.838981       0.16327
  32     8.786        0.8700        0.0000        3.6726        3.6726       2.802581       0.14136
  31     11.80        0.8700        0.0000        3.6320        3.6320       2.761977       0.11368
  30     15.07        0.8701        0.0000        3.6016        3.6016       2.731582       0.07847
  29     18.79        0.8701        0.0000        3.5777        3.5777       2.707672       0.05421
  28     23.16        0.8701        0.0000        3.5564        3.5564       2.686303       0.04132
  27     28.12        0.8701        0.0000        3.5348        3.5348       2.664740       0.03666
  26     33.73        0.8701        0.0000        3.5118        3.5118       2.641687       0.03466
  25     40.54        0.8702        0.0000        3.4849        3.4849       2.614774       0.03339
  24     48.69        0.8702        0.0000        3.4537        3.4537       2.583492       0.03237
  23     57.69        0.8702        0.0000        3.4210        3.4210       2.550786       0.03066
  22     68.43        0.8703        0.0000        3.3844        3.3844       2.514160       0.02879
  21     81.20        0.8703        0.0000        3.3441        3.3441       2.473814       0.02666
  20     96.49        0.8704        0.0000        3.2998        3.2998       2.429390       0.02452
  19     114.6        0.8705        0.0000        3.2506        3.2507       2.380169       0.02298
  18     136.5        0.8706        0.0000        3.1936        3.1936       2.323016       0.02198
  17     162.9        0.8708        0.0000        3.1181        3.1181       2.247337       0.02419
  16     196.4        0.8712        0.0000        3.0090        3.0090       2.137809       0.02757
  15     218.7        0.8715        0.0000        2.9420        2.9420       2.070553       0.02553
  14     243.0        0.8719        0.0000        2.8605        2.8605       1.988623       0.02842
  13     269.0        0.8726        0.0000        2.7419        2.7420       1.869423       0.03867
  12     297.5        0.8737        0.0000        2.5729        2.5729       1.699198       0.05049
  11     328.5        0.8755        0.0000        2.3602        2.3602       1.484711       0.05832
  10     361.9        0.8782        0.0000        2.1524        2.1524       1.274204       0.05326
   9     398.1        0.8821        0.0000        1.9974        1.9974       1.115320       0.03702
   8     437.6        0.8875        0.0000        1.8835        1.8835       0.996014       0.02551
   7     480.5        0.8952        0.0000        1.7734        1.7734       0.878242       0.02313
   6     533.0        0.9078        0.0000        1.6397        1.6398       0.731970       0.02353
   5     589.8        0.9258        0.0000        1.5068        1.5069       0.581029       0.02240
   4     651.6        0.9525        0.0000        1.3807        1.3807       0.428267       0.02089
   3     718.7        0.9881        0.0000        1.2680        1.2681       0.279967       0.01864
   2     792.3        1.0329        0.0000        1.1659        1.1660       0.133127       0.01684
   1     891.5        0.0049        0.0846        0.0000        0.0846       0.079665       0.00455
   0    1013.0        0.0054        0.0766        0.0000        0.0766       0.071174       0.00059

  Modules and versions used in this calculation:

       rrtmg_sw.1col.f90:  $Revision$                    rrtmg_sw_init.f90:  $Revision$        
     rrtmgsw_cldprop.f90:  $Revision$                  rrtmgsw_cldprmc.f90:  NOT USED          
     rrtmg_sw_reftra.f90:  $Revision$                  rrtmg_sw_spcvrt.f90:  NOT USED          
     rrtmg_sw_spcvmc.f90:  NOT USED                    rrtmgsw_setcoef.f90:  NOT USED          
     rrtmg_sw_taumol.f90:  $Revision$                  rrtmg_sw_vrtqdr.f90:  NOT USED          
                rrtatm.f:  NOT USED                             util_xxx.f:  NOT USED          
                 extra.f:  NOT USED                       rrtmg_sw_k_g.f90:  $Revision$        

