

 Wavenumbers:   820. - 50000. cm-1, ATM      1
 LEVEL PRESSURE   UPWARD FLUX   DIFDOWN FLUX  DIRDOWN FLUX  DOWNWARD FLUX   NET FLUX    HEATING RATE
          mb          W/m2          W/m2          W/m2        W/m2          W/m2       degree/day
  51    .06700      458.1282        0.0000      617.8126      617.8126     159.684365       0.00000
  50    .07753      458.1278        0.0014      617.7947      617.7961     159.668221      12.93938
  49    .09103      458.1274        0.0031      617.7778      617.7808     159.653406       9.25951
  48    0.1069      458.1269        0.0050      617.7581      617.7631     159.636139       9.19157
  47    0.1255      458.1264        0.0072      617.7340      617.7412     159.614787       9.68009
  46    0.1487      458.1259        0.0101      617.7009      617.7110     159.585091      10.82457
  45    0.1794      458.1252        0.0139      617.6521      617.6660     159.540844      12.14674
  44    0.2165      458.1245        0.0185      617.5895      617.6080     159.483502      13.04421
  43    0.2613      458.1238        0.0239      617.5089      617.5328     159.408963      14.05033
  42    0.3336      458.1230        0.0327      617.3641      617.3968     159.273830      15.75525
  41    0.4307      458.1224        0.0444      617.1591      617.2035     159.081135      16.75434
  40    0.5894      458.1223        0.0632      616.8005      616.8637     158.741313      18.07132
  39     1.339      458.1407        0.1483      614.9443      615.0925     156.951807      20.14659
  38     1.782      458.1643        0.1961      613.9670      614.1632     155.998822      18.14329
  37     2.292      458.2033        0.2506      613.0059      613.2565     155.053184      15.66223
  36     2.964      458.2720        0.3214      611.9577      612.2791     154.007073      13.13185
  35     3.853      458.3872        0.4143      610.8024      611.2167     152.829494      11.17544
  34     5.035      458.5643        0.5369      609.5327      610.0696     151.505298       9.45951
  33     6.613      458.8136        0.6995      608.1464      608.8460     150.032369       7.87428
  32     8.786      459.1384        0.9178      606.6250      607.5428     148.404389       6.32249
  31     11.80      459.5592        1.2285      604.8486      606.0771     146.517931       5.28149
  30     15.07      459.9599        1.5601      603.2440      604.8040     144.844104       4.32149
  29     18.79      460.3669        1.9332      601.6511      603.5843     143.217361       3.68833
  28     23.16      460.7898        2.3667      599.9927      602.3594     141.569637       3.18617
  27     28.12      461.2117        2.8602      598.2881      601.1482     139.936519       2.77619
  26     33.73      461.5938        3.4103      596.5951      600.0054     138.411560       2.29282
  25     40.54      461.9506        4.0726      594.7727      598.8453     136.894751       1.88177
  24     48.69      462.2791        4.8675      592.7865      597.6540     135.374823       1.57289
  23     57.69      462.5415        5.7363      590.7959      596.5322     133.990711       1.29740
  22     68.43      462.7471        6.7657      588.6191      595.3848     132.637645       1.06369
  21     81.20      462.8436        7.9861      586.2690      594.2551     131.411494       0.81022
  20     96.49      462.8210        9.4312      583.6961      593.1273     130.306328       0.60997
  19     114.6      462.7376       11.1313      580.7708      591.9021     129.164514       0.53315
  18     136.5      462.5942       13.1221      577.4359      590.5580     127.963798       0.46170
  17     162.9      462.3858       15.4586      573.5624      589.0210     126.635226       0.42467
  16     196.4      462.0285       18.4385      568.5907      587.0292     125.000701       0.41143
  15     218.7      461.7662       20.3653      565.0572      585.4225     123.656222       0.51045
  14     243.0      461.4748       22.4320      560.7495      583.1815     121.706793       0.67613
  13     269.0      461.1564       24.6402      555.3947      580.0349     118.878432       0.91751
  12     297.5      460.8187       26.9904      548.9964      575.9868     115.168095       1.10045
  11     328.5      460.4728       29.4893      542.0895      571.5789     111.106051       1.10446
  10     361.9      460.1287       32.1330      534.6242      566.7573     106.628514       1.13286
   9     398.1      459.8009       34.9262      526.4204      561.3466     101.545725       1.18418
   8     437.6      459.5169       37.8675      517.3907      555.2582      95.741250       1.24103
   7     480.5      459.3070       40.9550      507.7216      548.6766      89.369580       1.25137
   6     533.0      459.2260       44.6673      495.9006      540.5679      81.341860       1.29140
   5     589.8      459.4645       48.5629      483.0788      531.6418      72.177233       1.36033
   4     651.6      460.4039       52.6289      468.6907      521.3196      60.915686       1.54005
   3     718.7      462.5983       56.8572      453.2257      510.0829      47.484611       1.68791
   2     792.3      467.5483       61.2253      436.4928      497.7181      30.169866       1.98581
   1     891.5      230.7578      250.2650        0.0000      250.2650      19.507192       0.90734
   0    1013.0      232.3671      247.7908        0.0000      247.7908      15.423701       0.28354



 Wavenumbers:  2600. -  3250. cm-1, ATM      1
 LEVEL PRESSURE   UPWARD FLUX   DIFDOWN FLUX  DIRDOWN FLUX  DOWNWARD FLUX   NET FLUX    HEATING RATE
          mb          W/m2          W/m2          W/m2        W/m2          W/m2       degree/day
  51    .06700        2.1486        0.0000        5.4450        5.4450       3.296437       0.00000
  50    .07753        2.1486        0.0000        5.4450        5.4450       3.296429       0.00640
  49    .09103        2.1486        0.0000        5.4450        5.4450       3.296419       0.00627
  48    0.1069        2.1486        0.0000        5.4450        5.4450       3.296407       0.00613
  47    0.1255        2.1486        0.0000        5.4450        5.4450       3.296394       0.00599
  46    0.1487        2.1486        0.0000        5.4450        5.4450       3.296377       0.00608
  45    0.1794        2.1486        0.0000        5.4450        5.4450       3.296355       0.00625
  44    0.2165        2.1486        0.0000        5.4449        5.4449       3.296328       0.00612
  43    0.2613        2.1486        0.0000        5.4449        5.4449       3.296296       0.00600
  42    0.3336        2.1486        0.0000        5.4448        5.4448       3.296243       0.00617
  41    0.4307        2.1486        0.0000        5.4448        5.4448       3.296172       0.00620
  40    0.5894        2.1486        0.0000        5.4446        5.4446       3.296052       0.00637
  39     1.339        2.1486        0.0000        5.4439        5.4439       3.295344       0.00797
  38     1.782        2.1486        0.0000        5.4434        5.4434       3.294801       0.01034
  37     2.292        2.1486        0.0000        5.4427        5.4427       3.294085       0.01186
  36     2.964        2.1486        0.0000        5.4416        5.4416       3.293047       0.01304
  35     3.853        2.1486        0.0000        5.4402        5.4402       3.291569       0.01402
  34     5.035        2.1486        0.0000        5.4381        5.4381       3.289513       0.01469
  33     6.613        2.1486        0.0000        5.4353        5.4353       3.286732       0.01487
  32     8.786        2.1486        0.0000        5.4317        5.4317       3.283099       0.01411
  31     11.80        2.1486        0.0000        5.4269        5.4269       3.278316       0.01339
  30     15.07        2.1486        0.0000        5.4224        5.4224       3.273786       0.01169
  29     18.79        2.1486        0.0000        5.4180        5.4180       3.269370       0.01001
  28     23.16        2.1486        0.0000        5.4135        5.4135       3.264877       0.00869
  27     28.12        2.1486        0.0000        5.4088        5.4088       3.260219       0.00792
  26     33.73        2.1486        0.0000        5.4036        5.4036       3.254964       0.00790
  25     40.54        2.1487        0.0000        5.3966        5.3967       3.248000       0.00864
  24     48.69        2.1487        0.0000        5.3872        5.3872       3.238490       0.00984
  23     57.69        2.1487        0.0000        5.3754        5.3754       3.226659       0.01109
  22     68.43        2.1488        0.0000        5.3599        5.3599       3.211103       0.01223
  21     81.20        2.1489        0.0000        5.3401        5.3401       3.191174       0.01317
  20     96.49        2.1491        0.0000        5.3155        5.3155       3.166471       0.01363
  19     114.6        2.1493        0.0001        5.2853        5.2854       3.136086       0.01419
  18     136.5        2.1496        0.0001        5.2504        5.2505       3.100915       0.01352
  17     162.9        2.1500        0.0001        5.2111        5.2112       3.061192       0.01270
  16     196.4        2.1507        0.0001        5.1640        5.1641       3.013469       0.01201
  15     218.7        2.1513        0.0001        5.1331        5.1332       2.981876       0.01199
  14     243.0        2.1525        0.0001        5.0962        5.0963       2.943868       0.01318
  13     269.0        2.1542        0.0001        5.0511        5.0512       2.897019       0.01520
  12     297.5        2.1568        0.0001        4.9956        4.9957       2.838906       0.01724
  11     328.5        2.1605        0.0001        4.9304        4.9305       2.769991       0.01874
  10     361.9        2.1656        0.0002        4.8511        4.8513       2.685636       0.02134
   9     398.1        2.1727        0.0002        4.7507        4.7509       2.578172       0.02504
   8     437.6        2.1825        0.0002        4.6220        4.6222       2.439685       0.02961
   7     480.5        2.1963        0.0002        4.4625        4.4627       2.266405       0.03403
   6     533.0        2.2188        0.0002        4.2460        4.2462       2.027464       0.03844
   5     589.8        2.2534        0.0002        3.9954        3.9956       1.742214       0.04234
   4     651.6        2.3112        0.0002        3.7089        3.7091       1.397885       0.04709
   3     718.7        2.4082        0.0002        3.4018        3.4021       0.993845       0.05078
   2     792.3        2.5887        0.0002        3.0564        3.0567       0.467999       0.06031
   1     891.5        0.2980        0.4652        0.0000        0.4652       0.167221       0.02559
   0    1013.0        0.3289        0.4142        0.0000        0.4142       0.085328       0.00569



 Wavenumbers:  3250. -  4000. cm-1, ATM      1
 LEVEL PRESSURE   UPWARD FLUX   DIFDOWN FLUX  DIRDOWN FLUX  DOWNWARD FLUX   NET FLUX    HEATING RATE
          mb          W/m2          W/m2          W/m2        W/m2          W/m2       degree/day
  51    .06700        0.0814        0.0000        9.1795        9.1795       9.098147       0.00000
  50    .07753        0.0814        0.0000        9.1747        9.1747       9.093304       3.88148
  49    .09103        0.0814        0.0000        9.1713        9.1713       9.089916       2.11747
  48    0.1069        0.0814        0.0000        9.1688        9.1688       9.087391       1.34402
  47    0.1255        0.0814        0.0000        9.1665        9.1665       9.085132       1.02422
  46    0.1487        0.0814        0.0000        9.1641        9.1641       9.082691       0.88991
  45    0.1794        0.0814        0.0000        9.1612        9.1612       9.079813       0.79008
  44    0.2165        0.0814        0.0000        9.1583        9.1583       9.076892       0.66430
  43    0.2613        0.0814        0.0000        9.1553        9.1553       9.073919       0.56041
  42    0.3336        0.0814        0.0000        9.1511        9.1511       9.069740       0.48723
  41    0.4307        0.0814        0.0000        9.1464        9.1464       9.064972       0.41459
  40    0.5894        0.0814        0.0000        9.1393        9.1394       9.057967       0.37255
  39     1.339        0.0814        0.0000        9.1127        9.1127       9.031353       0.29962
  38     1.782        0.0814        0.0000        9.1011        9.1011       9.019765       0.22062
  37     2.292        0.0814        0.0000        9.0901        9.0901       9.008698       0.18329
  36     2.964        0.0814        0.0000        9.0776        9.0776       8.996268       0.15603
  35     3.853        0.0814        0.0000        9.0629        9.0629       8.981478       0.14036
  34     5.035        0.0814        0.0000        9.0441        9.0441       8.962739       0.13386
  33     6.613        0.0814        0.0000        9.0191        9.0191       8.937738       0.13366
  32     8.786        0.0814        0.0000        8.9843        8.9843       8.902954       0.13509
  31     11.80        0.0814        0.0000        8.9327        8.9327       8.851338       0.14451
  30     15.07        0.0814        0.0000        8.8758        8.8759       8.794493       0.14676
  29     18.79        0.0814        0.0000        8.8110        8.8110       8.729665       0.14698
  28     23.16        0.0814        0.0000        8.7365        8.7366       8.655221       0.14395
  27     28.12        0.0813        0.0000        8.6554        8.6555       8.574107       0.13789
  26     33.73        0.0813        0.0000        8.5719        8.5719       8.490608       0.12554
  25     40.54        0.0813        0.0001        8.4812        8.4812       8.399884       0.11255
  24     48.69        0.0813        0.0001        8.3838        8.3839       8.302582       0.10069
  23     57.69        0.0813        0.0001        8.2861        8.2862       8.204847       0.09161
  22     68.43        0.0813        0.0001        8.1751        8.1751       8.093850       0.08726
  21     81.20        0.0813        0.0001        8.0457        8.0458       7.964492       0.08548
  20     96.49        0.0813        0.0001        7.8949        7.8951       7.813788       0.08318
  19     114.6        0.0812        0.0001        7.7162        7.7163       7.635078       0.08345
  18     136.5        0.0812        0.0002        7.5193        7.5195       7.438233       0.07569
  17     162.9        0.0812        0.0002        7.2913        7.2915       7.210340       0.07284
  16     196.4        0.0812        0.0002        6.9660        6.9662       6.885061       0.08188
  15     218.7        0.0812        0.0002        6.6648        6.6650       6.583859       0.11436
  14     243.0        0.0812        0.0002        6.2619        6.2622       6.181030       0.13971
  13     269.0        0.0812        0.0003        5.7576        5.7579       5.676647       0.16362
  12     297.5        0.0814        0.0003        5.1719        5.1722       5.090779       0.17376
  11     328.5        0.0817        0.0002        4.5757        4.5760       4.494310       0.16218
  10     361.9        0.0822        0.0002        3.9995        3.9998       3.917623       0.14591
   9     398.1        0.0830        0.0002        3.4655        3.4657       3.382727       0.12462
   8     437.6        0.0844        0.0002        2.9740        2.9743       2.889883       0.10537
   7     480.5        0.0866        0.0002        2.5307        2.5309       2.444251       0.08752
   6     533.0        0.0910        0.0002        2.0614        2.0616       1.970595       0.07620
   5     589.8        0.0989        0.0002        1.6150        1.6151       1.516199       0.06745
   4     651.6        0.1156        0.0001        1.1565        1.1566       1.041004       0.06498
   3     718.7        0.1523        0.0001        0.7390        0.7391       0.586773       0.05708
   2     792.3        0.2509        0.0001        0.3985        0.3985       0.147655       0.05036
   1     891.5        0.0000        0.0031        0.0000        0.0031       0.003043       0.01231
   0    1013.0        0.0003        0.0003        0.0000        0.0003       0.000066       0.00021



 Wavenumbers:  4000. -  4650. cm-1, ATM      1
 LEVEL PRESSURE   UPWARD FLUX   DIFDOWN FLUX  DIRDOWN FLUX  DOWNWARD FLUX   NET FLUX    HEATING RATE
          mb          W/m2          W/m2          W/m2        W/m2          W/m2       degree/day
  51    .06700        6.9113        0.0000       10.7795       10.7795       3.868217       0.00000
  50    .07753        6.9113        0.0000       10.7795       10.7795       3.868216       0.00080
  49    .09103        6.9113        0.0000       10.7795       10.7795       3.868215       0.00078
  48    0.1069        6.9113        0.0000       10.7795       10.7795       3.868214       0.00077
  47    0.1255        6.9113        0.0000       10.7795       10.7795       3.868212       0.00075
  46    0.1487        6.9113        0.0000       10.7795       10.7795       3.868210       0.00076
  45    0.1794        6.9113        0.0000       10.7795       10.7795       3.868207       0.00078
  44    0.2165        6.9113        0.0000       10.7795       10.7795       3.868204       0.00076
  43    0.2613        6.9113        0.0000       10.7795       10.7795       3.868200       0.00075
  42    0.3336        6.9113        0.0000       10.7795       10.7795       3.868193       0.00077
  41    0.4307        6.9113        0.0000       10.7795       10.7795       3.868184       0.00078
  40    0.5894        6.9113        0.0000       10.7795       10.7795       3.868169       0.00080
  39     1.339        6.9113        0.0000       10.7794       10.7794       3.868080       0.00101
  38     1.782        6.9113        0.0000       10.7793       10.7793       3.868010       0.00133
  37     2.292        6.9113        0.0000       10.7792       10.7792       3.867915       0.00156
  36     2.964        6.9113        0.0000       10.7791       10.7791       3.867775       0.00177
  35     3.853        6.9113        0.0000       10.7789       10.7789       3.867566       0.00198
  34     5.035        6.9113        0.0000       10.7786       10.7786       3.867258       0.00220
  33     6.613        6.9113        0.0000       10.7781       10.7781       3.866805       0.00242
  32     8.786        6.9113        0.0000       10.7774       10.7775       3.866135       0.00260
  31     11.80        6.9113        0.0001       10.7763       10.7764       3.865082       0.00295
  30     15.07        6.9113        0.0001       10.7751       10.7752       3.863847       0.00319
  29     18.79        6.9113        0.0001       10.7736       10.7737       3.862351       0.00339
  28     23.16        6.9113        0.0001       10.7717       10.7718       3.860492       0.00359
  27     28.12        6.9114        0.0001       10.7695       10.7696       3.858239       0.00383
  26     33.73        6.9114        0.0002       10.7667       10.7668       3.855457       0.00418
  25     40.54        6.9114        0.0002       10.7629       10.7631       3.851679       0.00469
  24     48.69        6.9115        0.0002       10.7579       10.7582       3.846637       0.00522
  23     57.69        6.9116        0.0003       10.7520       10.7523       3.840648       0.00561
  22     68.43        6.9118        0.0003       10.7446       10.7449       3.833126       0.00591
  21     81.20        6.9121        0.0004       10.7355       10.7359       3.823841       0.00614
  20     96.49        6.9124        0.0005       10.7245       10.7250       3.812511       0.00625
  19     114.6        6.9130        0.0006       10.7107       10.7113       3.798297       0.00664
  18     136.5        6.9138        0.0007       10.6942       10.6949       3.781111       0.00661
  17     162.9        6.9149        0.0008       10.6740       10.6748       3.759945       0.00677
  16     196.4        6.9168        0.0010       10.6464       10.6473       3.730575       0.00739
  15     218.7        6.9184        0.0011       10.6255       10.6265       3.708119       0.00853
  14     243.0        6.9208        0.0012       10.5980       10.5993       3.678422       0.01030
  13     269.0        6.9244        0.0013       10.5611       10.5624       3.638040       0.01310
  12     297.5        6.9296        0.0015       10.5119       10.5134       3.583855       0.01607
  11     328.5        6.9367        0.0016       10.4499       10.4515       3.514839       0.01877
  10     361.9        6.9460        0.0018       10.3702       10.3720       3.425988       0.02248
   9     398.1        6.9577        0.0019       10.2678       10.2697       3.312016       0.02655
   8     437.6        6.9728        0.0021       10.1390       10.1411       3.168328       0.03072
   7     480.5        6.9922        0.0023        9.9877        9.9900       2.997771       0.03350
   6     533.0        7.0224        0.0025        9.7937        9.7962       2.773767       0.03604
   5     589.8        7.0666        0.0027        9.5752        9.5779       2.511288       0.03896
   4     651.6        7.1390        0.0030        9.2958        9.2988       2.159782       0.04807
   3     718.7        7.2633        0.0032        8.9267        8.9299       1.666644       0.06197
   2     792.3        7.5046        0.0034        8.4542        8.4576       0.952985       0.08185
   1     891.5        1.4298        1.9542        0.0000        1.9542       0.524374       0.03647
   0    1013.0        1.4841        1.8692        0.0000        1.8692       0.385046       0.00967



 Wavenumbers:  4650. -  5150. cm-1, ATM      1
 LEVEL PRESSURE   UPWARD FLUX   DIFDOWN FLUX  DIRDOWN FLUX  DOWNWARD FLUX   NET FLUX    HEATING RATE
          mb          W/m2          W/m2          W/m2        W/m2          W/m2       degree/day
  51    .06700        4.9947        0.0000       10.2033       10.2033       5.208616       0.00000
  50    .07753        4.9947        0.0000       10.2031       10.2031       5.208380       0.18901
  49    .09103        4.9947        0.0000       10.2028       10.2028       5.208086       0.18428
  48    0.1069        4.9947        0.0000       10.2025       10.2025       5.207749       0.17931
  47    0.1255        4.9947        0.0000       10.2021       10.2021       5.207364       0.17426
  46    0.1487        4.9947        0.0000       10.2016       10.2016       5.206883       0.17536
  45    0.1794        4.9947        0.0000       10.2010       10.2010       5.206233       0.17850
  44    0.2165        4.9947        0.0000       10.2002       10.2002       5.205474       0.17277
  43    0.2613        4.9947        0.0000       10.1993       10.1993       5.204588       0.16690
  42    0.3336        4.9947        0.0000       10.1979       10.1979       5.203156       0.16702
  41    0.4307        4.9947        0.0000       10.1960       10.1960       5.201315       0.16002
  40    0.5894        4.9947        0.0000       10.1932       10.1932       5.198441       0.15283
  39     1.339        4.9947        0.0000       10.1816       10.1816       5.186849       0.13051
  38     1.782        4.9947        0.0000       10.1760       10.1760       5.181319       0.10527
  37     2.292        4.9947        0.0000       10.1706       10.1706       5.175862       0.09039
  36     2.964        4.9947        0.0000       10.1646       10.1647       5.169937       0.07437
  35     3.853        4.9947        0.0000       10.1584       10.1584       5.163721       0.05900
  34     5.035        4.9947        0.0000       10.1521       10.1521       5.157381       0.04529
  33     6.613        4.9947        0.0000       10.1456       10.1456       5.150916       0.03456
  32     8.786        4.9947        0.0001       10.1386       10.1386       5.143892       0.02728
  31     11.80        4.9948        0.0001       10.1295       10.1296       5.134827       0.02538
  30     15.07        4.9948        0.0001       10.1196       10.1197       5.124915       0.02559
  29     18.79        4.9949        0.0001       10.1076       10.1077       5.112860       0.02733
  28     23.16        4.9949        0.0002       10.0923       10.0924       5.097489       0.02972
  27     28.12        4.9950        0.0002       10.0731       10.0733       5.078303       0.03262
  26     33.73        4.9952        0.0002       10.0500       10.0503       5.055087       0.03491
  25     40.54        4.9954        0.0003       10.0201       10.0204       5.025009       0.03731
  24     48.69        4.9957        0.0004        9.9820        9.9823       4.986591       0.03976
  23     57.69        4.9961        0.0004        9.9384        9.9389       4.942734       0.04111
  22     68.43        4.9967        0.0005        9.8858        9.8862       4.889563       0.04180
  21     81.20        4.9975        0.0006        9.8234        9.8240       4.826565       0.04163
  20     96.49        4.9985        0.0007        9.7518        9.7524       4.753908       0.04010
  19     114.6        5.0000        0.0008        9.6719        9.6727       4.672701       0.03792
  18     136.5        5.0021        0.0010        9.5858        9.5868       4.584671       0.03385
  17     162.9        5.0049        0.0011        9.4940        9.4952       4.490232       0.03019
  16     196.4        5.0093        0.0014        9.3883        9.3896       4.380302       0.02767
  15     218.7        5.0128        0.0015        9.3229        9.3244       4.311642       0.02607
  14     243.0        5.0172        0.0017        9.2520        9.2536       4.236406       0.02609
  13     269.0        5.0232        0.0018        9.1717        9.1735       4.150300       0.02793
  12     297.5        5.0315        0.0020        9.0763        9.0783       4.046807       0.03069
  11     328.5        5.0423        0.0022        8.9650        8.9672       3.924893       0.03315
  10     361.9        5.0562        0.0024        8.8349        8.8373       3.781118       0.03638
   9     398.1        5.0743        0.0026        8.6820        8.6846       3.610332       0.03979
   8     437.6        5.0978        0.0028        8.5028        8.5056       3.407774       0.04331
   7     480.5        5.1285        0.0030        8.2948        8.2978       3.169306       0.04683
   6     533.0        5.1755        0.0033        8.0209        8.0242       2.848667       0.05158
   5     589.8        5.2411        0.0035        7.7063        7.7099       2.468801       0.05638
   4     651.6        5.3387        0.0038        7.3412        7.3450       2.006335       0.06324
   3     718.7        5.4878        0.0040        6.9387        6.9426       1.454878       0.06930
   2     792.3        5.7303        0.0042        6.5066        6.5108       0.780433       0.07735
   1     891.5        0.9832        1.3756        0.0000        1.3756       0.392433       0.03302
   0    1013.0        1.0321        1.2999        0.0000        1.2999       0.267780       0.00866



 Wavenumbers:  5150. -  6150. cm-1, ATM      1
 LEVEL PRESSURE   UPWARD FLUX   DIFDOWN FLUX  DIRDOWN FLUX  DOWNWARD FLUX   NET FLUX    HEATING RATE
          mb          W/m2          W/m2          W/m2        W/m2          W/m2       degree/day
  51    .06700       11.8421        0.0000       25.5798       25.5798      13.737681       0.00000
  50    .07753       11.8421        0.0000       25.5798       25.5798      13.737641       0.03163
  49    .09103       11.8421        0.0000       25.5797       25.5797      13.737590       0.03212
  48    0.1069       11.8421        0.0000       25.5797       25.5797      13.737529       0.03262
  47    0.1255       11.8421        0.0000       25.5796       25.5796      13.737456       0.03312
  46    0.1487       11.8421        0.0000       25.5795       25.5795      13.737360       0.03490
  45    0.1794       11.8421        0.0000       25.5794       25.5794      13.737225       0.03714
  44    0.2165       11.8421        0.0000       25.5792       25.5792      13.737059       0.03770
  43    0.2613       11.8421        0.0000       25.5790       25.5790      13.736856       0.03828
  42    0.3336       11.8421        0.0000       25.5786       25.5786      13.736509       0.04044
  41    0.4307       11.8421        0.0000       25.5782       25.5782      13.736038       0.04099
  40    0.5894       11.8421        0.0000       25.5774       25.5774      13.735248       0.04200
  39     1.339       11.8421        0.0000       25.5735       25.5736      13.731443       0.04284
  38     1.782       11.8421        0.0001       25.5713       25.5714      13.729226       0.04219
  37     2.292       11.8421        0.0001       25.5688       25.5688      13.726717       0.04156
  36     2.964       11.8421        0.0001       25.5656       25.5657      13.723529       0.04003
  35     3.853       11.8421        0.0001       25.5615       25.5616      13.719475       0.03847
  34     5.035       11.8422        0.0002       25.5562       25.5564      13.714252       0.03731
  33     6.613       11.8422        0.0002       25.5494       25.5496      13.707475       0.03623
  32     8.786       11.8422        0.0003       25.5406       25.5409      13.698688       0.03412
  31     11.80       11.8423        0.0004       25.5287       25.5290      13.686797       0.03329
  30     15.07       11.8423        0.0005       25.5167       25.5172      13.674864       0.03081
  29     18.79       11.8424        0.0006       25.5042       25.5048      13.662377       0.02831
  28     23.16       11.8425        0.0008       25.4907       25.4914      13.648914       0.02603
  27     28.12       11.8427        0.0009       25.4764       25.4774      13.634701       0.02416
  26     33.73       11.8428        0.0011       25.4620       25.4631      13.620272       0.02170
  25     40.54       11.8431        0.0013       25.4463       25.4476      13.604452       0.01963
  24     48.69       11.8435        0.0016       25.4294       25.4309      13.587455       0.01759
  23     57.69       11.8440        0.0019       25.4126       25.4145      13.570522       0.01587
  22     68.43       11.8446        0.0022       25.3944       25.3966      13.552076       0.01450
  21     81.20       11.8453        0.0026       25.3744       25.3771      13.531713       0.01346
  20     96.49       11.8463        0.0031       25.3519       25.3551      13.508770       0.01266
  19     114.6       11.8475        0.0037       25.3262       25.3299      13.482406       0.01231
  18     136.5       11.8489        0.0044       25.2962       25.3006      13.451668       0.01182
  17     162.9       11.8508        0.0052       25.2521       25.2573      13.406589       0.01441
  16     196.4       11.8532        0.0063       25.1593       25.1656      13.312358       0.02372
  15     218.7       11.8550        0.0070       25.0159       25.0229      13.167883       0.05485
  14     243.0       11.8572        0.0077       24.7089       24.7166      12.859365       0.10700
  13     269.0       11.8601        0.0084       24.1619       24.1703      12.310174       0.17816
  12     297.5       11.8639        0.0091       23.4544       23.4635      11.599559       0.21076
  11     328.5       11.8689        0.0098       22.7355       22.7453      10.876335       0.19664
  10     361.9       11.8756        0.0105       21.9224       21.9330      10.057373       0.20721
   9     398.1       11.8845        0.0113       20.9939       21.0052       9.120619       0.21824
   8     437.6       11.8970        0.0119       19.9833       19.9953       8.098261       0.21859
   7     480.5       11.9143        0.0126       18.9483       18.9609       7.046604       0.20654
   6     533.0       11.9437        0.0134       17.7796       17.7930       5.849223       0.19262
   5     589.8       11.9916        0.0142       16.6726       16.6867       4.695087       0.17131
   4     651.6       12.0797        0.0150       15.6343       15.6493       3.569526       0.15392
   3     718.7       12.2424        0.0158       14.7738       14.7896       2.547190       0.12848
   2     792.3       12.5735        0.0168       14.0291       14.0459       1.472416       0.12326
   1     891.5        2.6932        3.5695        0.0000        3.5695       0.876227       0.05073
   0    1013.0        2.7532        3.4675        0.0000        3.4675       0.714300       0.01124



 Wavenumbers:  6150. -  7700. cm-1, ATM      1
 LEVEL PRESSURE   UPWARD FLUX   DIFDOWN FLUX  DIRDOWN FLUX  DOWNWARD FLUX   NET FLUX    HEATING RATE
          mb          W/m2          W/m2          W/m2        W/m2          W/m2       degree/day
  51    .06700       19.0439        0.0000       47.3109       47.3109      28.266971       0.00000
  50    .07753       19.0439        0.0000       47.3108       47.3108      28.266914       0.04553
  49    .09103       19.0439        0.0000       47.3107       47.3107      28.266841       0.04583
  48    0.1069       19.0439        0.0000       47.3106       47.3106      28.266754       0.04614
  47    0.1255       19.0439        0.0000       47.3105       47.3105      28.266651       0.04645
  46    0.1487       19.0439        0.0000       47.3104       47.3104      28.266518       0.04852
  45    0.1794       19.0439        0.0000       47.3102       47.3102      28.266332       0.05127
  44    0.2165       19.0439        0.0000       47.3100       47.3100      28.266104       0.05167
  43    0.2613       19.0439        0.0000       47.3097       47.3097      28.265828       0.05210
  42    0.3336       19.0439        0.0000       47.3092       47.3092      28.265359       0.05471
  41    0.4307       19.0439        0.0000       47.3085       47.3086      28.264724       0.05521
  40    0.5894       19.0438        0.0001       47.3074       47.3075      28.263664       0.05633
  39     1.339       19.0438        0.0002       47.3022       47.3024      28.258572       0.05733
  38     1.782       19.0438        0.0002       47.2991       47.2994      28.255602       0.05655
  37     2.292       19.0437        0.0003       47.2956       47.2959      28.252226       0.05591
  36     2.964       19.0437        0.0004       47.2912       47.2916      28.247908       0.05421
  35     3.853       19.0436        0.0005       47.2855       47.2860      28.242373       0.05252
  34     5.035       19.0435        0.0007       47.2780       47.2787      28.235193       0.05130
  33     6.613       19.0434        0.0009       47.2683       47.2692      28.225805       0.05019
  32     8.786       19.0432        0.0012       47.2556       47.2567      28.213505       0.04777
  31     11.80       19.0430        0.0016       47.2380       47.2396      28.196601       0.04733
  30     15.07       19.0428        0.0020       47.2201       47.2221      28.179312       0.04464
  29     18.79       19.0425        0.0025       47.2008       47.2033      28.160831       0.04190
  28     23.16       19.0422        0.0031       47.1795       47.1826      28.140439       0.03943
  27     28.12       19.0418        0.0037       47.1565       47.1602      28.118444       0.03739
  26     33.73       19.0414        0.0045       47.1324       47.1369      28.095519       0.03447
  25     40.54       19.0409        0.0054       47.1054       47.1108      28.069879       0.03181
  24     48.69       19.0403        0.0065       47.0754       47.0819      28.041620       0.02924
  23     57.69       19.0396        0.0077       47.0449       47.0526      28.012992       0.02683
  22     68.43       19.0388        0.0091       47.0110       47.0201      27.981246       0.02496
  21     81.20       19.0379        0.0108       46.9729       46.9836      27.945740       0.02346
  20     96.49       19.0368        0.0128       46.9294       46.9422      27.905383       0.02227
  19     114.6       19.0355        0.0152       46.8790       46.8942      27.858725       0.02179
  18     136.5       19.0340        0.0181       46.8200       46.8380      27.804067       0.02102
  17     162.9       19.0322        0.0214       46.7361       46.7576      27.725383       0.02515
  16     196.4       19.0300        0.0258       46.5703       46.5961      27.566026       0.04011
  15     218.7       19.0289        0.0286       46.3473       46.3759      27.347064       0.08313
  14     243.0       19.0281        0.0316       45.9299       45.9615      26.933420       0.14347
  13     269.0       19.0281        0.0346       45.1708       45.2054      26.177249       0.24530
  12     297.5       19.0300        0.0376       44.0115       44.0490      25.018973       0.34353
  11     328.5       19.0344        0.0406       42.7242       42.7648      23.730370       0.35037
  10     361.9       19.0425        0.0436       41.3539       41.3976      22.355071       0.34796
   9     398.1       19.0564        0.0467       39.7953       39.8419      20.785550       0.36566
   8     437.6       19.0796        0.0495       37.9948       38.0443      18.964655       0.38932
   7     480.5       19.1167        0.0523       36.0647       36.1170      17.000295       0.38579
   6     533.0       19.1863        0.0553       33.7773       33.8326      14.646276       0.37869
   5     589.8       19.3077        0.0581       31.4082       31.4663      12.158581       0.36926
   4     651.6       19.5427        0.0604       28.8834       28.9438       9.401088       0.37709
   3     718.7       19.9963        0.0625       26.4104       26.4728       6.476510       0.36754
   2     792.3       20.9816        0.0642       24.0056       24.0698       3.088176       0.38860
   1     891.5        3.7869        5.1909        0.0000        5.1909       1.403996       0.14332
   0    1013.0        3.9275        4.9464        0.0000        4.9464       1.018967       0.02673



 Wavenumbers:  7700. -  8050. cm-1, ATM      1
 LEVEL PRESSURE   UPWARD FLUX   DIFDOWN FLUX  DIRDOWN FLUX  DOWNWARD FLUX   NET FLUX    HEATING RATE
          mb          W/m2          W/m2          W/m2        W/m2          W/m2       degree/day
  51    .06700        8.6581        0.0000       11.1810       11.1810       2.522906       0.00000
  50    .07753        8.6581        0.0000       11.1809       11.1809       2.522882       0.01916
  49    .09103        8.6581        0.0000       11.1809       11.1809       2.522852       0.01878
  48    0.1069        8.6581        0.0000       11.1809       11.1809       2.522818       0.01838
  47    0.1255        8.6581        0.0000       11.1809       11.1809       2.522778       0.01799
  46    0.1487        8.6581        0.0000       11.1808       11.1808       2.522728       0.01825
  45    0.1794        8.6581        0.0000       11.1808       11.1808       2.522660       0.01878
  44    0.2165        8.6581        0.0000       11.1807       11.1807       2.522579       0.01843
  43    0.2613        8.6582        0.0000       11.1806       11.1806       2.522483       0.01808
  42    0.3336        8.6582        0.0000       11.1805       11.1805       2.522324       0.01850
  41    0.4307        8.6583        0.0000       11.1803       11.1804       2.522114       0.01830
  40    0.5894        8.6583        0.0000       11.1801       11.1801       2.521770       0.01828
  39     1.339        8.6587        0.0001       11.1788       11.1789       2.520143       0.01831
  38     1.782        8.6590        0.0001       11.1781       11.1782       2.519188       0.01819
  37     2.292        8.6593        0.0001       11.1772       11.1773       2.518082       0.01832
  36     2.964        8.6596        0.0002       11.1761       11.1763       2.516630       0.01823
  35     3.853        8.6601        0.0002       11.1746       11.1748       2.514712       0.01821
  34     5.035        8.6607        0.0003       11.1726       11.1729       2.512163       0.01821
  33     6.613        8.6616        0.0004       11.1700       11.1704       2.508758       0.01820
  32     8.786        8.6628        0.0005       11.1664       11.1669       2.504171       0.01782
  31     11.80        8.6644        0.0007       11.1613       11.1620       2.497611       0.01837
  30     15.07        8.6662        0.0009       11.1558       11.1568       2.490572       0.01817
  29     18.79        8.6682        0.0012       11.1497       11.1508       2.482624       0.01802
  28     23.16        8.6706        0.0014       11.1425       11.1439       2.473350       0.01793
  27     28.12        8.6733        0.0017       11.1343       11.1361       2.462755       0.01801
  26     33.73        8.6764        0.0021       11.1252       11.1273       2.450914       0.01780
  25     40.54        8.6801        0.0025       11.1142       11.1167       2.436633       0.01772
  24     48.69        8.6846        0.0030       11.1010       11.1040       2.419451       0.01778
  23     57.69        8.6895        0.0035       11.0866       11.0901       2.400626       0.01765
  22     68.43        8.6955        0.0042       11.0695       11.0737       2.378270       0.01757
  21     81.20        8.7026        0.0050       11.0494       11.0544       2.351730       0.01754
  20     96.49        8.7112        0.0059       11.0255       11.0315       2.320240       0.01738
  19     114.6        8.7215        0.0070       10.9975       11.0046       2.283037       0.01737
  18     136.5        8.7339        0.0083       10.9648       10.9731       2.239193       0.01686
  17     162.9        8.7489        0.0099       10.9263       10.9362       2.187317       0.01658
  16     196.4        8.7686        0.0119       10.8773       10.8892       2.120540       0.01681
  15     218.7        8.7818        0.0132       10.8455       10.8588       2.076932       0.01656
  14     243.0        8.7964        0.0147       10.8114       10.8261       2.029682       0.01639
  13     269.0        8.8125        0.0162       10.7749       10.7911       1.978561       0.01658
  12     297.5        8.8304        0.0179       10.7357       10.7536       1.923262       0.01640
  11     328.5        8.8501        0.0197       10.6937       10.7135       1.863373       0.01628
  10     361.9        8.8720        0.0217       10.6489       10.6705       1.798565       0.01640
   9     398.1        8.8964        0.0238       10.6008       10.6246       1.728190       0.01640
   8     437.6        8.9237        0.0261       10.5491       10.5751       1.651437       0.01641
   7     480.5        8.9544        0.0285       10.4934       10.5219       1.567536       0.01648
   6     533.0        8.9944        0.0314       10.4243       10.4557       1.461334       0.01708
   5     589.8        9.0411        0.0347       10.3479       10.3825       1.341459       0.01779
   4     651.6        9.0972        0.0381       10.2613       10.2994       1.202269       0.01903
   3     718.7        9.1660        0.0417       10.1618       10.2035       1.037527       0.02070
   2     792.3        9.2537        0.0456       10.0439       10.0895       0.835855       0.02313
   1     891.5        2.1787        2.8565        0.0000        2.8565       0.677744       0.01345
   0    1013.0        2.2224        2.7989        0.0000        2.7989       0.576582       0.00702



 Wavenumbers:  8050. - 12850. cm-1, ATM      1
 LEVEL PRESSURE   UPWARD FLUX   DIFDOWN FLUX  DIRDOWN FLUX  DOWNWARD FLUX   NET FLUX    HEATING RATE
          mb          W/m2          W/m2          W/m2        W/m2          W/m2       degree/day
  51    .06700      113.3633        0.0000      156.5418      156.5418      43.178456       0.00000
  50    .07753      113.3633        0.0000      156.5417      156.5417      43.178456      -0.00000
  49    .09103      113.3633        0.0001      156.5417      156.5417      43.178456      -0.00000
  48    0.1069      113.3633        0.0001      156.5416      156.5417      43.178456       0.00000
  47    0.1255      113.3632        0.0002      156.5415      156.5417      43.178456       0.00000
  46    0.1487      113.3632        0.0002      156.5414      156.5417      43.178456       0.00000
  45    0.1794      113.3632        0.0003      156.5413      156.5416      43.178456       0.00000
  44    0.2165      113.3632        0.0005      156.5412      156.5416      43.178456      -0.00000
  43    0.2613      113.3631        0.0006      156.5410      156.5416      43.178456      -0.00000
  42    0.3336      113.3630        0.0008      156.5407      156.5415      43.178456       0.00000
  41    0.4307      113.3630        0.0011      156.5403      156.5414      43.178456       0.00000
  40    0.5894      113.3628        0.0016      156.5397      156.5413      43.178456       0.00000
  39     1.339      113.3621        0.0038      156.5367      156.5405      43.178456       0.00000
  38     1.782      113.3617        0.0051      156.5350      156.5401      43.178456      -0.00000
  37     2.292      113.3612        0.0067      156.5330      156.5397      43.178456       0.00000
  36     2.964      113.3606        0.0087      156.5303      156.5390      43.178456       0.00000
  35     3.853      113.3597        0.0113      156.5268      156.5382      43.178456      -0.00000
  34     5.035      113.3586        0.0149      156.5222      156.5371      43.178456       0.00000
  33     6.613      113.3571        0.0196      156.5160      156.5356      43.178456      -0.00000
  32     8.786      113.3551        0.0259      156.5076      156.5336      43.178456       0.00000
  31     11.80      113.3523        0.0351      156.4957      156.5307      43.178456      -0.00000
  30     15.07      113.3492        0.0448      156.4828      156.5276      43.178456       0.00000
  29     18.79      113.3457        0.0559      156.4682      156.5241      43.178456      -0.00000
  28     23.16      113.3416        0.0689      156.4512      156.5201      43.178456       0.00000
  27     28.12      113.3369        0.0837      156.4317      156.5154      43.178456      -0.00000
  26     33.73      113.3317        0.1003      156.4099      156.5102      43.178456       0.00000
  25     40.54      113.3254        0.1204      156.3834      156.5038      43.178456       0.00000
  24     48.69      113.3177        0.1447      156.3515      156.4962      43.178456       0.00000
  23     57.69      113.3093        0.1714      156.3164      156.4878      43.178456       0.00000
  22     68.43      113.2993        0.2032      156.2746      156.4778      43.178456      -0.00000
  21     81.20      113.2873        0.2412      156.2246      156.4658      43.178456      -0.00000
  20     96.49      113.2730        0.2866      156.1649      156.4515      43.178456       0.00000
  19     114.6      113.2563        0.3405      156.0879      156.4285      43.172160       0.00294
  18     136.5      113.2364        0.4046      155.9962      156.4008      43.164355       0.00300
  17     162.9      113.2127        0.4811      155.8831      156.3642      43.151422       0.00413
  16     196.4      113.1821        0.5806      155.7199      156.3005      43.118354       0.00832
  15     218.7      113.1626        0.6460      155.5733      156.2193      43.056722       0.02340
  14     243.0      113.1426        0.7171      155.3367      156.0538      42.911135       0.05049
  13     269.0      113.1243        0.7940      154.9514      155.7454      42.621150       0.09407
  12     297.5      113.1108        0.8769      154.3896      155.2665      42.155727       0.13804
  11     328.5      113.1042        0.9662      153.7151      154.6813      41.577160       0.15731
  10     361.9      113.1089        1.0622      152.9087      153.9709      40.861998       0.18094
   9     398.1      113.1323        1.1648      151.8986      153.0634      39.931127       0.21687
   8     437.6      113.1869        1.2740      150.6031      151.8772      38.690273       0.26530
   7     480.5      113.2881        1.3896      149.0014      150.3910      37.102878       0.31176
   6     533.0      113.4938        1.5295      146.7375      148.2670      34.773225       0.37477
   5     589.8      113.8671        1.6761      143.8730      145.5491      31.681978       0.45884
   4     651.6      114.5962        1.8266      140.0955      141.9221      27.325924       0.59570
   3     718.7      115.9655        1.9793      135.5278      137.5070      21.541563       0.72693
   2     792.3      118.7094        2.1303      130.0690      132.1993      13.489853       0.92344
   1     891.5       25.2037       33.6071        0.0000       33.6071       8.403432       0.43283
   0    1013.0       25.8533       32.5609        0.0000       32.5609       6.707540       0.11775



 Wavenumbers: 12850. - 16000. cm-1, ATM      1
 LEVEL PRESSURE   UPWARD FLUX   DIFDOWN FLUX  DIRDOWN FLUX  DOWNWARD FLUX   NET FLUX    HEATING RATE
          mb          W/m2          W/m2          W/m2        W/m2          W/m2       degree/day
  51    .06700       81.3062        0.0000       98.0872       98.0872      16.781044       0.00000
  50    .07753       81.3062        0.0001       98.0864       98.0864      16.780251       0.63568
  49    .09103       81.3062        0.0002       98.0853       98.0855      16.779255       0.62276
  48    0.1069       81.3062        0.0003       98.0841       98.0843      16.778109       0.60962
  47    0.1255       81.3062        0.0004       98.0826       98.0830      16.776793       0.59681
  46    0.1487       81.3063        0.0005       98.0809       98.0814      16.775131       0.60592
  45    0.1794       81.3063        0.0007       98.0784       98.0792      16.772868       0.62113
  44    0.2165       81.3064        0.0010       98.0756       98.0766      16.770205       0.60584
  43    0.2613       81.3065        0.0013       98.0723       98.0736      16.767071       0.59081
  42    0.3336       81.3068        0.0017       98.0670       98.0688      16.761950       0.59699
  41    0.4307       81.3072        0.0024       98.0602       98.0626      16.755322       0.57635
  40    0.5894       81.3081        0.0034       98.0496       98.0530      16.744860       0.55635
  39     1.339       81.3154        0.0083       98.0043       98.0126      16.697186       0.53672
  38     1.782       81.3220        0.0111       97.9793       97.9904      16.668392       0.54820
  37     2.292       81.3318        0.0144       97.9498       97.9642      16.632409       0.59596
  36     2.964       81.3479        0.0188       97.9088       97.9276      16.579645       0.66235
  35     3.853       81.3739        0.0245       97.8503       97.8749      16.500933       0.74700
  34     5.035       81.4130        0.0321       97.7680       97.8001      16.387131       0.81295
  33     6.613       81.4675        0.0423       97.6562       97.6985      16.230976       0.83480
  32     8.786       81.5385        0.0560       97.5107       97.5666      16.028136       0.78776
  31     11.80       81.6311        0.0755       97.3179       97.3934      15.762342       0.74414
  30     15.07       81.7199        0.0965       97.1283       97.2248      15.504979       0.66446
  29     18.79       81.8107        0.1202       96.9300       97.0502      15.239511       0.60190
  28     23.16       81.9059        0.1478       96.7166       96.8644      14.958529       0.54333
  27     28.12       82.0019        0.1794       96.4935       96.6729      14.670982       0.48881
  26     33.73       82.0912        0.2148       96.2731       96.4879      14.396725       0.41235
  25     40.54       82.1778        0.2575       96.0408       96.2983      14.120501       0.34269
  24     48.69       82.2617        0.3090       95.7946       96.1036      13.841906       0.28830
  23     57.69       82.3340        0.3656       95.5573       95.9229      13.588900       0.23716
  22     68.43       82.3986        0.4331       95.3106       95.7437      13.345040       0.19171
  21     81.20       82.4462        0.5135       95.0643       95.5779      13.131665       0.14100
  20     96.49       82.4757        0.6096       94.8153       95.4248      12.949090       0.10077
  19     114.6       82.5082        0.7246       94.5411       95.2656      12.757444       0.08949
  18     136.5       82.5353        0.8609       94.2320       95.0930      12.557663       0.07682
  17     162.9       82.5573        1.0233       93.8753       94.8986      12.341285       0.06916
  16     196.4       82.5639        1.2339       93.4347       94.6686      12.104649       0.05956
  15     218.7       82.5606        1.3722       93.1513       94.5235      11.962909       0.05381
  14     243.0       82.5540        1.5225       92.8439       94.3665      11.812464       0.05218
  13     269.0       82.5444        1.6854       92.5111       94.1966      11.652154       0.05200
  12     297.5       82.5327        1.8615       92.1495       94.0110      11.478237       0.05158
  11     328.5       82.5213        2.0517       91.7554       93.8071      11.285745       0.05234
  10     361.9       82.5116        2.2564       91.3262       93.5826      11.070980       0.05434
   9     398.1       82.5059        2.4767       90.8575       93.3342      10.828352       0.05653
   8     437.6       82.5082        2.7131       90.3418       93.0549      10.546727       0.06021
   7     480.5       82.5228        2.9663       89.7728       92.7391      10.216293       0.06490
   6     533.0       82.5638        3.2775       89.0428       92.3203       9.756534       0.07396
   5     589.8       82.6499        3.6117       88.2038       91.8156       9.165671       0.08770
   4     651.6       82.8269        3.9685       87.1979       91.1665       8.339570       0.11297
   3     718.7       83.1320        4.3465       86.0161       90.3627       7.230730       0.13935
   2     792.3       83.6733        4.7418       84.5970       89.3389       5.665567       0.17951
   1     891.5       34.2084       38.6138        0.0000       38.6138       4.405366       0.10724
   0    1013.0       34.5780       38.1361        0.0000       38.1361       3.558095       0.05883



 Wavenumbers: 16000. - 22650. cm-1, ATM      1
 LEVEL PRESSURE   UPWARD FLUX   DIFDOWN FLUX  DIRDOWN FLUX  DOWNWARD FLUX   NET FLUX    HEATING RATE
          mb          W/m2          W/m2          W/m2        W/m2          W/m2       degree/day
  51    .06700      140.9183        0.0000      156.3892      156.3892      15.470944       0.00000
  50    .07753      140.9183        0.0004      156.3887      156.3891      15.470796       0.11838
  49    .09103      140.9183        0.0009      156.3879      156.3888      15.470582       0.13427
  48    0.1069      140.9183        0.0015      156.3871      156.3885      15.470294       0.15311
  47    0.1255      140.9183        0.0021      156.3861      156.3882      15.469909       0.17453
  46    0.1487      140.9183        0.0030      156.3847      156.3877      15.469342       0.20681
  45    0.1794      140.9185        0.0041      156.3828      156.3869      15.468455       0.24351
  44    0.2165      140.9187        0.0054      156.3805      156.3859      15.467252       0.27368
  43    0.2613      140.9190        0.0070      156.3776      156.3846      15.465619       0.30768
  42    0.3336      140.9198        0.0097      156.3726      156.3823      15.462516       0.36183
  41    0.4307      140.9210        0.0131      156.3657      156.3789      15.457838       0.40673
  40    0.5894      140.9236        0.0188      156.3537      156.3725      15.448916       0.47443
  39     1.339      140.9462        0.0458      156.2834      156.3292      15.383003       0.74206
  38     1.782      140.9672        0.0617      156.2324      156.2940      15.326853       1.06901
  37     2.292      140.9985        0.0800      156.1641      156.2441      15.245575       1.34617
  36     2.964      141.0506        0.1041      156.0605      156.1645      15.113904       1.65287
  35     3.853      141.1349        0.1358      155.9041      156.0399      14.904974       1.98279
  34     5.035      141.2621        0.1780      155.6774      155.8553      14.593266       2.22671
  33     6.613      141.4398        0.2342      155.3656      155.5998      14.160082       2.31580
  32     8.786      141.6712        0.3099      154.9577      155.2676      13.596410       2.18910
  31     11.80      141.9724        0.4181      154.4153      154.8333      12.860962       2.05902
  30     15.07      142.2609        0.5340      153.8804      154.4144      12.153481       1.82658
  29     18.79      142.5555        0.6648      153.3191      153.9839      11.428377       1.64403
  28     23.16      142.8634        0.8173      152.7126      153.5298      10.666476       1.47327
  27     28.12      143.1731        0.9914      152.0755      153.0669       9.893779       1.31353
  26     33.73      143.4591        1.1861      151.4409      152.6270       9.167982       1.09126
  25     40.54      143.7342        1.4211      150.7637      152.1848       8.450631       0.88996
  24     48.69      143.9976        1.7042      150.0338      151.7380       7.740439       0.73494
  23     57.69      144.2208        2.0147      149.3151      151.3298       7.109006       0.59187
  22     68.43      144.4155        2.3841      148.5476      150.9317       6.516255       0.46598
  21     81.20      144.5497        2.8240      147.7517      150.5757       6.025910       0.32401
  20     96.49      144.6191        3.3476      146.9127      150.2602       5.641112       0.21238
  19     114.6      144.6548        3.9675      145.9763      149.9438       5.288959       0.16443
  18     136.5      144.6657        4.6995      144.9088      149.6083       4.942532       0.13321
  17     162.9      144.6501        5.5671      143.6785      149.2456       4.595512       0.11092
  16     196.4      144.5681        6.6865      142.1651      148.8515       4.283401       0.07856
  15     218.7      144.4917        7.4180      141.2033      148.6213       4.129633       0.05838
  14     243.0      144.3983        8.2097      140.1753      148.3851       3.986795       0.04954
  13     269.0      144.2863        9.0639      139.0797      148.1436       3.857279       0.04201
  12     297.5      144.1551        9.9825      137.9141      147.8966       3.741431       0.03436
  11     328.5      144.0089       10.9699      136.6676      147.6375       3.628589       0.03068
  10     361.9      143.8472       12.0269      135.3392      147.3661       3.518864       0.02776
   9     398.1      143.6698       13.1576      133.9235      147.0811       3.411310       0.02506
   8     437.6      143.4776       14.3641      132.4163      146.7803       3.302698       0.02322
   7     480.5      143.2704       15.6484      130.8147      146.4631       3.192651       0.02161
   6     533.0      143.0159       17.2170      128.8599      146.0769       3.060952       0.02119
   5     589.8      142.7465       18.8930      126.7679      145.6609       2.914373       0.02176
   4     651.6      142.4694       20.6779      124.5274      145.2054       2.735910       0.02441
   3     718.7      142.1918       22.5735      122.1285      144.7020       2.510177       0.02837
   2     792.3      141.9325       24.5777      119.5548      144.1325       2.200038       0.03557
   1     891.5      108.0532      109.8813        0.0000      109.8813       1.828160       0.03165
   0    1013.0      108.2481      109.6406        0.0000      109.6406       1.392435       0.03025



 Wavenumbers: 22650. - 29000. cm-1, ATM      1
 LEVEL PRESSURE   UPWARD FLUX   DIFDOWN FLUX  DIRDOWN FLUX  DOWNWARD FLUX   NET FLUX    HEATING RATE
          mb          W/m2          W/m2          W/m2        W/m2          W/m2       degree/day
  51    .06700       58.4406        0.0000       59.0156       59.0156       0.575037       0.00000
  50    .07753       58.4405        0.0005       59.0151       59.0155       0.575037      -0.00000
  49    .09103       58.4404        0.0010       59.0144       59.0154       0.575037       0.00000
  48    0.1069       58.4402        0.0017       59.0136       59.0153       0.575037      -0.00000
  47    0.1255       58.4401        0.0025       59.0127       59.0151       0.575037      -0.00000
  46    0.1487       58.4399        0.0034       59.0115       59.0149       0.575037       0.00000
  45    0.1794       58.4396        0.0048       59.0099       59.0147       0.575037      -0.00000
  44    0.2165       58.4393        0.0063       59.0080       59.0144       0.575037       0.00000
  43    0.2613       58.4390        0.0082       59.0058       59.0140       0.575037       0.00000
  42    0.3336       58.4384        0.0113       59.0022       59.0134       0.575037      -0.00000
  41    0.4307       58.4376        0.0153       58.9973       59.0126       0.575037      -0.00000
  40    0.5894       58.4363        0.0220       58.9894       59.0113       0.575037       0.00000
  39     1.339       58.4302        0.0534       58.9518       59.0052       0.575037       0.00000
  38     1.782       58.4266        0.0719       58.9297       59.0016       0.575037      -0.00000
  37     2.292       58.4224        0.0933       58.9042       58.9975       0.575037       0.00000
  36     2.964       58.4170        0.1214       58.8706       58.9920       0.575037      -0.00000
  35     3.853       58.4098        0.1584       58.8264       58.9848       0.575037       0.00000
  34     5.035       58.4002        0.2076       58.7676       58.9752       0.575037      -0.00000
  33     6.613       58.3874        0.2734       58.6891       58.9624       0.575037       0.00000
  32     8.786       58.3702        0.3618       58.5834       58.9452       0.575037       0.00000
  31     11.80       58.3456        0.4882       58.4324       58.9206       0.575037       0.00000
  30     15.07       58.3193        0.6236       58.2706       58.8943       0.575037       0.00000
  29     18.79       58.2895        0.7763       58.0882       58.8646       0.575037       0.00000
  28     23.16       58.2549        0.9543       57.8757       58.8300       0.575037      -0.00000
  27     28.12       58.2154        1.1571       57.6333       58.7905       0.575037       0.00000
  26     33.73       58.1714        1.3834       57.3631       58.7465       0.575037       0.00000
  25     40.54       58.1184        1.6556       57.0379       58.6935       0.575037       0.00000
  24     48.69       58.0549        1.9820       56.6479       58.6299       0.575037       0.00000
  23     57.69       57.9855        2.3384       56.2221       58.5605       0.575037       0.00000
  22     68.43       57.9034        2.7599       55.7186       58.4784       0.575037       0.00000
  21     81.20       57.8064        3.2575       55.1239       58.3815       0.575037       0.00000
  20     96.49       57.6921        3.8443       54.4228       58.2671       0.575037       0.00000
  19     114.6       57.5580        4.5320       53.6010       58.1330       0.575037       0.00000
  18     136.5       57.4014        5.3347       52.6418       57.9765       0.575037       0.00000
  17     162.9       57.2183        6.2730       51.5203       57.7933       0.575037      -0.00000
  16     196.4       56.9861        7.4617       50.0994       57.5611       0.575037      -0.00000
  15     218.7       56.8368        8.2255       49.1863       57.4118       0.575037       0.00000
  14     243.0       56.6773        9.0410       48.2113       57.2523       0.575037      -0.00000
  13     269.0       56.5076        9.9077       47.1749       57.0827       0.575037       0.00000
  12     297.5       56.3280       10.8248       46.0783       56.9030       0.575037       0.00000
  11     328.5       56.1381       11.7936       44.9195       56.7131       0.575037      -0.00000
  10     361.9       55.9383       12.8115       43.7018       56.5134       0.575037       0.00000
   9     398.1       55.7287       13.8787       42.4250       56.3037       0.575037       0.00000
   8     437.6       55.5096       14.9930       41.0916       56.0846       0.575037       0.00000
   7     480.5       55.2814       16.1519       39.7045       55.8564       0.575037       0.00000
   6     533.0       55.0095       17.5303       38.0543       55.5846       0.575037       0.00000
   5     589.8       54.7272       18.9592       36.3431       55.3022       0.575037      -0.00000
   4     651.6       54.4357       20.4312       34.5795       55.0108       0.575037      -0.00000
   3     718.7       54.1361       21.9409       32.7702       54.7111       0.575037       0.00000
   2     792.3       53.8299       23.4794       30.9256       54.4049       0.575037       0.00000
   1     891.5       44.5763       45.1495        0.0000       45.1495       0.573144       0.00016
   0    1013.0       44.5563       45.1295        0.0000       45.1295       0.573144       0.00000



 Wavenumbers: 29000. - 38000. cm-1, ATM      1
 LEVEL PRESSURE   UPWARD FLUX   DIFDOWN FLUX  DIRDOWN FLUX  DOWNWARD FLUX   NET FLUX    HEATING RATE
          mb          W/m2          W/m2          W/m2        W/m2          W/m2       degree/day
  51    .06700        8.7524        0.0000       20.8114       20.8114      12.058935       0.00000
  50    .07753        8.7522        0.0003       20.8070       20.8074      12.055127       3.05156
  49    .09103        8.7520        0.0007       20.8009       20.8016      12.049590       3.46086
  48    0.1069        8.7518        0.0012       20.7928       20.7939      12.042180       3.94430
  47    0.1255        8.7515        0.0017       20.7820       20.7837      12.032276       4.49035
  46    0.1487        8.7511        0.0024       20.7665       20.7688      12.017712       5.30845
  45    0.1794        8.7507        0.0033       20.7424       20.7457      11.995048       6.22205
  44    0.2165        8.7501        0.0044       20.7103       20.7147      11.964525       6.94342
  43    0.2613        8.7496        0.0056       20.6675       20.6731      11.923530       7.72734
  42    0.3336        8.7487        0.0077       20.5880       20.5956      11.846969       8.92627
  41    0.4307        8.7476        0.0104       20.4722       20.4826      11.735016       9.73405
  40    0.5894        8.7460        0.0147       20.2637       20.2784      11.532332      10.77849
  39     1.339        8.7426        0.0331       19.0984       19.1315      10.388851      12.87352
  38     1.782        8.7431        0.0427       18.4394       18.4821       9.738924      12.37357
  37     2.292        8.7458        0.0530       17.7714       17.8244       9.078574      10.93711
  36     2.964        8.7524        0.0657       17.0421       17.1078       8.355442       9.07749
  35     3.853        8.7652        0.0816       16.2678       16.3494       7.584250       7.31876
  34     5.035        8.7863        0.1017       15.4803       15.5821       6.795734       5.63283
  33     6.613        8.8171        0.1275       14.7157       14.8432       6.026118       4.11437
  32     8.786        8.8577        0.1613       13.9936       14.1549       5.297120       2.83116
  31     11.80        8.9108        0.2083       13.2835       13.4919       4.581082       2.00468
  30     15.07        8.9620        0.2571       12.7394       12.9965       4.034522       1.41111
  29     18.79        9.0148        0.3112       12.2666       12.5778       3.562971       1.06915
  28     23.16        9.0710        0.3727       11.8300       12.2027       3.131702       0.83394
  27     28.12        9.1286        0.4416       11.4279       11.8695       2.740852       0.66442
  26     33.73        9.1818        0.5175       11.0695       11.5870       2.405174       0.50470
  25     40.54        9.2323        0.6082       10.7209       11.3291       2.096810       0.38256
  24     48.69        9.2800        0.7158       10.3742       11.0900       1.810028       0.29677
  23     57.69        9.3192        0.8323       10.0549       10.8872       1.568038       0.22683
  22     68.43        9.3509        0.9689        9.7327       10.7017       1.350756       0.17081
  21     81.20        9.3663        1.1303        9.4134       10.5437       1.177464       0.11451
  20     96.49        9.3632        1.3200        9.0887       10.4087       1.045524       0.07282
  19     114.6        9.3499        1.5391        8.7388       10.2779       0.928060       0.05485
  18     136.5        9.3293        1.7897        8.3549       10.1446       0.815328       0.04335
  17     162.9        9.3016        2.0753        7.9311       10.0065       0.704924       0.03529
  16     196.4        9.2547        2.4291        7.4333        9.8625       0.607722       0.02447
  15     218.7        9.2209        2.6517        7.1295        9.7812       0.560304       0.01800
  14     243.0        9.1839        2.8844        6.8161        9.7004       0.516511       0.01519
  13     269.0        9.1434        3.1263        6.4943        9.6206       0.477180       0.01276
  12     297.5        9.0996        3.3763        6.1657        9.5421       0.442503       0.01028
  11     328.5        9.0538        3.6336        5.8295        9.4631       0.409295       0.00903
  10     361.9        9.0065        3.8956        5.4886        9.3842       0.377707       0.00799
   9     398.1        8.9579        4.1617        5.1440        9.3056       0.347764       0.00698
   8     437.6        8.9085        4.4304        4.7969        9.2274       0.318892       0.00617
   7     480.5        8.8586        4.6997        4.4504        9.1500       0.291478       0.00538
   6     533.0        8.8013        5.0067        4.0563        9.0629       0.261585       0.00481
   5     589.8        8.7449        5.3094        3.6682        8.9776       0.232631       0.00430
   4     651.6        8.6903        5.6041        3.2905        8.8946       0.204292       0.00388
   3     718.7        8.6380        5.8893        2.9252        8.8145       0.176524       0.00349
   2     792.3        8.5887        6.1616        2.5764        8.7380       0.149331       0.00312
   1     891.5        7.1763        7.2969        0.0000        7.2969       0.120588       0.00245
   0    1013.0        7.1824        7.2748        0.0000        7.2748       0.092390       0.00196



 Wavenumbers: 38000. - 50000. cm-1, ATM      1
 LEVEL PRESSURE   UPWARD FLUX   DIFDOWN FLUX  DIRDOWN FLUX  DOWNWARD FLUX   NET FLUX    HEATING RATE
          mb          W/m2          W/m2          W/m2        W/m2          W/m2       degree/day
  51    .06700        0.0061        0.0000        1.2836        1.2836       1.277518       0.00000
  50    .07753        0.0061        0.0001        1.2812        1.2812       1.275183       1.87150
  49    .09103        0.0060        0.0002        1.2777        1.2778       1.271851       2.08247
  48    0.1069        0.0059        0.0002        1.2731        1.2734       1.267473       2.33059
  47    0.1255        0.0058        0.0004        1.2672        1.2675       1.261717       2.60908
  46    0.1487        0.0057        0.0005        1.2586        1.2591       1.253391       3.03499
  45    0.1794        0.0055        0.0007        1.2455        1.2462       1.240623       3.50520
  44    0.2165        0.0054        0.0009        1.2282        1.2291       1.223697       3.85037
  43    0.2613        0.0052        0.0011        1.2054        1.2065       1.201348       4.21261
  42    0.3336        0.0049        0.0015        1.1639        1.1654       1.160524       4.75970
  41    0.4307        0.0045        0.0020        1.1051        1.1070       1.102565       5.03943
  40    0.5894        0.0039        0.0026        1.0039        1.0064       1.002524       5.32007
  39     1.339        0.0022        0.0035        0.5438        0.5473       0.545104       5.14971
  38     1.782        0.0016        0.0032        0.3635        0.3666       0.365006       3.42879
  37     2.292        0.0012        0.0027        0.2356        0.2383       0.237058       2.11916
  36     2.964        0.0009        0.0022        0.1455        0.1477       0.146786       1.13318
  35     3.853        0.0006        0.0017        0.0858        0.0875       0.086906       0.56828
  34     5.035        0.0004        0.0013        0.0488        0.0501       0.049701       0.26578
  33     6.613        0.0003        0.0010        0.0273        0.0282       0.027974       0.11615
  32     8.786        0.0002        0.0007        0.0144        0.0151       0.014928       0.05067
  31     11.80        0.0001        0.0004        0.0065        0.0070       0.006903       0.02247
  30     15.07        0.0000        0.0003        0.0031        0.0034       0.003329       0.00923
  29     18.79        0.0000        0.0002        0.0014        0.0016       0.001583       0.00396
  28     23.16        0.0000        0.0001        0.0006        0.0007       0.000720       0.00167
  27     28.12        0.0000        0.0001        0.0003        0.0003       0.000317       0.00069
  26     33.73        0.0000        0.0000        0.0001        0.0001       0.000140       0.00027
  25     40.54        0.0000        0.0000        0.0000        0.0001       0.000057       0.00010
  24     48.69        0.0000        0.0000        0.0000        0.0000       0.000021       0.00004
  23     57.69        0.0000        0.0000        0.0000        0.0000       0.000008       0.00001
  22     68.43        0.0000        0.0000        0.0000        0.0000       0.000003       0.00000
  21     81.20        0.0000        0.0000        0.0000        0.0000       0.000001       0.00000
  20     96.49        0.0000        0.0000        0.0000        0.0000       0.000000       0.00000
  19     114.6        0.0000        0.0000        0.0000        0.0000       0.000000       0.00000
  18     136.5        0.0000        0.0000        0.0000        0.0000       0.000000       0.00000
  17     162.9        0.0000        0.0000        0.0000        0.0000       0.000000       0.00000
  16     196.4        0.0000        0.0000        0.0000        0.0000       0.000000       0.00000
  15     218.7        0.0000        0.0000        0.0000        0.0000       0.000000       0.00000
  14     243.0        0.0000        0.0000        0.0000        0.0000       0.000000       0.00000
  13     269.0        0.0000        0.0000        0.0000        0.0000       0.000000       0.00000
  12     297.5        0.0000        0.0000        0.0000        0.0000       0.000000       0.00000
  11     328.5        0.0000        0.0000        0.0000        0.0000       0.000000       0.00000
  10     361.9        0.0000        0.0000        0.0000        0.0000       0.000000       0.00000
   9     398.1        0.0000        0.0000        0.0000        0.0000       0.000000       0.00000
   8     437.6        0.0000        0.0000        0.0000        0.0000       0.000000       0.00000
   7     480.5        0.0000        0.0000        0.0000        0.0000       0.000000       0.00000
   6     533.0        0.0000        0.0000        0.0000        0.0000       0.000000       0.00000
   5     589.8        0.0000        0.0000        0.0000        0.0000       0.000000       0.00000
   4     651.6        0.0000        0.0000        0.0000        0.0000       0.000000       0.00000
   3     718.7        0.0000        0.0000        0.0000        0.0000       0.000000       0.00000
   2     792.3        0.0000        0.0000        0.0000        0.0000       0.000000       0.00000
   1     891.5        0.0000        0.0000        0.0000        0.0000       0.000000       0.00000
   0    1013.0        0.0000        0.0000        0.0000        0.0000       0.000000       0.00000



 Wavenumbers:   820. -  2600. cm-1, ATM      1
 LEVEL PRESSURE   UPWARD FLUX   DIFDOWN FLUX  DIRDOWN FLUX  DOWNWARD FLUX   NET FLUX    HEATING RATE
          mb          W/m2          W/m2          W/m2        W/m2          W/m2       degree/day
  51    .06700        1.6612        0.0000        6.0047        6.0047       4.343456       0.00000
  50    .07753        1.6612        0.0000        6.0008        6.0008       4.339603       3.08826
  49    .09103        1.6612        0.0000        5.9999        5.9999       4.338717       0.55362
  48    0.1069        1.6612        0.0000        5.9989        5.9989       4.337728       0.52657
  47    0.1255        1.6612        0.0000        5.9978        5.9978       4.336611       0.50654
  46    0.1487        1.6612        0.0000        5.9964        5.9964       4.335254       0.49462
  45    0.1794        1.6612        0.0000        5.9947        5.9947       4.333534       0.47205
  44    0.2165        1.6612        0.0000        5.9929        5.9929       4.331692       0.41916
  43    0.2613        1.6612        0.0000        5.9909        5.9909       4.329732       0.36938
  42    0.3336        1.6612        0.0000        5.9880        5.9880       4.326854       0.33562
  41    0.4307        1.6612        0.0000        5.9846        5.9846       4.323384       0.30171
  40    0.5894        1.6612        0.0000        5.9791        5.9791       4.317877       0.29282
  39     1.339        1.6612        0.0000        5.9536        5.9536       4.292384       0.28700
  38     1.782        1.6612        0.0000        5.9395        5.9395       4.278243       0.26923
  37     2.292        1.6612        0.0000        5.9237        5.9237       4.262488       0.26094
  36     2.964        1.6612        0.0000        5.9039        5.9039       4.242709       0.24829
  35     3.853        1.6612        0.0000        5.8793        5.8793       4.218046       0.23405
  34     5.035        1.6612        0.0000        5.8487        5.8487       4.187474       0.21839
  33     6.613        1.6613        0.0000        5.8108        5.8108       4.149498       0.20302
  32     8.786        1.6613        0.0000        5.7631        5.7631       4.101858       0.18502
  31     11.80        1.6613        0.0000        5.7039        5.7039       4.042578       0.16597
  30     15.07        1.6614        0.0000        5.6539        5.6539       3.992513       0.12926
  29     18.79        1.6614        0.0000        5.6127        5.6127       3.951348       0.09333
  28     23.16        1.6614        0.0000        5.5794        5.5794       3.917936       0.06461
  27     28.12        1.6615        0.0000        5.5518        5.5518       3.890328       0.04693
  26     33.73        1.6615        0.0000        5.5268        5.5268       3.865226       0.03774
  25     40.54        1.6616        0.0000        5.4993        5.4993       3.837723       0.03412
  24     48.69        1.6617        0.0000        5.4678        5.4678       3.806109       0.03272
  23     57.69        1.6618        0.0000        5.4340        5.4340       3.772239       0.03175
  22     68.43        1.6619        0.0000        5.3947        5.3948       3.732864       0.03095
  21     81.20        1.6620        0.0000        5.3497        5.3497       3.687706       0.02984
  20     96.49        1.6622        0.0000        5.2982        5.2982       3.636038       0.02852
  19     114.6        1.6624        0.0000        5.2389        5.2389       3.576524       0.02779
  18     136.5        1.6626        0.0000        5.1716        5.1717       3.509025       0.02595
  17     162.9        1.6630        0.0000        5.0890        5.0891       3.426048       0.02652
  16     196.4        1.6636        0.0000        4.9668        4.9668       3.303208       0.03092
  15     218.7        1.6642        0.0000        4.8585        4.8585       3.194244       0.04137
  14     243.0        1.6652        0.0000        4.7078        4.7079       3.042658       0.05258
  13     269.0        1.6666        0.0000        4.5343        4.5343       2.867640       0.05677
  12     297.5        1.6690        0.0000        4.3419        4.3420       2.673019       0.05772
  11     328.5        1.6720        0.0000        4.1281        4.1281       2.456114       0.05898
  10     361.9        1.6761        0.0000        3.8786        3.8787       2.202553       0.06415
   9     398.1        1.6814        0.0000        3.6159        3.6160       1.934528       0.06244
   8     437.6        1.6883        0.0000        3.3759        3.3759       1.687600       0.05279
   7     480.5        1.6967        0.0000        3.1957        3.1958       1.499075       0.03703
   6     533.0        1.7095        0.0000        3.0467        3.0467       1.337201       0.02604
   5     589.8        1.7284        0.0001        2.9023        2.9023       1.173916       0.02424
   4     651.6        1.7613        0.0001        2.7183        2.7184       0.957062       0.02966
   3     718.7        1.8187        0.0001        2.5058        2.5059       0.687213       0.03391
   2     792.3        1.9312        0.0001        2.2756        2.2757       0.344521       0.03930
   1     891.5        0.1700        0.3015        0.0000        0.3015       0.131462       0.01813
   0    1013.0        0.2005        0.2526        0.0000        0.2526       0.052028       0.00552

  Modules and versions used in this calculation:

       rrtmg_sw.1col.f90:  $Revision$                    rrtmg_sw_init.f90:  $Revision$        
     rrtmgsw_cldprop.f90:  $Revision$                  rrtmgsw_cldprmc.f90:  NOT USED          
     rrtmg_sw_reftra.f90:  $Revision$                  rrtmg_sw_spcvrt.f90:  NOT USED          
     rrtmg_sw_spcvmc.f90:  NOT USED                    rrtmgsw_setcoef.f90:  NOT USED          
     rrtmg_sw_taumol.f90:  $Revision$                  rrtmg_sw_vrtqdr.f90:  NOT USED          
                rrtatm.f:  NOT USED                             util_xxx.f:  NOT USED          
                 extra.f:  NOT USED                       rrtmg_sw_k_g.f90:  $Revision$        

