

 Wavenumbers:   820. - 50000. cm-1, ATM      1
 LEVEL PRESSURE   UPWARD FLUX   DIFDOWN FLUX  DIRDOWN FLUX  DOWNWARD FLUX   NET FLUX    HEATING RATE
          mb          W/m2          W/m2          W/m2        W/m2          W/m2       degree/day
  51    .06700      206.8430        0.0000      397.8738      397.8738     191.030758       0.00000
  50    .07753      206.8424        0.0012      397.8577      397.8589     191.016470      11.45190
  49    .09103      206.8417        0.0026      397.8418      397.8445     191.002786       8.55275
  48    0.1069      206.8408        0.0043      397.8230      397.8273     190.986444       8.69888
  47    0.1255      206.8399        0.0063      397.7997      397.8059     190.966009       9.26418
  46    0.1487      206.8388        0.0087      397.7676      397.7763     190.937563      10.36895
  45    0.1794      206.8373        0.0120      397.7205      397.7326     190.895288      11.60541
  44    0.2165      206.8355        0.0160      397.6602      397.6762     190.840663      12.42625
  43    0.2613      206.8336        0.0206      397.5829      397.6035     190.769897      13.33907
  42    0.3336      206.8306        0.0282      397.4449      397.4731     190.642517      14.85130
  41    0.4307      206.8269        0.0382      397.2524      397.2906     190.463735      15.54467
  40    0.5894      206.8214        0.0543      396.9253      396.9796     190.158182      16.24891
  39     1.339      206.8069        0.1261      395.4254      395.5515     188.744627      15.91407
  38     1.782      206.8058        0.1664      394.7288      394.8952     188.089364      12.47515
  37     2.292      206.8112        0.2123      394.0572      394.2694     187.458203      10.45366
  36     2.964      206.8281        0.2718      393.3007      393.5725     186.744376       8.96070
  35     3.853      206.8640        0.3496      392.4318      392.7814     185.917421       7.84795
  34     5.035      206.9251        0.4520      391.4441      391.8960     184.970953       6.76118
  33     6.613      207.0142        0.5876      390.3268      390.9143     183.900190       5.72430
  32     8.786      207.1288        0.7690      389.0624      389.8314     182.702554       4.65118
  31     11.80      207.2701        1.0264      387.5500      388.5764     181.306311       3.90904
  30     15.07      207.3951        1.3006      386.1556      387.4562     180.061082       3.21494
  29     18.79      207.5126        1.6079      384.7502      386.3581     178.845474       2.75616
  28     23.16      207.6225        1.9639      383.2686      385.2326     177.610099       2.38882
  27     28.12      207.7161        2.3678      381.7329      384.1007     176.384582       2.08330
  26     33.73      207.7740        2.8165      380.1982      383.0146     175.240661       1.71992
  25     40.54      207.7896        3.3546      378.5384      381.8930     174.103390       1.41091
  24     48.69      207.7563        3.9976      376.7214      380.7190     172.962689       1.18045
  23     57.69      207.6700        4.6973      374.8959      379.5932     171.923182       0.97438
  22     68.43      207.5138        5.5222      372.8999      378.4222     170.908403       0.79775
  21     81.20      207.2538        6.4946      370.7496      377.2443     169.990458       0.60656
  20     96.49      206.8775        7.6387      368.4056      376.0443     169.166779       0.45461
  19     114.6      206.4101        8.9752      365.7513      374.7265     168.316383       0.39708
  18     136.5      205.8421       10.5276      362.7231      373.2507     167.408566       0.34908
  17     162.9      205.1589       12.3324      359.1748      371.5072     166.348318       0.33890
  16     196.4      204.2470       14.6085      354.5718      369.1803     164.933363       0.35616
  15     218.7      203.6445       16.0645      351.4437      367.5082     163.863666       0.40612
  14     243.0      202.9946       17.6135      347.7111      365.3246     162.330001       0.53193
  13     269.0      202.2975       19.2535      342.9441      362.1977     159.900129       0.78824
  12     297.5      201.5549       20.9826      337.4137      358.3963     156.841472       0.90716
  11     328.5      200.7712       22.8024      331.1302      353.9327     153.161489       1.00058
  10     361.9      199.9509       24.7075      324.1219      348.8294     148.878498       1.08364
   9     398.1      199.0970       26.6972      316.6066      343.3038     144.206772       1.08841
   8     437.6      198.2180       28.7672      308.5895      337.3567     139.138709       1.08358
   7     480.5      197.3272       30.9116      299.9349      330.8465     133.519326       1.10363
   6     533.0      196.3090       33.4525      289.7021      323.1547     126.845641       1.07358
   5     589.8      195.3149       36.0762      279.3388      315.4149     120.099998       1.00127
   4     651.6      194.3825       38.7705      268.7786      307.5491     113.166659       0.94815
   3     718.7      193.5335       41.5267      258.2837      299.8103     106.276872       0.86586
   2     792.3      192.7919       44.3305      248.0774      292.4079      99.615922       0.76394
   1     891.5      192.1143       47.8891      235.5216      283.4107      91.296425       0.70795
   0    1013.0      192.0236       51.8421      221.4731      273.3152      81.291529       0.69469



 Wavenumbers:  2600. -  3250. cm-1, ATM      1
 LEVEL PRESSURE   UPWARD FLUX   DIFDOWN FLUX  DIRDOWN FLUX  DOWNWARD FLUX   NET FLUX    HEATING RATE
          mb          W/m2          W/m2          W/m2        W/m2          W/m2       degree/day
  51    .06700        0.4170        0.0000        3.5066        3.5066       3.089611       0.00000
  50    .07753        0.4170        0.0000        3.5066        3.5066       3.089603       0.00640
  49    .09103        0.4170        0.0000        3.5066        3.5066       3.089593       0.00627
  48    0.1069        0.4170        0.0000        3.5066        3.5066       3.089581       0.00613
  47    0.1255        0.4170        0.0000        3.5066        3.5066       3.089568       0.00599
  46    0.1487        0.4170        0.0000        3.5066        3.5066       3.089551       0.00607
  45    0.1794        0.4170        0.0000        3.5065        3.5065       3.089528       0.00624
  44    0.2165        0.4170        0.0000        3.5065        3.5065       3.089502       0.00611
  43    0.2613        0.4170        0.0000        3.5065        3.5065       3.089470       0.00598
  42    0.3336        0.4170        0.0000        3.5064        3.5064       3.089417       0.00615
  41    0.4307        0.4170        0.0000        3.5064        3.5064       3.089346       0.00618
  40    0.5894        0.4170        0.0000        3.5062        3.5062       3.089227       0.00633
  39     1.339        0.4170        0.0000        3.5055        3.5055       3.088528       0.00787
  38     1.782        0.4170        0.0000        3.5050        3.5050       3.087997       0.01011
  37     2.292        0.4170        0.0000        3.5043        3.5043       3.087305       0.01147
  36     2.964        0.4170        0.0000        3.5033        3.5033       3.086313       0.01245
  35     3.853        0.4170        0.0000        3.5019        3.5019       3.084936       0.01307
  34     5.035        0.4170        0.0000        3.5001        3.5001       3.083075       0.01329
  33     6.613        0.4170        0.0000        3.4977        3.4977       3.080666       0.01288
  32     8.786        0.4170        0.0000        3.4947        3.4947       3.077695       0.01154
  31     11.80        0.4170        0.0000        3.4911        3.4911       3.074060       0.01018
  30     15.07        0.4170        0.0000        3.4878        3.4878       3.070838       0.00832
  29     18.79        0.4170        0.0000        3.4848        3.4848       3.067775       0.00695
  28     23.16        0.4170        0.0000        3.4816        3.4816       3.064555       0.00623
  27     28.12        0.4170        0.0000        3.4779        3.4779       3.060937       0.00615
  26     33.73        0.4170        0.0000        3.4735        3.4735       3.056470       0.00672
  25     40.54        0.4170        0.0000        3.4671        3.4671       3.050143       0.00785
  24     48.69        0.4170        0.0000        3.4582        3.4583       3.041247       0.00921
  23     57.69        0.4170        0.0000        3.4472        3.4472       3.030198       0.01036
  22     68.43        0.4170        0.0000        3.4329        3.4329       3.015935       0.01121
  21     81.20        0.4170        0.0000        3.4152        3.4152       2.998203       0.01172
  20     96.49        0.4170        0.0000        3.3940        3.3941       2.977054       0.01167
  19     114.6        0.4170        0.0000        3.3692        3.3692       2.952157       0.01163
  18     136.5        0.4171        0.0001        3.3419        3.3420       2.924929       0.01047
  17     162.9        0.4171        0.0001        3.3129        3.3129       2.895837       0.00930
  16     196.4        0.4172        0.0001        3.2793        3.2794       2.862230       0.00846
  15     218.7        0.4173        0.0001        3.2578        3.2578       2.840578       0.00822
  14     243.0        0.4174        0.0001        3.2320        3.2320       2.814648       0.00899
  13     269.0        0.4176        0.0001        3.1968        3.1969       2.779306       0.01146
  12     297.5        0.4180        0.0001        3.1489        3.1491       2.731080       0.01430
  11     328.5        0.4185        0.0001        3.0821        3.0822       2.663682       0.01833
  10     361.9        0.4193        0.0001        2.9902        2.9904       2.571105       0.02342
   9     398.1        0.4203        0.0001        2.8715        2.8716       2.451282       0.02792
   8     437.6        0.4219        0.0001        2.7276        2.7278       2.305920       0.03108
   7     480.5        0.4241        0.0001        2.5595        2.5597       2.135547       0.03346
   6     533.0        0.4278        0.0002        2.3617        2.3619       1.934056       0.03241
   5     589.8        0.4332        0.0002        2.1649        2.1651       1.731902       0.03001
   4     651.6        0.4409        0.0002        1.9608        1.9609       1.520053       0.02897
   3     718.7        0.4514        0.0002        1.7593        1.7595       1.308139       0.02663
   2     792.3        0.4650        0.0002        1.5761        1.5762       1.111206       0.02259
   1     891.5        0.4885        0.0002        1.3714        1.3716       0.883076       0.01941
   0    1013.0        0.5310        0.0002        1.1584        1.1586       0.627600       0.01774



 Wavenumbers:  3250. -  4000. cm-1, ATM      1
 LEVEL PRESSURE   UPWARD FLUX   DIFDOWN FLUX  DIRDOWN FLUX  DOWNWARD FLUX   NET FLUX    HEATING RATE
          mb          W/m2          W/m2          W/m2        W/m2          W/m2       degree/day
  51    .06700        0.0004        0.0000        5.9117        5.9117       5.911231       0.00000
  50    .07753        0.0004        0.0000        5.9075        5.9075       5.907042       3.35808
  49    .09103        0.0004        0.0000        5.9050        5.9050       5.904599       1.52677
  48    0.1069        0.0004        0.0000        5.9032        5.9032       5.902733       0.99346
  47    0.1255        0.0004        0.0000        5.9014        5.9014       5.900975       0.79708
  46    0.1487        0.0004        0.0000        5.8995        5.8995       5.899086       0.68848
  45    0.1794        0.0004        0.0000        5.8974        5.8974       5.896937       0.58983
  44    0.2165        0.0004        0.0000        5.8952        5.8952       5.894820       0.48155
  43    0.2613        0.0004        0.0000        5.8931        5.8931       5.892661       0.40696
  42    0.3336        0.0004        0.0000        5.8899        5.8899       5.889503       0.36820
  41    0.4307        0.0004        0.0000        5.8861        5.8861       5.885666       0.33365
  40    0.5894        0.0004        0.0000        5.8803        5.8803       5.879864       0.30857
  39     1.339        0.0004        0.0000        5.8597        5.8597       5.859266       0.23189
  38     1.782        0.0004        0.0000        5.8513        5.8513       5.850841       0.16039
  37     2.292        0.0004        0.0000        5.8431        5.8431       5.842670       0.13533
  36     2.964        0.0004        0.0000        5.8334        5.8334       5.833031       0.12100
  35     3.853        0.0004        0.0000        5.8213        5.8213       5.820855       0.11555
  34     5.035        0.0004        0.0000        5.8052        5.8052       5.804760       0.11498
  33     6.613        0.0004        0.0000        5.7833        5.7834       5.782939       0.11666
  32     8.786        0.0004        0.0000        5.7531        5.7531       5.752737       0.11729
  31     11.80        0.0004        0.0000        5.7090        5.7090       5.708568       0.12366
  30     15.07        0.0004        0.0000        5.6615        5.6615       5.661104       0.12254
  29     18.79        0.0004        0.0000        5.6093        5.6094       5.608968       0.11821
  28     23.16        0.0004        0.0000        5.5524        5.5524       5.552042       0.11008
  27     28.12        0.0004        0.0000        5.4935        5.4935       5.493163       0.10009
  26     33.73        0.0004        0.0000        5.4348        5.4349       5.434475       0.08824
  25     40.54        0.0004        0.0001        5.3707        5.3708       5.370413       0.07948
  24     48.69        0.0004        0.0001        5.2985        5.2985       5.298180       0.07475
  23     57.69        0.0003        0.0001        5.2215        5.2216       5.221241       0.07212
  22     68.43        0.0003        0.0001        5.1318        5.1319       5.131581       0.07048
  21     81.20        0.0003        0.0001        5.0284        5.0285       5.028152       0.06834
  20     96.49        0.0003        0.0001        4.9122        4.9123       4.912017       0.06410
  19     114.6        0.0003        0.0001        4.7780        4.7782       4.777906       0.06262
  18     136.5        0.0003        0.0002        4.6285        4.6287       4.628428       0.05748
  17     162.9        0.0002        0.0002        4.4406        4.4407       4.440516       0.06006
  16     196.4        0.0002        0.0002        4.1548        4.1550       4.154842       0.07191
  15     218.7        0.0002        0.0002        3.9564        3.9566       3.956461       0.07532
  14     243.0        0.0001        0.0002        3.7055        3.7058       3.705627       0.08700
  13     269.0        0.0001        0.0002        3.3399        3.3401       3.339988       0.11861
  12     297.5        0.0001        0.0002        2.8954        2.8956       2.895499       0.13183
  11     328.5        0.0001        0.0002        2.4388        2.4390       2.438958       0.12413
  10     361.9        0.0001        0.0002        2.0269        2.0271       2.027019       0.10422
   9     398.1        0.0001        0.0002        1.6753        1.6755       1.675431       0.08191
   8     437.6        0.0000        0.0002        1.3592        1.3594       1.359313       0.06759
   7     480.5        0.0000        0.0002        1.0616        1.0618       1.061730       0.05844
   6     533.0        0.0000        0.0001        0.7543        0.7544       0.754396       0.04944
   5     589.8        0.0000        0.0001        0.4951        0.4952       0.495203       0.03847
   4     651.6        0.0000        0.0001        0.2943        0.2943       0.294307       0.02747
   3     718.7        0.0000        0.0001        0.1528        0.1529       0.152813       0.01778
   2     792.3        0.0001        0.0000        0.0658        0.0658       0.065779       0.00998
   1     891.5        0.0001        0.0000        0.0157        0.0157       0.015521       0.00428
   0    1013.0        0.0006        0.0000        0.0013        0.0013       0.000728       0.00103



 Wavenumbers:  4000. -  4650. cm-1, ATM      1
 LEVEL PRESSURE   UPWARD FLUX   DIFDOWN FLUX  DIRDOWN FLUX  DOWNWARD FLUX   NET FLUX    HEATING RATE
          mb          W/m2          W/m2          W/m2        W/m2          W/m2       degree/day
  51    .06700        1.7891        0.0000        6.9421        6.9421       5.152926       0.00000
  50    .07753        1.7891        0.0000        6.9421        6.9421       5.152925       0.00079
  49    .09103        1.7891        0.0000        6.9421        6.9421       5.152924       0.00078
  48    0.1069        1.7891        0.0000        6.9421        6.9421       5.152923       0.00076
  47    0.1255        1.7891        0.0000        6.9421        6.9421       5.152921       0.00074
  46    0.1487        1.7891        0.0000        6.9421        6.9421       5.152919       0.00075
  45    0.1794        1.7891        0.0000        6.9421        6.9421       5.152916       0.00077
  44    0.2165        1.7891        0.0000        6.9421        6.9421       5.152913       0.00076
  43    0.2613        1.7891        0.0000        6.9420        6.9420       5.152909       0.00074
  42    0.3336        1.7891        0.0000        6.9420        6.9420       5.152902       0.00076
  41    0.4307        1.7891        0.0000        6.9420        6.9420       5.152893       0.00077
  40    0.5894        1.7891        0.0000        6.9420        6.9420       5.152879       0.00079
  39     1.339        1.7891        0.0000        6.9419        6.9419       5.152790       0.00100
  38     1.782        1.7891        0.0000        6.9418        6.9419       5.152720       0.00132
  37     2.292        1.7891        0.0000        6.9418        6.9418       5.152627       0.00155
  36     2.964        1.7891        0.0000        6.9416        6.9416       5.152487       0.00175
  35     3.853        1.7891        0.0000        6.9414        6.9414       5.152281       0.00196
  34     5.035        1.7891        0.0000        6.9411        6.9411       5.151976       0.00218
  33     6.613        1.7891        0.0000        6.9406        6.9406       5.151529       0.00239
  32     8.786        1.7891        0.0000        6.9399        6.9400       5.150869       0.00256
  31     11.80        1.7891        0.0000        6.9389        6.9389       5.149834       0.00290
  30     15.07        1.7891        0.0001        6.9377        6.9377       5.148624       0.00312
  29     18.79        1.7891        0.0001        6.9362        6.9363       5.147166       0.00331
  28     23.16        1.7891        0.0001        6.9343        6.9344       5.145363       0.00349
  27     28.12        1.7891        0.0001        6.9321        6.9323       5.143189       0.00369
  26     33.73        1.7890        0.0001        6.9294        6.9296       5.140523       0.00401
  25     40.54        1.7890        0.0002        6.9258        6.9260       5.136928       0.00446
  24     48.69        1.7890        0.0002        6.9210        6.9212       5.132169       0.00492
  23     57.69        1.7890        0.0002        6.9154        6.9156       5.126572       0.00525
  22     68.43        1.7890        0.0003        6.9083        6.9086       5.119613       0.00547
  21     81.20        1.7890        0.0003        6.8998        6.9001       5.111106       0.00562
  20     96.49        1.7890        0.0004        6.8894        6.8898       5.100831       0.00567
  19     114.6        1.7890        0.0004        6.8765        6.8770       5.087970       0.00601
  18     136.5        1.7891        0.0005        6.8610        6.8615       5.072457       0.00597
  17     162.9        1.7891        0.0006        6.8417        6.8423       5.053159       0.00617
  16     196.4        1.7893        0.0008        6.8147        6.8154       5.026087       0.00681
  15     218.7        1.7895        0.0008        6.7948        6.7957       5.006146       0.00757
  14     243.0        1.7899        0.0009        6.7698        6.7707       4.980851       0.00877
  13     269.0        1.7904        0.0010        6.7349        6.7359       4.945463       0.01148
  12     297.5        1.7913        0.0011        6.6869        6.6880       4.896702       0.01446
  11     328.5        1.7925        0.0012        6.6194        6.6206       4.828069       0.01866
  10     361.9        1.7942        0.0014        6.5295        6.5308       4.736608       0.02314
   9     398.1        1.7964        0.0015        6.4202        6.4217       4.625292       0.02593
   8     437.6        1.7993        0.0016        6.2962        6.2978       4.498493       0.02711
   7     480.5        1.8032        0.0017        6.1555        6.1572       4.354044       0.02837
   6     533.0        1.8094        0.0019        5.9675        5.9694       4.160005       0.03121
   5     589.8        1.8183        0.0020        5.7368        5.7388       3.920414       0.03556
   4     651.6        1.8313        0.0021        5.4662        5.4684       3.637086       0.03875
   3     718.7        1.8489        0.0023        5.1912        5.1935       3.344532       0.03677
   2     792.3        1.8717        0.0024        4.9395        4.9419       3.070222       0.03146
   1     891.5        1.9106        0.0026        4.6486        4.6512       2.740662       0.02804
   0    1013.0        1.9802        0.0028        4.3179        4.3207       2.340502       0.02779



 Wavenumbers:  4650. -  5150. cm-1, ATM      1
 LEVEL PRESSURE   UPWARD FLUX   DIFDOWN FLUX  DIRDOWN FLUX  DOWNWARD FLUX   NET FLUX    HEATING RATE
          mb          W/m2          W/m2          W/m2        W/m2          W/m2       degree/day
  51    .06700        1.2080        0.0000        6.5710        6.5710       5.362974       0.00000
  50    .07753        1.2080        0.0000        6.5708        6.5708       5.362738       0.18887
  49    .09103        1.2080        0.0000        6.5705        6.5705       5.362444       0.18362
  48    0.1069        1.2080        0.0000        6.5701        6.5701       5.362110       0.17806
  47    0.1255        1.2080        0.0000        6.5697        6.5697       5.361730       0.17238
  46    0.1487        1.2080        0.0000        6.5693        6.5693       5.361256       0.17268
  45    0.1794        1.2080        0.0000        6.5686        6.5686       5.360619       0.17473
  44    0.2165        1.2080        0.0000        6.5679        6.5679       5.359882       0.16788
  43    0.2613        1.2080        0.0000        6.5670        6.5670       5.359029       0.16078
  42    0.3336        1.2080        0.0000        6.5657        6.5657       5.357665       0.15894
  41    0.4307        1.2080        0.0000        6.5640        6.5640       5.355943       0.14971
  40    0.5894        1.2080        0.0000        6.5613        6.5613       5.353327       0.13913
  39     1.339        1.2080        0.0000        6.5516        6.5516       5.343550       0.11008
  38     1.782        1.2080        0.0000        6.5473        6.5473       5.339334       0.08026
  37     2.292        1.2080        0.0000        6.5434        6.5435       5.335447       0.06438
  36     2.964        1.2080        0.0000        6.5395        6.5395       5.331492       0.04964
  35     3.853        1.2080        0.0000        6.5355        6.5356       5.327550       0.03742
  34     5.035        1.2080        0.0000        6.5315        6.5315       5.323547       0.02859
  33     6.613        1.2080        0.0000        6.5271        6.5271       5.319153       0.02349
  32     8.786        1.2080        0.0001        6.5216        6.5216       5.313658       0.02134
  31     11.80        1.2080        0.0001        6.5135        6.5135       5.305578       0.02262
  30     15.07        1.2080        0.0001        6.5041        6.5042       5.296209       0.02419
  29     18.79        1.2079        0.0001        6.4925        6.4926       5.284692       0.02611
  28     23.16        1.2079        0.0001        6.4779        6.4780       5.270098       0.02822
  27     28.12        1.2079        0.0002        6.4599        6.4600       5.252121       0.03056
  26     33.73        1.2079        0.0002        6.4384        6.4386       5.230687       0.03223
  25     40.54        1.2079        0.0002        6.4112        6.4115       5.203558       0.03366
  24     48.69        1.2079        0.0003        6.3775        6.3778       5.169917       0.03481
  23     57.69        1.2079        0.0003        6.3404        6.3407       5.132819       0.03477
  22     68.43        1.2079        0.0004        6.2971        6.2975       5.089622       0.03396
  21     81.20        1.2079        0.0005        6.2483        6.2487       5.040796       0.03226
  20     96.49        1.2080        0.0005        6.1948        6.1954       4.987412       0.02946
  19     114.6        1.2080        0.0006        6.1381        6.1388       4.930758       0.02645
  18     136.5        1.2081        0.0008        6.0790        6.0798       4.871624       0.02274
  17     162.9        1.2083        0.0009        6.0160        6.0169       4.808627       0.02014
  16     196.4        1.2086        0.0011        5.9399        5.9409       4.732324       0.01921
  15     218.7        1.2089        0.0012        5.8896        5.8908       4.681935       0.01913
  14     243.0        1.2093        0.0013        5.8322        5.8335       4.624231       0.02001
  13     269.0        1.2098        0.0014        5.7624        5.7638       4.553994       0.02278
  12     297.5        1.2107        0.0016        5.6767        5.6783       4.467588       0.02563
  11     328.5        1.2119        0.0017        5.5726        5.5743       4.362366       0.02861
  10     361.9        1.2136        0.0019        5.4473        5.4492       4.235557       0.03208
   9     398.1        1.2159        0.0020        5.2995        5.3015       4.085571       0.03494
   8     437.6        1.2190        0.0022        5.1275        5.1296       3.910614       0.03741
   7     480.5        1.2232        0.0023        4.9290        4.9313       3.708049       0.03978
   6     533.0        1.2299        0.0024        4.6794        4.6818       3.451968       0.04120
   5     589.8        1.2391        0.0026        4.4188        4.4214       3.182288       0.04003
   4     651.6        1.2520        0.0027        4.1521        4.1548       2.902817       0.03822
   3     718.7        1.2692        0.0029        3.8929        3.8958       2.626606       0.03471
   2     792.3        1.2914        0.0030        3.6469        3.6499       2.358430       0.03076
   1     891.5        1.3292        0.0031        3.3535        3.3566       2.027362       0.02817
   0    1013.0        1.3940        0.0033        3.0383        3.0416       1.647659       0.02636



 Wavenumbers:  5150. -  6150. cm-1, ATM      1
 LEVEL PRESSURE   UPWARD FLUX   DIFDOWN FLUX  DIRDOWN FLUX  DOWNWARD FLUX   NET FLUX    HEATING RATE
          mb          W/m2          W/m2          W/m2        W/m2          W/m2       degree/day
  51    .06700        3.2620        0.0000       16.4735       16.4735      13.211513       0.00000
  50    .07753        3.2620        0.0000       16.4735       16.4735      13.211478       0.02762
  49    .09103        3.2620        0.0000       16.4734       16.4734      13.211433       0.02811
  48    0.1069        3.2620        0.0000       16.4734       16.4734      13.211380       0.02860
  47    0.1255        3.2620        0.0000       16.4733       16.4733      13.211316       0.02905
  46    0.1487        3.2620        0.0000       16.4732       16.4732      13.211232       0.03060
  45    0.1794        3.2620        0.0000       16.4731       16.4731      13.211113       0.03270
  44    0.2165        3.2620        0.0000       16.4730       16.4730      13.210966       0.03332
  43    0.2613        3.2620        0.0000       16.4728       16.4728      13.210787       0.03377
  42    0.3336        3.2620        0.0000       16.4725       16.4725      13.210481       0.03565
  41    0.4307        3.2620        0.0000       16.4720       16.4720      13.210062       0.03646
  40    0.5894        3.2620        0.0000       16.4713       16.4713      13.209361       0.03729
  39     1.339        3.2620        0.0000       16.4679       16.4679      13.205951       0.03838
  38     1.782        3.2620        0.0000       16.4659       16.4659      13.203951       0.03808
  37     2.292        3.2619        0.0001       16.4635       16.4636      13.201659       0.03797
  36     2.964        3.2619        0.0001       16.4605       16.4606      13.198688       0.03729
  35     3.853        3.2619        0.0001       16.4567       16.4568      13.194833       0.03659
  34     5.035        3.2619        0.0001       16.4516       16.4517      13.189833       0.03572
  33     6.613        3.2619        0.0002       16.4451       16.4452      13.183369       0.03456
  32     8.786        3.2618        0.0002       16.4367       16.4369      13.175051       0.03230
  31     11.80        3.2618        0.0003       16.4254       16.4257      13.163890       0.03125
  30     15.07        3.2617        0.0004       16.4141       16.4145      13.152792       0.02865
  29     18.79        3.2617        0.0005       16.4024       16.4029      13.141258       0.02615
  28     23.16        3.2616        0.0006       16.3900       16.3906      13.128980       0.02374
  27     28.12        3.2615        0.0008       16.3771       16.3778      13.116295       0.02156
  26     33.73        3.2615        0.0009       16.3641       16.3650      13.103543       0.01917
  25     40.54        3.2614        0.0011       16.3502       16.3513      13.089868       0.01697
  24     48.69        3.2613        0.0013       16.3354       16.3367      13.075349       0.01503
  23     57.69        3.2612        0.0015       16.3211       16.3226      13.061394       0.01308
  22     68.43        3.2611        0.0018       16.3062       16.3081      13.046936       0.01137
  21     81.20        3.2610        0.0022       16.2903       16.2925      13.031457       0.01023
  20     96.49        3.2609        0.0026       16.2726       16.2752      13.014277       0.00948
  19     114.6        3.2608        0.0031       16.2521       16.2551      12.994333       0.00931
  18     136.5        3.2607        0.0036       16.2245       16.2282      12.967513       0.01031
  17     162.9        3.2605        0.0043       16.1747       16.1790      12.918531       0.01566
  16     196.4        3.2604        0.0052       16.0518       16.0570      12.796657       0.03068
  15     218.7        3.2603        0.0057       15.8984       15.9041      12.643823       0.05803
  14     243.0        3.2602        0.0063       15.6153       15.6215      12.361303       0.09799
  13     269.0        3.2603        0.0068       15.1390       15.1458      11.885525       0.15434
  12     297.5        3.2604        0.0073       14.5779       14.5852      11.324764       0.16632
  11     328.5        3.2608        0.0078       13.8780       13.8858      10.625000       0.19026
  10     361.9        3.2615        0.0082       13.0814       13.0896       9.828190       0.20160
   9     398.1        3.2625        0.0086       12.2728       12.2814       9.018942       0.18854
   8     437.6        3.2641        0.0089       11.4776       11.4865       8.222429       0.17030
   7     480.5        3.2665        0.0092       10.7300       10.7392       7.472694       0.14725
   6     533.0        3.2708        0.0096       10.0326       10.0422       6.771418       0.11281
   5     589.8        3.2774        0.0101        9.5050        9.5151       6.237702       0.07922
   4     651.6        3.2876        0.0107        9.0814        9.0920       5.804466       0.05925
   3     718.7        3.3021        0.0113        8.7024        8.7138       5.411628       0.04937
   2     792.3        3.3219        0.0121        8.3379        8.3500       5.028129       0.04398
   1     891.5        3.3581        0.0130        7.9064        7.9194       4.561301       0.03972
   0    1013.0        3.4318        0.0141        7.4741        7.4882       4.056371       0.03506



 Wavenumbers:  6150. -  7700. cm-1, ATM      1
 LEVEL PRESSURE   UPWARD FLUX   DIFDOWN FLUX  DIRDOWN FLUX  DOWNWARD FLUX   NET FLUX    HEATING RATE
          mb          W/m2          W/m2          W/m2        W/m2          W/m2       degree/day
  51    .06700        4.7897        0.0000       30.4684       30.4684      25.678682       0.00000
  50    .07753        4.7897        0.0000       30.4683       30.4683      25.678631       0.04144
  49    .09103        4.7897        0.0000       30.4683       30.4683      25.678564       0.04174
  48    0.1069        4.7897        0.0000       30.4682       30.4682      25.678485       0.04202
  47    0.1255        4.7897        0.0000       30.4681       30.4681      25.678392       0.04227
  46    0.1487        4.7897        0.0000       30.4680       30.4680      25.678271       0.04411
  45    0.1794        4.7897        0.0000       30.4678       30.4678      25.678101       0.04669
  44    0.2165        4.7897        0.0000       30.4676       30.4676      25.677893       0.04715
  43    0.2613        4.7897        0.0000       30.4673       30.4673      25.677642       0.04744
  42    0.3336        4.7897        0.0000       30.4669       30.4669      25.677215       0.04974
  41    0.4307        4.7897        0.0000       30.4663       30.4663      25.676634       0.05052
  40    0.5894        4.7897        0.0001       30.4653       30.4653      25.675666       0.05146
  39     1.339        4.7896        0.0001       30.4604       30.4606      25.670983       0.05273
  38     1.782        4.7895        0.0002       30.4576       30.4578      25.668233       0.05235
  37     2.292        4.7895        0.0003       30.4543       30.4546      25.665075       0.05231
  36     2.964        4.7894        0.0003       30.4501       30.4504      25.660967       0.05156
  35     3.853        4.7893        0.0004       30.4445       30.4449      25.655610       0.05084
  34     5.035        4.7892        0.0006       30.4373       30.4378      25.648610       0.05000
  33     6.613        4.7891        0.0007       30.4278       30.4285      25.639463       0.04890
  32     8.786        4.7889        0.0010       30.4154       30.4164      25.627510       0.04642
  31     11.80        4.7886        0.0013       30.3984       30.3997      25.611125       0.04587
  30     15.07        4.7882        0.0017       30.3810       30.3827      25.594411       0.04315
  29     18.79        4.7879        0.0021       30.3623       30.3644      25.576510       0.04059
  28     23.16        4.7875        0.0026       30.3417       30.3443      25.556827       0.03806
  27     28.12        4.7870        0.0031       30.3196       30.3227      25.535727       0.03587
  26     33.73        4.7864        0.0038       30.2965       30.3003      25.513809       0.03296
  25     40.54        4.7858        0.0045       30.2708       30.2753      25.489471       0.03019
  24     48.69        4.7850        0.0054       30.2423       30.2477      25.462694       0.02771
  23     57.69        4.7841        0.0064       30.2139       30.2203      25.436128       0.02490
  22     68.43        4.7831        0.0076       30.1834       30.1910      25.407853       0.02223
  21     81.20        4.7819        0.0090       30.1500       30.1590      25.377123       0.02031
  20     96.49        4.7804        0.0107       30.1126       30.1233      25.342905       0.01889
  19     114.6        4.7787        0.0127       30.0695       30.0822      25.303518       0.01839
  18     136.5        4.7766        0.0151       30.0139       30.0290      25.252361       0.01967
  17     162.9        4.7742        0.0179       29.9225       29.9404      25.166178       0.02755
  16     196.4        4.7711        0.0215       29.7333       29.7548      24.983778       0.04591
  15     218.7        4.7691        0.0238       29.5259       29.5497      24.780636       0.07713
  14     243.0        4.7669        0.0262       29.1375       29.1637      24.396785       0.13313
  13     269.0        4.7648        0.0286       28.3800       28.4086      23.643748       0.24428
  12     297.5        4.7628        0.0307       27.3895       27.4203      22.657451       0.29252
  11     328.5        4.7612        0.0328       26.2257       26.2585      21.497372       0.31542
  10     361.9        4.7600        0.0347       24.8453       24.8801      20.120041       0.34848
   9     398.1        4.7597        0.0364       23.3471       23.3834      18.623717       0.34861
   8     437.6        4.7608        0.0378       21.7966       21.8344      17.073620       0.33142
   7     480.5        4.7642        0.0389       20.1977       20.2366      15.472362       0.31448
   6     533.0        4.7725        0.0400       18.4969       18.5370      13.764480       0.27474
   5     589.8        4.7874        0.0412       16.9754       17.0165      12.229137       0.22790
   4     651.6        4.8126        0.0423       15.6022       15.6445      10.831823       0.19109
   3     718.7        4.8506        0.0436       14.4232       14.4668       9.616170       0.15277
   2     792.3        4.9035        0.0451       13.4386       13.4838       8.580284       0.11880
   1     891.5        5.0014        0.0473       12.3736       12.4209       7.419485       0.09878
   0    1013.0        5.1974        0.0497       11.2911       11.3408       6.143370       0.08861



 Wavenumbers:  7700. -  8050. cm-1, ATM      1
 LEVEL PRESSURE   UPWARD FLUX   DIFDOWN FLUX  DIRDOWN FLUX  DOWNWARD FLUX   NET FLUX    HEATING RATE
          mb          W/m2          W/m2          W/m2        W/m2          W/m2       degree/day
  51    .06700        2.4863        0.0000        7.2006        7.2006       4.714248       0.00000
  50    .07753        2.4863        0.0000        7.2006        7.2006       4.714229       0.01548
  49    .09103        2.4863        0.0000        7.2005        7.2005       4.714204       0.01517
  48    0.1069        2.4863        0.0000        7.2005        7.2005       4.714177       0.01485
  47    0.1255        2.4863        0.0000        7.2005        7.2005       4.714144       0.01453
  46    0.1487        2.4863        0.0000        7.2004        7.2005       4.714104       0.01475
  45    0.1794        2.4863        0.0000        7.2004        7.2004       4.714049       0.01517
  44    0.2165        2.4864        0.0000        7.2003        7.2003       4.713983       0.01489
  43    0.2613        2.4864        0.0000        7.2003        7.2003       4.713906       0.01461
  42    0.3336        2.4864        0.0000        7.2001        7.2001       4.713778       0.01494
  41    0.4307        2.4864        0.0000        7.2000        7.2000       4.713608       0.01478
  40    0.5894        2.4864        0.0000        7.1997        7.1997       4.713330       0.01476
  39     1.339        2.4865        0.0001        7.1984        7.1985       4.712017       0.01478
  38     1.782        2.4865        0.0001        7.1977        7.1978       4.711246       0.01468
  37     2.292        2.4866        0.0001        7.1968        7.1969       4.710354       0.01478
  36     2.964        2.4867        0.0001        7.1957        7.1958       4.709183       0.01470
  35     3.853        2.4868        0.0002        7.1942        7.1944       4.707637       0.01467
  34     5.035        2.4869        0.0002        7.1922        7.1925       4.705584       0.01466
  33     6.613        2.4871        0.0003        7.1896        7.1899       4.702845       0.01464
  32     8.786        2.4873        0.0004        7.1860        7.1864       4.699159       0.01432
  31     11.80        2.4876        0.0005        7.1810        7.1815       4.693897       0.01473
  30     15.07        2.4880        0.0007        7.1755        7.1763       4.688263       0.01455
  29     18.79        2.4884        0.0009        7.1694        7.1703       4.681918       0.01439
  28     23.16        2.4889        0.0011        7.1623        7.1634       4.674535       0.01428
  27     28.12        2.4894        0.0013        7.1542        7.1556       4.666127       0.01429
  26     33.73        2.4900        0.0016        7.1452        7.1468       4.656765       0.01408
  25     40.54        2.4908        0.0019        7.1344        7.1363       4.645519       0.01395
  24     48.69        2.4917        0.0023        7.1215        7.1238       4.632059       0.01393
  23     57.69        2.4927        0.0027        7.1074        7.1101       4.617393       0.01375
  22     68.43        2.4939        0.0032        7.0909        7.0940       4.600091       0.01360
  21     81.20        2.4954        0.0037        7.0713        7.0751       4.579705       0.01347
  20     96.49        2.4971        0.0044        7.0484        7.0529       4.555732       0.01323
  19     114.6        2.4992        0.0053        7.0217        7.0269       4.527700       0.01309
  18     136.5        2.5018        0.0062        6.9906        6.9968       4.495058       0.01255
  17     162.9        2.5048        0.0074        6.9544        6.9618       4.456964       0.01218
  16     196.4        2.5089        0.0089        6.9087        6.9176       4.408754       0.01214
  15     218.7        2.5116        0.0098        6.8794        6.8893       4.377711       0.01179
  14     243.0        2.5146        0.0109        6.8481        6.8590       4.344469       0.01153
  13     269.0        2.5179        0.0120        6.8147        6.8268       4.308897       0.01154
  12     297.5        2.5216        0.0133        6.7791        6.7924       4.270800       0.01130
  11     328.5        2.5257        0.0146        6.7409        6.7555       4.229870       0.01113
  10     361.9        2.5303        0.0160        6.7002        6.7162       4.185855       0.01114
   9     398.1        2.5356        0.0175        6.6563        6.6738       4.138229       0.01110
   8     437.6        2.5416        0.0192        6.6089        6.6280       4.086438       0.01107
   7     480.5        2.5486        0.0209        6.5570        6.5779       4.029349       0.01121
   6     533.0        2.5579        0.0230        6.4915        6.5145       3.956567       0.01171
   5     589.8        2.5692        0.0253        6.4182        6.4435       3.874339       0.01221
   4     651.6        2.5828        0.0277        6.3359        6.3636       3.780790       0.01279
   3     718.7        2.5991        0.0303        6.2441        6.2744       3.675318       0.01326
   2     792.3        2.6183        0.0330        6.1437        6.1767       3.558446       0.01340
   1     891.5        2.6471        0.0365        6.0042        6.0407       3.393589       0.01403
   0    1013.0        2.6881        0.0407        5.8249        5.8655       3.177412       0.01501



 Wavenumbers:  8050. - 12850. cm-1, ATM      1
 LEVEL PRESSURE   UPWARD FLUX   DIFDOWN FLUX  DIRDOWN FLUX  DOWNWARD FLUX   NET FLUX    HEATING RATE
          mb          W/m2          W/m2          W/m2        W/m2          W/m2       degree/day
  51    .06700       31.8305        0.0000      100.8135      100.8135      68.983023       0.00000
  50    .07753       31.8305        0.0000      100.8135      100.8135      68.983023       0.00000
  49    .09103       31.8305        0.0001      100.8134      100.8135      68.983023       0.00000
  48    0.1069       31.8304        0.0001      100.8134      100.8134      68.983023      -0.00000
  47    0.1255       31.8304        0.0001      100.8133      100.8134      68.983023       0.00000
  46    0.1487       31.8304        0.0002      100.8132      100.8134      68.983023      -0.00000
  45    0.1794       31.8303        0.0003      100.8131      100.8133      68.983023       0.00000
  44    0.2165       31.8302        0.0003      100.8129      100.8133      68.983023      -0.00000
  43    0.2613       31.8302        0.0004      100.8127      100.8132      68.983023       0.00000
  42    0.3336       31.8300        0.0006      100.8125      100.8131      68.983023      -0.00000
  41    0.4307       31.8299        0.0008      100.8121      100.8129      68.983023       0.00000
  40    0.5894       31.8296        0.0012      100.8115      100.8126      68.983023      -0.00000
  39     1.339       31.8284        0.0029      100.8085      100.8114      68.983023       0.00000
  38     1.782       31.8276        0.0039      100.8068      100.8106      68.983023       0.00000
  37     2.292       31.8268        0.0050      100.8047      100.8098      68.983023       0.00000
  36     2.964       31.8256        0.0066      100.8021      100.8087      68.983023      -0.00000
  35     3.853       31.8242        0.0086      100.7986      100.8072      68.983023      -0.00000
  34     5.035       31.8222        0.0112      100.7940      100.8052      68.983023       0.00000
  33     6.613       31.8195        0.0148      100.7878      100.8026      68.983023      -0.00000
  32     8.786       31.8160        0.0196      100.7794      100.7990      68.983023       0.00000
  31     11.80       31.8109        0.0265      100.7674      100.7939      68.983023       0.00000
  30     15.07       31.8054        0.0339      100.7546      100.7884      68.983023       0.00000
  29     18.79       31.7992        0.0422      100.7400      100.7822      68.983023       0.00000
  28     23.16       31.7920        0.0520      100.7230      100.7750      68.983023      -0.00000
  27     28.12       31.7837        0.0632      100.7035      100.7667      68.983023       0.00000
  26     33.73       31.7744        0.0758      100.6817      100.7574      68.983023      -0.00000
  25     40.54       31.7632        0.0909      100.6552      100.7462      68.983023       0.00000
  24     48.69       31.7496        0.1093      100.6234      100.7326      68.983023      -0.00000
  23     57.69       31.7347        0.1294      100.5883      100.7177      68.983023       0.00000
  22     68.43       31.7169        0.1534      100.5464      100.6999      68.983023       0.00000
  21     81.20       31.6956        0.1821      100.4965      100.6786      68.983023      -0.00000
  20     96.49       31.6702        0.2163      100.4370      100.6533      68.983023      -0.00000
  19     114.6       31.6402        0.2570      100.3585      100.6155      68.975317       0.00360
  18     136.5       31.6044        0.3053      100.2634      100.5686      68.964228       0.00426
  17     162.9       31.5618        0.3629      100.1407      100.5035      68.941732       0.00719
  16     196.4       31.5065        0.4377       99.9505      100.3882      68.881657       0.01512
  15     218.7       31.4702        0.4868       99.7889      100.2758      68.805588       0.02888
  14     243.0       31.4308        0.5402       99.5472      100.0873      68.656575       0.05168
  13     269.0       31.3886        0.5976       99.1452       99.7428      68.354252       0.09807
  12     297.5       31.3440        0.6593       98.5975       99.2567      67.912685       0.13096
  11     328.5       31.2977        0.7253       97.8659       98.5911      67.293441       0.16837
  10     361.9       31.2506        0.7953       96.8848       97.6801      66.429538       0.21858
   9     398.1       31.2041        0.8693       95.6330       96.5023      65.298176       0.26358
   8     437.6       31.1608        0.9466       94.0655       95.0121      63.851280       0.30936
   7     480.5       31.1260        1.0265       92.0807       93.1072      61.981209       0.36727
   6     533.0       31.1025        1.1207       89.4449       90.5655      59.462976       0.40510
   5     589.8       31.1059        1.2178       86.5544       87.7722      56.666323       0.41512
   4     651.6       31.1516        1.3174       83.4174       84.7347      53.583109       0.42164
   3     718.7       31.2494        1.4201       80.2037       81.6238      50.374368       0.40325
   2     792.3       31.4079        1.5267       77.0811       78.6078      47.199911       0.36407
   1     891.5       31.7356        1.6642       73.2645       74.9287      43.193129       0.34096
   0    1013.0       32.4271        1.8171       68.9425       70.7595      38.332443       0.33750



 Wavenumbers: 12850. - 16000. cm-1, ATM      1
 LEVEL PRESSURE   UPWARD FLUX   DIFDOWN FLUX  DIRDOWN FLUX  DOWNWARD FLUX   NET FLUX    HEATING RATE
          mb          W/m2          W/m2          W/m2        W/m2          W/m2       degree/day
  51    .06700       37.6887        0.0000       63.1686       63.1686      25.479853       0.00000
  50    .07753       37.6887        0.0001       63.1677       63.1678      25.479073       0.62521
  49    .09103       37.6887        0.0001       63.1666       63.1668      25.478101       0.60766
  48    0.1069       37.6886        0.0002       63.1654       63.1656      25.476994       0.58933
  47    0.1255       37.6886        0.0003       63.1640       63.1643      25.475734       0.57093
  46    0.1487       37.6886        0.0004       63.1623       63.1627      25.474163       0.57260
  45    0.1794       37.6885        0.0006       63.1600       63.1606      25.472056       0.57838
  44    0.2165       37.6885        0.0008       63.1573       63.1581      25.469620       0.55435
  43    0.2613       37.6884        0.0010       63.1542       63.1552      25.466808       0.52996
  42    0.3336       37.6884        0.0014       63.1493       63.1507      25.462327       0.52243
  41    0.4307       37.6883        0.0019       63.1431       63.1451      25.456721       0.48744
  40    0.5894       37.6883        0.0027       63.1338       63.1366      25.448224       0.45184
  39     1.339       37.6898        0.0067       63.0956       63.1022      25.412470       0.40253
  38     1.782       37.6916        0.0090       63.0740       63.0830      25.391389       0.40135
  37     2.292       37.6947        0.0116       63.0477       63.0593      25.364634       0.44313
  36     2.964       37.7001        0.0151       63.0095       63.0247      25.324551       0.50316
  35     3.853       37.7093        0.0198       62.9533       62.9730      25.263698       0.57750
  34     5.035       37.7235        0.0259       62.8725       62.8984      25.174872       0.63453
  33     6.613       37.7435        0.0341       62.7621       62.7961      25.052627       0.65352
  32     8.786       37.7694        0.0451       62.6182       62.6633      24.893941       0.61628
  31     11.80       37.8025        0.0607       62.4284       62.4891      24.686653       0.58034
  30     15.07       37.8334        0.0776       62.2426       62.3202      24.486734       0.51615
  29     18.79       37.8643        0.0965       62.0493       62.1458      24.281468       0.46540
  28     23.16       37.8957        0.1186       61.8424       61.9610      24.065323       0.41796
  27     28.12       37.9261        0.1438       61.6278       61.7716      23.845511       0.37367
  26     33.73       37.9522        0.1719       61.4177       61.5896      23.637397       0.31291
  25     40.54       37.9746        0.2059       61.1983       61.4042      23.429541       0.25787
  24     48.69       37.9928        0.2467       60.9680       61.2147      23.221905       0.21487
  23     57.69       38.0042        0.2915       60.7478       61.0393      23.035160       0.17505
  22     68.43       38.0084        0.3449       60.5202       60.8650      22.856619       0.14036
  21     81.20       38.0008        0.4084       60.2938       60.7022      22.701414       0.10256
  20     96.49       37.9799        0.4840       60.0643       60.5483      22.568383       0.07342
  19     114.6       37.9562        0.5744       59.8078       60.3822      22.425917       0.06652
  18     136.5       37.9228        0.6813       59.5157       60.1970      22.274260       0.05832
  17     162.9       37.8779        0.8083       59.1770       59.9853      22.107452       0.05332
  16     196.4       37.8091        0.9726       58.7604       59.7330      21.923920       0.04620
  15     218.7       37.7601        1.0802       58.4948       59.5750      21.814889       0.04139
  14     243.0       37.7052        1.1969       58.2089       59.4058      21.700638       0.03963
  13     269.0       37.6443        1.3232       57.9006       59.2238      21.579516       0.03929
  12     297.5       37.5773        1.4593       57.5668       59.0261      21.448779       0.03878
  11     328.5       37.5054        1.6060       57.2005       58.8065      21.301155       0.04014
  10     361.9       37.4291        1.7635       56.7963       58.5599      21.130832       0.04309
   9     398.1       37.3491        1.9325       56.3475       58.2800      20.930939       0.04657
   8     437.6       37.2672        2.1131       55.8422       57.9553      20.688122       0.05192
   7     480.5       37.1868        2.3055       55.2625       57.5681      20.381261       0.06027
   6     533.0       37.1002        2.5404       54.4972       57.0376      19.937344       0.07141
   5     589.8       37.0224        2.7903       53.6307       56.4210      19.398608       0.07997
   4     651.6       36.9599        3.0544       52.6606       55.7149      18.755031       0.08801
   3     718.7       36.9161        3.3329       51.6100       54.9429      18.026862       0.09151
   2     792.3       36.8953        3.6258       50.5019       54.1276      17.232335       0.09112
   1     891.5       36.9202        4.0119       49.0197       53.0315      16.111355       0.09539
   0    1013.0       37.0576        4.4597       47.2289       51.6886      14.630978       0.10279



 Wavenumbers: 16000. - 22650. cm-1, ATM      1
 LEVEL PRESSURE   UPWARD FLUX   DIFDOWN FLUX  DIRDOWN FLUX  DOWNWARD FLUX   NET FLUX    HEATING RATE
          mb          W/m2          W/m2          W/m2        W/m2          W/m2       degree/day
  51    .06700       82.5201        0.0000      100.7153      100.7153      18.195218       0.00000
  50    .07753       82.5200        0.0003      100.7147      100.7151      18.195098       0.09637
  49    .09103       82.5198        0.0008      100.7140      100.7148      18.194923       0.10931
  48    0.1069       82.5197        0.0012      100.7131      100.7144      18.194688       0.12465
  47    0.1255       82.5195        0.0018      100.7121      100.7139      18.194375       0.14208
  46    0.1487       82.5193        0.0025      100.7108      100.7133      18.193913       0.16836
  45    0.1794       82.5191        0.0034      100.7089      100.7123      18.193191       0.19824
  44    0.2165       82.5189        0.0046      100.7066      100.7111      18.192212       0.22279
  43    0.2613       82.5187        0.0059      100.7037      100.7096      18.190883       0.25047
  42    0.3336       82.5185        0.0081      100.6987      100.7068      18.188357       0.29454
  41    0.4307       82.5183        0.0111      100.6918      100.7028      18.184549       0.33109
  40    0.5894       82.5183        0.0159      100.6797      100.6956      18.177287       0.38619
  39     1.339       82.5244        0.0386      100.6095      100.6481      18.123644       0.60392
  38     1.782       82.5324        0.0519      100.5585      100.6104      18.077960       0.86975
  37     2.292       82.5457        0.0673      100.4903      100.5576      18.011851       1.09493
  36     2.964       82.5695        0.0876      100.3868      100.4743      17.904802       1.34379
  35     3.853       82.6098        0.1143      100.2306      100.3449      17.735056       1.61092
  34     5.035       82.6721        0.1497      100.0045      100.1542      17.482068       1.80724
  33     6.613       82.7598        0.1969       99.6939       99.8908      17.130997       1.87683
  32     8.786       82.8734        0.2604       99.2881       99.5484      16.675056       1.77071
  31     11.80       83.0188        0.3509       98.7496       99.1005      16.081680       1.66127
  30     15.07       83.1551        0.4478       98.2198       98.6676      15.512494       1.46953
  29     18.79       83.2912        0.5568       97.6651       98.2220      14.930800       1.31888
  28     23.16       83.4295        0.6837       97.0671       97.7509      14.321432       1.17832
  27     28.12       83.5635        0.8284       96.4406       97.2689      13.705384       1.04724
  26     33.73       83.6790        0.9897       95.8179       96.8075      13.128566       0.86726
  25     40.54       83.7785        1.1839       95.1548       96.3387      12.560275       0.70503
  24     48.69       83.8597        1.4172       94.4420       95.8592      11.999520       0.58029
  23     57.69       83.9115        1.6725       93.7416       95.4141      11.502595       0.46579
  22     68.43       83.9330        1.9753       92.9954       94.9707      11.037631       0.36552
  21     81.20       83.9037        2.3348       92.2231       94.5579      10.654247       0.25333
  20     96.49       83.8178        2.7612       91.4110       94.1722      10.354344       0.16552
  19     114.6       83.6909        3.2641       90.5070       93.7711      10.080224       0.12799
  18     136.5       83.5241        3.8554       89.4803       93.3357       9.811507       0.10333
  17     162.9       83.3115        4.5527       88.3022       92.8549       9.543382       0.08570
  16     196.4       83.0042        5.4469       86.8606       92.3075       9.303286       0.06044
  15     218.7       82.7916        6.0279       85.9492       91.9771       9.185468       0.04473
  14     243.0       82.5565        6.6539       84.9789       91.6329       9.076371       0.03784
  13     269.0       82.2977        7.3260       83.9493       91.2753       8.977545       0.03206
  12     297.5       82.0147        8.0449       82.8589       90.9039       8.889129       0.02622
  11     328.5       81.7092        8.8133       81.6982       90.5115       8.802335       0.02360
  10     361.9       81.3812        9.6309       80.4669       90.0979       8.716640       0.02168
   9     398.1       81.0301       10.4998       79.1611       89.6609       8.630816       0.01999
   8     437.6       80.6566       11.4203       77.7777       89.1980       8.541489       0.01910
   7     480.5       80.2610       12.3929       76.3136       88.7065       8.445487       0.01885
   6     533.0       79.7821       13.5702       74.5359       88.1061       8.324014       0.01954
   5     589.8       79.2772       14.8152       72.6469       87.4622       8.184995       0.02063
   4     651.6       78.7489       16.1260       70.6456       86.7715       8.022616       0.02221
   3     718.7       78.1982       17.5004       68.5367       86.0371       7.838953       0.02308
   2     792.3       77.6281       18.9334       66.3287       85.2621       7.634014       0.02350
   1     891.5       76.8942       20.8047       63.4246       84.2293       7.335103       0.02544
   0    1013.0       76.0710       22.9569       60.0483       83.0053       6.934280       0.02783



 Wavenumbers: 22650. - 29000. cm-1, ATM      1
 LEVEL PRESSURE   UPWARD FLUX   DIFDOWN FLUX  DIRDOWN FLUX  DOWNWARD FLUX   NET FLUX    HEATING RATE
          mb          W/m2          W/m2          W/m2        W/m2          W/m2       degree/day
  51    .06700       35.4433        0.0000       38.0063       38.0063       2.562965       0.00000
  50    .07753       35.4432        0.0004       38.0057       38.0061       2.562965       0.00000
  49    .09103       35.4430        0.0009       38.0050       38.0059       2.562965       0.00000
  48    0.1069       35.4427        0.0014       38.0042       38.0057       2.562965      -0.00000
  47    0.1255       35.4425        0.0021       38.0033       38.0054       2.562965       0.00000
  46    0.1487       35.4421        0.0029       38.0022       38.0051       2.562965       0.00000
  45    0.1794       35.4416        0.0040       38.0006       38.0046       2.562965       0.00000
  44    0.2165       35.4411        0.0053       37.9987       38.0041       2.562965       0.00000
  43    0.2613       35.4404        0.0069       37.9965       38.0034       2.562965       0.00000
  42    0.3336       35.4394        0.0095       37.9928       38.0023       2.562965      -0.00000
  41    0.4307       35.4379        0.0129       37.9880       38.0009       2.562965       0.00000
  40    0.5894       35.4356        0.0185       37.9800       37.9985       2.562965       0.00000
  39     1.339       35.4245        0.0450       37.9425       37.9874       2.562965      -0.00000
  38     1.782       35.4180        0.0605       37.9204       37.9809       2.562965       0.00000
  37     2.292       35.4104        0.0785       37.8949       37.9734       2.562965       0.00000
  36     2.964       35.4005        0.1021       37.8614       37.9635       2.562965      -0.00000
  35     3.853       35.3875        0.1332       37.8172       37.9504       2.562965       0.00000
  34     5.035       35.3701        0.1745       37.7586       37.9331       2.562965      -0.00000
  33     6.613       35.3470        0.2297       37.6803       37.9100       2.562965       0.00000
  32     8.786       35.3159        0.3038       37.5750       37.8789       2.562965       0.00000
  31     11.80       35.2715        0.4096       37.4249       37.8345       2.562965      -0.00000
  30     15.07       35.2240        0.5228       37.2642       37.7870       2.562965       0.00000
  29     18.79       35.1705        0.6502       37.0833       37.7335       2.562965      -0.00000
  28     23.16       35.1083        0.7983       36.8730       37.6713       2.562965       0.00000
  27     28.12       35.0375        0.9667       36.6338       37.6005       2.562965       0.00000
  26     33.73       34.9587        1.1540       36.3677       37.5217       2.562965       0.00000
  25     40.54       34.8642        1.3786       36.0486       37.4272       2.562965      -0.00000
  24     48.69       34.7512        1.6470       35.6672       37.3142       2.562965       0.00000
  23     57.69       34.6283        1.9386       35.2527       37.1913       2.562965      -0.00000
  22     68.43       34.4836        2.2816       34.7649       37.0465       2.562965       0.00000
  21     81.20       34.3135        2.6842       34.1922       36.8764       2.562965      -0.00000
  20     96.49       34.1141        3.1553       33.5217       36.6771       2.562965      -0.00000
  19     114.6       33.8821        3.7027       32.7424       36.4450       2.562965       0.00000
  18     136.5       33.6134        4.3348       31.8416       36.1764       2.562965      -0.00000
  17     162.9       33.3024        5.0646       30.8008       35.8654       2.562965       0.00000
  16     196.4       32.9130        5.9753       29.5007       35.4759       2.562965      -0.00000
  15     218.7       32.6655        6.5518       28.6767       35.2285       2.562965       0.00000
  14     243.0       32.4037        7.1599       27.8068       34.9667       2.562965       0.00000
  13     269.0       32.1281        7.7978       26.8933       34.6911       2.562965      -0.00000
  12     297.5       31.8395        8.4632       25.9393       34.4025       2.562965       0.00000
  11     328.5       31.5379        9.1558       24.9451       34.1009       2.562965       0.00000
  10     361.9       31.2246        9.8716       23.9160       33.7876       2.562965       0.00000
   9     398.1       30.9002       10.6090       22.8541       33.4631       2.562965      -0.00000
   8     437.6       30.5658       11.3643       21.7645       33.1288       2.562965       0.00000
   7     480.5       30.2228       12.1336       20.6521       32.7858       2.562965       0.00000
   6     533.0       29.8211       13.0271       19.3569       32.3840       2.562965       0.00000
   5     589.8       29.4118       13.9280       18.0467       31.9748       2.562965       0.00000
   4     651.6       28.9976       14.8289       16.7316       31.5605       2.562965       0.00000
   3     718.7       28.5809       15.7224       15.4214       31.1438       2.562965      -0.00000
   2     792.3       28.1648       16.6002       14.1276       30.7278       2.562965       0.00000
   1     891.5       27.6486       17.6657       12.5459       30.2116       2.562965       0.00000
   0    1013.0       27.0906       18.7818       10.8717       29.6535       2.562965       0.00000



 Wavenumbers: 29000. - 38000. cm-1, ATM      1
 LEVEL PRESSURE   UPWARD FLUX   DIFDOWN FLUX  DIRDOWN FLUX  DOWNWARD FLUX   NET FLUX    HEATING RATE
          mb          W/m2          W/m2          W/m2        W/m2          W/m2       degree/day
  51    .06700        5.1028        0.0000       13.4026       13.4026       8.299838       0.00000
  50    .07753        5.1025        0.0003       13.3983       13.3986       8.296039       3.04458
  49    .09103        5.1023        0.0007       13.3921       13.3928       8.290520       3.44989
  48    0.1069        5.1020        0.0011       13.3840       13.3851       8.283142       3.92703
  47    0.1255        5.1016        0.0016       13.3733       13.3749       8.273297       4.46348
  46    0.1487        5.1012        0.0022       13.3579       13.3601       8.258853       5.26474
  45    0.1794        5.1006        0.0030       13.3340       13.3371       8.236452       6.14970
  44    0.2165        5.1000        0.0040       13.3024       13.3064       8.206431       6.82926
  43    0.2613        5.0992        0.0052       13.2604       13.2656       8.166373       7.55068
  42    0.3336        5.0980        0.0071       13.1833       13.1904       8.092361       8.62911
  41    0.4307        5.0965        0.0095       13.0729       13.0825       7.985980       9.24958
  40    0.5894        5.0941        0.0135       12.8796       12.8930       7.798919       9.94765
  39     1.339        5.0859        0.0298       11.9165       11.9463       6.860449      10.56548
  38     1.782        5.0827        0.0382       11.4399       11.4781       6.395356       8.85461
  37     2.292        5.0805        0.0471       10.9796       11.0267       5.946265       7.43812
  36     2.964        5.0794        0.0581       10.4786       10.5367       5.457380       6.13699
  35     3.853        5.0805        0.0717        9.9429       10.0146       4.934121       4.96582
  34     5.035        5.0846        0.0887        9.4007        9.4894       4.404794       3.78130
  33     6.613        5.0918        0.1102        8.8752        8.9854       3.893577       2.73297
  32     8.786        5.1018        0.1380        8.3786        8.5165       3.414768       1.85952
  31     11.80        5.1141        0.1761        7.8897        8.0658       2.951700       1.29644
  30     15.07        5.1249        0.2155        7.5108        7.7263       2.601407       0.90439
  29     18.79        5.1351        0.2584        7.1776        7.4360       2.300892       0.68136
  28     23.16        5.1448        0.3067        6.8664        7.1732       2.028386       0.52694
  27     28.12        5.1531        0.3602        6.5780        6.9382       1.785157       0.41347
  26     33.73        5.1575        0.4185        6.3195        6.7380       1.580509       0.30769
  25     40.54        5.1569        0.4873        6.0663        6.5535       1.396651       0.22810
  24     48.69        5.1508        0.5679        5.8128        6.3807       1.229884       0.17258
  23     57.69        5.1391        0.6540        5.5777        6.2317       1.092594       0.12869
  22     68.43        5.1195        0.7537        5.3379        6.0915       0.972024       0.09478
  21     81.20        5.0878        0.8694        5.0965        5.9659       0.878058       0.06209
  20     96.49        5.0427        1.0031        4.8476        5.8507       0.807997       0.03867
  19     114.6        4.9877        1.1547        4.5799        5.7346       0.746933       0.02851
  18     136.5        4.9238        1.3243        4.2891        5.6134       0.689613       0.02204
  17     162.9        4.8509        1.5126        3.9732        5.4858       0.634876       0.01750
  16     196.4        4.7584        1.7384        3.6080        5.3464       0.587989       0.01180
  15     218.7        4.7002        1.8761        3.3898        5.2658       0.565625       0.00849
  14     243.0        4.6398        2.0165        3.1686        5.1851       0.545308       0.00705
  13     269.0        4.5775        2.1587        2.9461        5.1048       0.527358       0.00582
  12     297.5        4.5137        2.3015        2.7239        5.0255       0.511800       0.00461
  11     328.5        4.4493        2.4435        2.5029        4.9464       0.497158       0.00398
  10     361.9        4.3847        2.5836        2.2846        4.8681       0.483457       0.00347
   9     398.1        4.3204        2.7203        2.0708        4.7911       0.470689       0.00297
   8     437.6        4.2569        2.8529        1.8626        4.7155       0.458585       0.00259
   7     480.5        4.1946        2.9798        1.6621        4.6419       0.447276       0.00222
   6     533.0        4.1253        3.1168        1.4437        4.5604       0.435151       0.00195
   5     589.8        4.0588        3.2434        1.2390        4.4824       0.423607       0.00171
   4     651.6        3.9956        3.3581        1.0500        4.4081       0.412489       0.00152
   3     718.7        3.9362        3.4602        0.8778        4.3380       0.401759       0.00135
   2     792.3        3.8809        3.5485        0.7237        4.2723       0.391395       0.00119
   1     891.5        3.8174        3.6399        0.5563        4.1962       0.378774       0.00107
   0    1013.0        3.7547        3.7158        0.4039        4.1198       0.365035       0.00095



 Wavenumbers: 38000. - 50000. cm-1, ATM      1
 LEVEL PRESSURE   UPWARD FLUX   DIFDOWN FLUX  DIRDOWN FLUX  DOWNWARD FLUX   NET FLUX    HEATING RATE
          mb          W/m2          W/m2          W/m2        W/m2          W/m2       degree/day
  51    .06700        0.0051        0.0000        0.8267        0.8267       0.821528       0.00000
  50    .07753        0.0051        0.0001        0.8242        0.8243       0.819196       1.86936
  49    .09103        0.0050        0.0002        0.8207        0.8209       0.815872       2.07705
  48    0.1069        0.0049        0.0002        0.8162        0.8164       0.811514       2.31984
  47    0.1255        0.0048        0.0004        0.8103        0.8106       0.805801       2.59006
  46    0.1487        0.0047        0.0005        0.8018        0.8023       0.797567       3.00143
  45    0.1794        0.0045        0.0007        0.7889        0.7896       0.785013       3.44648
  44    0.2165        0.0044        0.0009        0.7720        0.7729       0.768507       3.75474
  43    0.2613        0.0042        0.0011        0.7500        0.7511       0.746955       4.06246
  42    0.3336        0.0039        0.0015        0.7106        0.7121       0.708267       4.51071
  41    0.4307        0.0035        0.0019        0.6566        0.6584       0.654972       4.63387
  40    0.5894        0.0029        0.0024        0.5680        0.5704       0.567464       4.65357
  39     1.339        0.0015        0.0030        0.2422        0.2452       0.243720       3.64476
  38     1.782        0.0010        0.0026        0.1493        0.1519       0.150889       1.76735
  37     2.292        0.0007        0.0022        0.0924        0.0946       0.093932       0.94336
  36     2.964        0.0005        0.0018        0.0539        0.0557       0.055224       0.48589
  35     3.853        0.0003        0.0013        0.0295        0.0308       0.030502       0.23462
  34     5.035        0.0002        0.0010        0.0154        0.0164       0.016181       0.10230
  33     6.613        0.0001        0.0007        0.0073        0.0080       0.007912       0.04420
  32     8.786        0.0000        0.0004        0.0030        0.0034       0.003390       0.01756
  31     11.80        0.0000        0.0003        0.0010        0.0012       0.001199       0.00613
  30     15.07        0.0000        0.0001        0.0003        0.0005       0.000463       0.00190
  29     18.79        0.0000        0.0001        0.0001        0.0002       0.000182       0.00064
  28     23.16        0.0000        0.0000        0.0000        0.0001       0.000071       0.00022
  27     28.12        0.0000        0.0000        0.0000        0.0000       0.000028       0.00007
  26     33.73        0.0000        0.0000        0.0000        0.0000       0.000011       0.00002
  25     40.54        0.0000        0.0000        0.0000        0.0000       0.000005       0.00001
  24     48.69        0.0000        0.0000        0.0000        0.0000       0.000002       0.00000
  23     57.69        0.0000        0.0000        0.0000        0.0000       0.000001       0.00000
  22     68.43        0.0000        0.0000        0.0000        0.0000       0.000000       0.00000
  21     81.20        0.0000        0.0000        0.0000        0.0000       0.000000       0.00000
  20     96.49        0.0000        0.0000        0.0000        0.0000       0.000000       0.00000
  19     114.6        0.0000        0.0000        0.0000        0.0000       0.000000       0.00000
  18     136.5        0.0000        0.0000        0.0000        0.0000       0.000000       0.00000
  17     162.9        0.0000        0.0000        0.0000        0.0000       0.000000       0.00000
  16     196.4        0.0000        0.0000        0.0000        0.0000       0.000000       0.00000
  15     218.7        0.0000        0.0000        0.0000        0.0000       0.000000       0.00000
  14     243.0        0.0000        0.0000        0.0000        0.0000       0.000000       0.00000
  13     269.0        0.0000        0.0000        0.0000        0.0000       0.000000       0.00000
  12     297.5        0.0000        0.0000        0.0000        0.0000       0.000000       0.00000
  11     328.5        0.0000        0.0000        0.0000        0.0000       0.000000       0.00000
  10     361.9        0.0000        0.0000        0.0000        0.0000       0.000000       0.00000
   9     398.1        0.0000        0.0000        0.0000        0.0000       0.000000       0.00000
   8     437.6        0.0000        0.0000        0.0000        0.0000       0.000000       0.00000
   7     480.5        0.0000        0.0000        0.0000        0.0000       0.000000       0.00000
   6     533.0        0.0000        0.0000        0.0000        0.0000       0.000000       0.00000
   5     589.8        0.0000        0.0000        0.0000        0.0000       0.000000       0.00000
   4     651.6        0.0000        0.0000        0.0000        0.0000       0.000000       0.00000
   3     718.7        0.0000        0.0000        0.0000        0.0000       0.000000       0.00000
   2     792.3        0.0000        0.0000        0.0000        0.0000       0.000000       0.00000
   1     891.5        0.0000        0.0000        0.0000        0.0000       0.000000       0.00000
   0    1013.0        0.0000        0.0000        0.0000        0.0000       0.000000       0.00000



 Wavenumbers:   820. -  2600. cm-1, ATM      1
 LEVEL PRESSURE   UPWARD FLUX   DIFDOWN FLUX  DIRDOWN FLUX  DOWNWARD FLUX   NET FLUX    HEATING RATE
          mb          W/m2          W/m2          W/m2        W/m2          W/m2       degree/day
  51    .06700        0.2999        0.0000        3.8670        3.8670       3.567148       0.00000
  50    .07753        0.2999        0.0000        3.8643        3.8643       3.564431       2.17770
  49    .09103        0.2999        0.0000        3.8635        3.8635       3.563620       0.50638
  48    0.1069        0.2999        0.0000        3.8626        3.8626       3.562730       0.47415
  47    0.1255        0.2999        0.0000        3.8616        3.8616       3.561769       0.43559
  46    0.1487        0.2999        0.0000        3.8605        3.8605       3.560660       0.40437
  45    0.1794        0.2999        0.0000        3.8592        3.8592       3.559325       0.36648
  44    0.2165        0.2999        0.0000        3.8578        3.8578       3.557947       0.31346
  43    0.2613        0.2999        0.0000        3.8564        3.8564       3.556487       0.27522
  42    0.3336        0.2999        0.0000        3.8541        3.8541       3.554255       0.26013
  41    0.4307        0.2999        0.0000        3.8512        3.8512       3.551373       0.25063
  40    0.5894        0.2999        0.0000        3.8465        3.8465       3.546647       0.25134
  39     1.339        0.2999        0.0000        3.8251        3.8251       3.525271       0.24065
  38     1.782        0.2999        0.0000        3.8133        3.8133       3.513458       0.22490
  37     2.292        0.2999        0.0000        3.8003        3.8003       3.500397       0.21633
  36     2.964        0.2999        0.0000        3.7841        3.7841       3.484268       0.20247
  35     3.853        0.2999        0.0000        3.7642        3.7642       3.464354       0.18899
  34     5.035        0.2999        0.0000        3.7395        3.7395       3.439662       0.17638
  33     6.613        0.2999        0.0000        3.7090        3.7090       3.409126       0.16325
  32     8.786        0.2999        0.0000        3.6726        3.6726       3.372733       0.14134
  31     11.80        0.2999        0.0000        3.6320        3.6320       3.332138       0.11365
  30     15.07        0.2999        0.0000        3.6016        3.6016       3.301753       0.07845
  29     18.79        0.2999        0.0000        3.5777        3.5777       3.277855       0.05419
  28     23.16        0.2999        0.0000        3.5564        3.5564       3.256500       0.04129
  27     28.12        0.2999        0.0000        3.5348        3.5348       3.234953       0.03663
  26     33.73        0.2999        0.0000        3.5118        3.5118       3.211919       0.03463
  25     40.54        0.2999        0.0000        3.4849        3.4849       3.185029       0.03336
  24     48.69        0.2999        0.0000        3.4537        3.4537       3.153775       0.03234
  23     57.69        0.2999        0.0000        3.4210        3.4210       3.121100       0.03063
  22     68.43        0.2999        0.0000        3.3844        3.3844       3.084511       0.02876
  21     81.20        0.2999        0.0000        3.3441        3.3441       3.044208       0.02663
  20     96.49        0.3000        0.0000        3.2998        3.2998       2.999838       0.02449
  19     114.6        0.3000        0.0000        3.2506        3.2506       2.950683       0.02295
  18     136.5        0.3000        0.0000        3.1936        3.1936       2.893623       0.02194
  17     162.9        0.3000        0.0000        3.1181        3.1181       2.818100       0.02414
  16     196.4        0.3001        0.0000        3.0090        3.0090       2.708873       0.02749
  15     218.7        0.3002        0.0000        2.9420        2.9420       2.641839       0.02545
  14     243.0        0.3003        0.0000        2.8605        2.8605       2.560232       0.02830
  13     269.0        0.3004        0.0000        2.7419        2.7420       2.441571       0.03849
  12     297.5        0.3007        0.0000        2.5729        2.5729       2.272230       0.05022
  11     328.5        0.3011        0.0000        2.3602        2.3602       2.059118       0.05794
  10     361.9        0.3017        0.0000        2.1524        2.1524       1.850691       0.05273
   9     398.1        0.3027        0.0000        1.9974        1.9974       1.694722       0.03634
   8     437.6        0.3041        0.0000        1.8835        1.8835       1.579443       0.02465
   7     480.5        0.3061        0.0000        1.7734        1.7734       1.467354       0.02201
   6     533.0        0.3095        0.0000        1.6397        1.6398       1.330301       0.02205
   5     589.8        0.3143        0.0000        1.5068        1.5069       1.192515       0.02045
   4     651.6        0.3216        0.0000        1.3807        1.3807       1.059105       0.01824
   3     718.7        0.3313        0.0000        1.2680        1.2680       0.936760       0.01538
   2     792.3        0.3432        0.0000        1.1659        1.1660       0.822805       0.01307
   1     891.5        0.3632        0.0000        1.0372        1.0373       0.674103       0.01265
   0    1013.0        0.3995        0.0000        0.8716        0.8717       0.472186       0.01402

  Modules and versions used in this calculation:

       rrtmg_sw.1col.f90:  $Revision$                    rrtmg_sw_init.f90:  $Revision$        
     rrtmgsw_cldprop.f90:  $Revision$                  rrtmgsw_cldprmc.f90:  NOT USED          
     rrtmg_sw_reftra.f90:  $Revision$                  rrtmg_sw_spcvrt.f90:  NOT USED          
     rrtmg_sw_spcvmc.f90:  NOT USED                    rrtmgsw_setcoef.f90:  NOT USED          
     rrtmg_sw_taumol.f90:  $Revision$                  rrtmg_sw_vrtqdr.f90:  NOT USED          
                rrtatm.f:  NOT USED                             util_xxx.f:  NOT USED          
                 extra.f:  NOT USED                       rrtmg_sw_k_g.f90:  $Revision$        

