

 Wavenumbers:   820. - 50000. cm-1, ATM      1
 LEVEL PRESSURE   UPWARD FLUX   DIFDOWN FLUX  DIRDOWN FLUX  DOWNWARD FLUX   NET FLUX    HEATING RATE
          mb          W/m2          W/m2          W/m2        W/m2          W/m2       degree/day
  51    .06700      172.8089        0.0000      397.8738      397.8738     225.064891       0.00000
  50    .07753      172.8083        0.0011      397.8577      397.8589     225.050609      11.44666
  49    .09103      172.8075        0.0026      397.8418      397.8444     225.036935       8.54687
  48    0.1069      172.8066        0.0042      397.8230      397.8272     225.020606       8.69223
  47    0.1255      172.8056        0.0061      397.7997      397.8058     225.000187       9.25666
  46    0.1487      172.8044        0.0085      397.7676      397.7761     224.971765      10.36010
  45    0.1794      172.8028        0.0118      397.7205      397.7323     224.929529      11.59503
  44    0.2165      172.8009        0.0156      397.6602      397.6759     224.874955      12.41463
  43    0.2613      172.7988        0.0201      397.5829      397.6030     224.804258      13.32604
  42    0.3336      172.7955        0.0276      397.4449      397.4725     224.677009      14.83600
  41    0.4307      172.7913        0.0373      397.2524      397.2897     224.498424      15.52750
  40    0.5894      172.7851        0.0530      396.9253      396.9783     224.193248      16.22890
  39     1.339      172.7660        0.1231      395.4254      395.5485     222.782460      15.88291
  38     1.782      172.7616        0.1624      394.7288      394.8911     222.129544      12.43046
  37     2.292      172.7624        0.2070      394.0572      394.2642     221.501771      10.39757
  36     2.964      172.7722        0.2649      393.3007      393.5656     220.793416       8.89199
  35     3.853      172.7973        0.3407      392.4318      392.7725     219.975133       7.76565
  34     5.035      172.8427        0.4403      391.4441      391.8843     219.041601       6.66877
  33     6.613      172.9101        0.5722      390.3268      390.8990     217.988837       5.62808
  32     8.786      172.9963        0.7486      389.0624      389.8110     216.814689       4.55997
  31     11.80      173.0996        0.9989      387.5500      388.5489     215.449229       3.82286
  30     15.07      173.1872        1.2654      386.1556      387.4210     214.233783       3.13804
  29     18.79      173.2652        1.5639      384.7502      386.3141     213.048885       2.68653
  28     23.16      173.3324        1.9098      383.2686      385.1784     211.845999       2.32599
  27     28.12      173.3811        2.3019      381.7329      384.0348     210.653683       2.02686
  26     33.73      173.3944        2.7375      380.1982      382.9356     209.541218       1.67262
  25     40.54      173.3627        3.2596      378.5384      381.7980     208.435331       1.37198
  24     48.69      173.2788        3.8834      376.7214      380.6049     207.326022       1.14796
  23     57.69      173.1431        4.5619      374.8959      379.4578     206.314737       0.94793
  22     68.43      172.9346        5.3615      372.8999      378.2614     205.326779       0.77667
  21     81.20      172.6218        6.3036      370.7496      377.0532     204.431413       0.59164
  20     96.49      172.1910        7.4113      368.4056      375.8169     203.625899       0.44459
  19     114.6      171.6619        8.7044      365.7513      374.4557     202.793841       0.38851
  18     136.5      171.0239       10.2052      362.7231      372.9283     201.904466       0.34199
  17     162.9      170.2600       11.9484      359.1748      371.1232     200.863178       0.33284
  16     196.4      169.2496       14.1441      354.5718      368.7159     199.466276       0.35162
  15     218.7      168.5847       15.5470      351.4437      366.9907     198.406050       0.40253
  14     243.0      167.8675       17.0381      347.7111      364.7492     196.881703       0.52869
  13     269.0      167.0982       18.6152      342.9441      361.5594     194.461168       0.78521
  12     297.5      166.2775       20.2760      337.4137      357.6897     191.412176       0.90430
  11     328.5      165.4085       22.0216      331.1302      353.1518     187.743278       0.99756
  10     361.9      164.4947       23.8463      324.1219      347.9682     183.473507       1.08029
   9     398.1      163.5376       25.7492      316.6066      342.3558     178.818140       1.08460
   8     437.6      162.5433       27.7252      308.5895      336.3147     173.771409       1.07902
   7     480.5      161.5215       29.7682      299.9349      329.7031     168.181635       1.09781
   6     533.0      160.3293       32.1833      289.7021      321.8854     161.556074       1.06584
   5     589.8      159.1292       34.6700      279.3388      314.0088     154.879574       0.99101
   4     651.6      157.9480       37.2158      268.7786      305.9944     148.046326       0.93447
   3     718.7      156.8010       39.8108      258.2837      298.0945     141.293453       0.84865
   2     792.3      155.7061       42.4405      248.0774      290.5179     134.811760       0.74338
   1     891.5      154.4788       45.7615      235.5216      281.2831     126.804330       0.68139
   0    1013.0      153.5401       49.4249      221.4731      270.8980     117.357912       0.65591



 Wavenumbers:  2600. -  3250. cm-1, ATM      1
 LEVEL PRESSURE   UPWARD FLUX   DIFDOWN FLUX  DIRDOWN FLUX  DOWNWARD FLUX   NET FLUX    HEATING RATE
          mb          W/m2          W/m2          W/m2        W/m2          W/m2       degree/day
  51    .06700        0.2785        0.0000        3.5066        3.5066       3.228118       0.00000
  50    .07753        0.2785        0.0000        3.5066        3.5066       3.228110       0.00640
  49    .09103        0.2785        0.0000        3.5066        3.5066       3.228100       0.00627
  48    0.1069        0.2785        0.0000        3.5066        3.5066       3.228089       0.00613
  47    0.1255        0.2785        0.0000        3.5066        3.5066       3.228076       0.00599
  46    0.1487        0.2785        0.0000        3.5066        3.5066       3.228059       0.00607
  45    0.1794        0.2785        0.0000        3.5065        3.5065       3.228036       0.00624
  44    0.2165        0.2785        0.0000        3.5065        3.5065       3.228009       0.00611
  43    0.2613        0.2785        0.0000        3.5065        3.5065       3.227978       0.00598
  42    0.3336        0.2785        0.0000        3.5064        3.5064       3.227925       0.00615
  41    0.4307        0.2785        0.0000        3.5064        3.5064       3.227854       0.00618
  40    0.5894        0.2785        0.0000        3.5062        3.5062       3.227735       0.00633
  39     1.339        0.2785        0.0000        3.5055        3.5055       3.227036       0.00787
  38     1.782        0.2785        0.0000        3.5050        3.5050       3.226505       0.01011
  37     2.292        0.2785        0.0000        3.5043        3.5043       3.225813       0.01147
  36     2.964        0.2785        0.0000        3.5033        3.5033       3.224821       0.01245
  35     3.853        0.2785        0.0000        3.5019        3.5019       3.223444       0.01307
  34     5.035        0.2785        0.0000        3.5001        3.5001       3.221583       0.01329
  33     6.613        0.2785        0.0000        3.4977        3.4977       3.219174       0.01288
  32     8.786        0.2785        0.0000        3.4947        3.4947       3.216203       0.01154
  31     11.80        0.2785        0.0000        3.4911        3.4911       3.212568       0.01018
  30     15.07        0.2785        0.0000        3.4878        3.4878       3.209347       0.00832
  29     18.79        0.2785        0.0000        3.4848        3.4848       3.206283       0.00695
  28     23.16        0.2785        0.0000        3.4816        3.4816       3.203063       0.00623
  27     28.12        0.2785        0.0000        3.4779        3.4779       3.199445       0.00615
  26     33.73        0.2785        0.0000        3.4735        3.4735       3.194979       0.00672
  25     40.54        0.2785        0.0000        3.4671        3.4671       3.188653       0.00785
  24     48.69        0.2785        0.0000        3.4582        3.4583       3.179758       0.00920
  23     57.69        0.2785        0.0000        3.4472        3.4472       3.168711       0.01036
  22     68.43        0.2785        0.0000        3.4329        3.4329       3.154451       0.01121
  21     81.20        0.2785        0.0000        3.4152        3.4152       3.136722       0.01171
  20     96.49        0.2785        0.0000        3.3940        3.3941       3.115578       0.01167
  19     114.6        0.2785        0.0000        3.3692        3.3692       3.090688       0.01162
  18     136.5        0.2785        0.0001        3.3419        3.3420       3.063470       0.01047
  17     162.9        0.2785        0.0001        3.3129        3.3129       3.034394       0.00929
  16     196.4        0.2786        0.0001        3.2793        3.2794       3.000816       0.00845
  15     218.7        0.2786        0.0001        3.2578        3.2578       2.979194       0.00821
  14     243.0        0.2787        0.0001        3.2320        3.2320       2.953312       0.00898
  13     269.0        0.2789        0.0001        3.1968        3.1969       2.918046       0.01144
  12     297.5        0.2791        0.0001        3.1489        3.1490       2.869938       0.01427
  11     328.5        0.2795        0.0001        3.0821        3.0822       2.802716       0.01828
  10     361.9        0.2800        0.0001        2.9902        2.9904       2.710395       0.02336
   9     398.1        0.2807        0.0001        2.8715        2.8716       2.590936       0.02783
   8     437.6        0.2817        0.0001        2.7276        2.7278       2.446087       0.03097
   7     480.5        0.2832        0.0001        2.5595        2.5597       2.276464       0.03331
   6     533.0        0.2857        0.0002        2.3617        2.3619       2.076213       0.03221
   5     589.8        0.2892        0.0002        2.1649        2.1651       1.875839       0.02974
   4     651.6        0.2944        0.0002        1.9608        1.9609       1.666549       0.02862
   3     718.7        0.3014        0.0002        1.7593        1.7595       1.458121       0.02619
   2     792.3        0.3105        0.0002        1.5761        1.5762       1.265731       0.02206
   1     891.5        0.3262        0.0002        1.3714        1.3716       1.045423       0.01875
   0    1013.0        0.3545        0.0002        1.1584        1.1586       0.804055       0.01676



 Wavenumbers:  3250. -  4000. cm-1, ATM      1
 LEVEL PRESSURE   UPWARD FLUX   DIFDOWN FLUX  DIRDOWN FLUX  DOWNWARD FLUX   NET FLUX    HEATING RATE
          mb          W/m2          W/m2          W/m2        W/m2          W/m2       degree/day
  51    .06700        0.0004        0.0000        5.9117        5.9117       5.911236       0.00000
  50    .07753        0.0004        0.0000        5.9075        5.9075       5.907046       3.35808
  49    .09103        0.0004        0.0000        5.9050        5.9050       5.904604       1.52677
  48    0.1069        0.0004        0.0000        5.9032        5.9032       5.902737       0.99346
  47    0.1255        0.0004        0.0000        5.9014        5.9014       5.900979       0.79708
  46    0.1487        0.0004        0.0000        5.8995        5.8995       5.899090       0.68848
  45    0.1794        0.0004        0.0000        5.8974        5.8974       5.896942       0.58983
  44    0.2165        0.0004        0.0000        5.8952        5.8952       5.894825       0.48155
  43    0.2613        0.0004        0.0000        5.8931        5.8931       5.892666       0.40696
  42    0.3336        0.0004        0.0000        5.8899        5.8899       5.889508       0.36820
  41    0.4307        0.0004        0.0000        5.8861        5.8861       5.885671       0.33365
  40    0.5894        0.0004        0.0000        5.8803        5.8803       5.879868       0.30857
  39     1.339        0.0004        0.0000        5.8597        5.8597       5.859271       0.23189
  38     1.782        0.0004        0.0000        5.8513        5.8513       5.850846       0.16039
  37     2.292        0.0004        0.0000        5.8431        5.8431       5.842675       0.13533
  36     2.964        0.0004        0.0000        5.8334        5.8334       5.833035       0.12100
  35     3.853        0.0004        0.0000        5.8213        5.8213       5.820860       0.11555
  34     5.035        0.0004        0.0000        5.8052        5.8052       5.804765       0.11498
  33     6.613        0.0004        0.0000        5.7833        5.7834       5.782943       0.11666
  32     8.786        0.0004        0.0000        5.7531        5.7531       5.752742       0.11729
  31     11.80        0.0004        0.0000        5.7090        5.7090       5.708573       0.12366
  30     15.07        0.0004        0.0000        5.6615        5.6615       5.661108       0.12254
  29     18.79        0.0004        0.0000        5.6093        5.6094       5.608973       0.11821
  28     23.16        0.0004        0.0000        5.5524        5.5524       5.552047       0.11008
  27     28.12        0.0004        0.0000        5.4935        5.4935       5.493168       0.10009
  26     33.73        0.0004        0.0000        5.4348        5.4349       5.434479       0.08824
  25     40.54        0.0004        0.0001        5.3707        5.3708       5.370418       0.07948
  24     48.69        0.0004        0.0001        5.2985        5.2985       5.298185       0.07475
  23     57.69        0.0003        0.0001        5.2215        5.2216       5.221246       0.07212
  22     68.43        0.0003        0.0001        5.1318        5.1319       5.131586       0.07048
  21     81.20        0.0003        0.0001        5.0284        5.0285       5.028156       0.06834
  20     96.49        0.0003        0.0001        4.9122        4.9123       4.912022       0.06410
  19     114.6        0.0003        0.0001        4.7780        4.7782       4.777911       0.06262
  18     136.5        0.0002        0.0002        4.6285        4.6287       4.628433       0.05748
  17     162.9        0.0002        0.0002        4.4406        4.4407       4.440520       0.06006
  16     196.4        0.0002        0.0002        4.1548        4.1550       4.154847       0.07191
  15     218.7        0.0002        0.0002        3.9564        3.9566       3.956466       0.07532
  14     243.0        0.0001        0.0002        3.7055        3.7058       3.705632       0.08700
  13     269.0        0.0001        0.0002        3.3399        3.3401       3.339993       0.11861
  12     297.5        0.0001        0.0002        2.8954        2.8956       2.895503       0.13183
  11     328.5        0.0001        0.0002        2.4388        2.4390       2.438962       0.12413
  10     361.9        0.0001        0.0002        2.0269        2.0271       2.027024       0.10422
   9     398.1        0.0001        0.0002        1.6753        1.6755       1.675436       0.08191
   8     437.6        0.0000        0.0002        1.3592        1.3594       1.359318       0.06759
   7     480.5        0.0000        0.0002        1.0616        1.0618       1.061735       0.05844
   6     533.0        0.0000        0.0001        0.7543        0.7544       0.754402       0.04944
   5     589.8        0.0000        0.0001        0.4951        0.4952       0.495210       0.03847
   4     651.6        0.0000        0.0001        0.2943        0.2943       0.294316       0.02747
   3     718.7        0.0000        0.0001        0.1528        0.1529       0.152825       0.01778
   2     792.3        0.0000        0.0000        0.0658        0.0658       0.065800       0.00998
   1     891.5        0.0001        0.0000        0.0157        0.0157       0.015570       0.00427
   0    1013.0        0.0004        0.0000        0.0013        0.0013       0.000933       0.00102



 Wavenumbers:  4000. -  4650. cm-1, ATM      1
 LEVEL PRESSURE   UPWARD FLUX   DIFDOWN FLUX  DIRDOWN FLUX  DOWNWARD FLUX   NET FLUX    HEATING RATE
          mb          W/m2          W/m2          W/m2        W/m2          W/m2       degree/day
  51    .06700        1.1954        0.0000        6.9421        6.9421       5.746688       0.00000
  50    .07753        1.1954        0.0000        6.9421        6.9421       5.746687       0.00079
  49    .09103        1.1954        0.0000        6.9421        6.9421       5.746685       0.00078
  48    0.1069        1.1954        0.0000        6.9421        6.9421       5.746684       0.00076
  47    0.1255        1.1954        0.0000        6.9421        6.9421       5.746682       0.00074
  46    0.1487        1.1954        0.0000        6.9421        6.9421       5.746680       0.00075
  45    0.1794        1.1954        0.0000        6.9421        6.9421       5.746677       0.00077
  44    0.2165        1.1954        0.0000        6.9421        6.9421       5.746674       0.00076
  43    0.2613        1.1954        0.0000        6.9420        6.9420       5.746670       0.00074
  42    0.3336        1.1954        0.0000        6.9420        6.9420       5.746664       0.00076
  41    0.4307        1.1954        0.0000        6.9420        6.9420       5.746655       0.00077
  40    0.5894        1.1954        0.0000        6.9420        6.9420       5.746640       0.00079
  39     1.339        1.1954        0.0000        6.9419        6.9419       5.746551       0.00100
  38     1.782        1.1954        0.0000        6.9418        6.9419       5.746482       0.00132
  37     2.292        1.1954        0.0000        6.9418        6.9418       5.746388       0.00155
  36     2.964        1.1954        0.0000        6.9416        6.9416       5.746249       0.00175
  35     3.853        1.1954        0.0000        6.9414        6.9414       5.746042       0.00196
  34     5.035        1.1954        0.0000        6.9411        6.9411       5.745738       0.00218
  33     6.613        1.1954        0.0000        6.9406        6.9406       5.745290       0.00239
  32     8.786        1.1954        0.0000        6.9399        6.9400       5.744630       0.00256
  31     11.80        1.1953        0.0000        6.9389        6.9389       5.743596       0.00290
  30     15.07        1.1953        0.0001        6.9377        6.9377       5.742386       0.00312
  29     18.79        1.1953        0.0001        6.9362        6.9362       5.740928       0.00331
  28     23.16        1.1953        0.0001        6.9343        6.9344       5.739126       0.00349
  27     28.12        1.1953        0.0001        6.9321        6.9322       5.736953       0.00369
  26     33.73        1.1953        0.0001        6.9294        6.9296       5.734288       0.00401
  25     40.54        1.1953        0.0002        6.9258        6.9260       5.730696       0.00446
  24     48.69        1.1952        0.0002        6.9210        6.9212       5.725941       0.00492
  23     57.69        1.1952        0.0002        6.9154        6.9156       5.720348       0.00524
  22     68.43        1.1952        0.0003        6.9083        6.9086       5.713397       0.00546
  21     81.20        1.1952        0.0003        6.8998        6.9001       5.704900       0.00561
  20     96.49        1.1952        0.0004        6.8894        6.8898       5.694641       0.00566
  19     114.6        1.1952        0.0004        6.8765        6.8770       5.681805       0.00599
  18     136.5        1.1952        0.0005        6.8610        6.8615       5.666327       0.00595
  17     162.9        1.1952        0.0006        6.8417        6.8423       5.647086       0.00615
  16     196.4        1.1953        0.0007        6.8147        6.8154       5.620114       0.00679
  15     218.7        1.1954        0.0008        6.7948        6.7957       5.600262       0.00754
  14     243.0        1.1956        0.0009        6.7698        6.7707       5.575097       0.00873
  13     269.0        1.1959        0.0010        6.7349        6.7358       5.539920       0.01141
  12     297.5        1.1965        0.0011        6.6869        6.6879       5.491474       0.01437
  11     328.5        1.1973        0.0012        6.6194        6.6206       5.423288       0.01854
  10     361.9        1.1984        0.0013        6.5295        6.5308       5.332412       0.02299
   9     398.1        1.1998        0.0014        6.4202        6.4216       5.221855       0.02576
   8     437.6        1.2017        0.0015        6.2962        6.2977       5.096049       0.02690
   7     480.5        1.2042        0.0017        6.1555        6.1572       4.952932       0.02811
   6     533.0        1.2083        0.0018        5.9675        5.9693       4.761005       0.03087
   5     589.8        1.2143        0.0019        5.7368        5.7387       4.524435       0.03511
   4     651.6        1.2228        0.0021        5.4662        5.4683       4.245456       0.03815
   3     718.7        1.2346        0.0022        5.1912        5.1934       3.958815       0.03602
   2     792.3        1.2497        0.0023        4.9395        4.9418       3.692113       0.03059
   1     891.5        1.2756        0.0025        4.6486        4.6511       3.375543       0.02694
   0    1013.0        1.3219        0.0026        4.3179        4.3205       2.998593       0.02617



 Wavenumbers:  4650. -  5150. cm-1, ATM      1
 LEVEL PRESSURE   UPWARD FLUX   DIFDOWN FLUX  DIRDOWN FLUX  DOWNWARD FLUX   NET FLUX    HEATING RATE
          mb          W/m2          W/m2          W/m2        W/m2          W/m2       degree/day
  51    .06700        0.8076        0.0000        6.5710        6.5710       5.763347       0.00000
  50    .07753        0.8076        0.0000        6.5708        6.5708       5.763112       0.18887
  49    .09103        0.8076        0.0000        6.5705        6.5705       5.762818       0.18362
  48    0.1069        0.8076        0.0000        6.5701        6.5701       5.762483       0.17806
  47    0.1255        0.8076        0.0000        6.5697        6.5697       5.762103       0.17238
  46    0.1487        0.8076        0.0000        6.5693        6.5693       5.761629       0.17268
  45    0.1794        0.8076        0.0000        6.5686        6.5686       5.760993       0.17473
  44    0.2165        0.8076        0.0000        6.5679        6.5679       5.760255       0.16788
  43    0.2613        0.8076        0.0000        6.5670        6.5670       5.759402       0.16078
  42    0.3336        0.8076        0.0000        6.5657        6.5657       5.758039       0.15894
  41    0.4307        0.8076        0.0000        6.5640        6.5640       5.756317       0.14971
  40    0.5894        0.8076        0.0000        6.5613        6.5613       5.753701       0.13913
  39     1.339        0.8076        0.0000        6.5516        6.5516       5.743923       0.11008
  38     1.782        0.8076        0.0000        6.5473        6.5473       5.739707       0.08026
  37     2.292        0.8076        0.0000        6.5434        6.5435       5.735820       0.06438
  36     2.964        0.8076        0.0000        6.5395        6.5395       5.731866       0.04964
  35     3.853        0.8076        0.0000        6.5355        6.5356       5.727923       0.03742
  34     5.035        0.8076        0.0000        6.5315        6.5315       5.723921       0.02859
  33     6.613        0.8076        0.0000        6.5271        6.5271       5.719527       0.02349
  32     8.786        0.8076        0.0001        6.5216        6.5216       5.714033       0.02134
  31     11.80        0.8076        0.0001        6.5135        6.5135       5.705954       0.02262
  30     15.07        0.8076        0.0001        6.5041        6.5042       5.696586       0.02419
  29     18.79        0.8076        0.0001        6.4925        6.4926       5.685072       0.02611
  28     23.16        0.8075        0.0001        6.4779        6.4780       5.670481       0.02821
  27     28.12        0.8075        0.0002        6.4599        6.4600       5.652508       0.03055
  26     33.73        0.8075        0.0002        6.4384        6.4386       5.631079       0.03222
  25     40.54        0.8075        0.0002        6.4112        6.4115       5.603958       0.03365
  24     48.69        0.8075        0.0003        6.3775        6.3778       5.570326       0.03480
  23     57.69        0.8075        0.0003        6.3404        6.3407       5.533243       0.03476
  22     68.43        0.8074        0.0004        6.2971        6.2975       5.490064       0.03394
  21     81.20        0.8074        0.0005        6.2483        6.2487       5.441265       0.03225
  20     96.49        0.8074        0.0005        6.1948        6.1954       5.387917       0.02944
  19     114.6        0.8075        0.0006        6.1381        6.1388       5.331314       0.02643
  18     136.5        0.8075        0.0007        6.0790        6.0797       5.272248       0.02271
  17     162.9        0.8076        0.0009        6.0160        6.0169       5.209348       0.02011
  16     196.4        0.8077        0.0010        5.9399        5.9409       5.133194       0.01917
  15     218.7        0.8079        0.0012        5.8896        5.8908       5.082926       0.01909
  14     243.0        0.8081        0.0013        5.8322        5.8335       5.025380       0.01996
  13     269.0        0.8084        0.0014        5.7624        5.7638       4.955373       0.02271
  12     297.5        0.8090        0.0015        5.6767        5.6783       4.869295       0.02553
  11     328.5        0.8097        0.0017        5.5726        5.5743       4.764521       0.02849
  10     361.9        0.8108        0.0018        5.4473        5.4491       4.638316       0.03193
   9     398.1        0.8123        0.0019        5.2995        5.3014       4.489135       0.03476
   8     437.6        0.8143        0.0021        5.1275        5.1295       4.315248       0.03718
   7     480.5        0.8171        0.0022        4.9290        4.9312       4.114130       0.03950
   6     533.0        0.8214        0.0024        4.6794        4.6817       3.860313       0.04083
   5     589.8        0.8275        0.0025        4.4188        4.4213       3.593758       0.03957
   4     651.6        0.8361        0.0026        4.1521        4.1547       3.318636       0.03762
   3     718.7        0.8475        0.0027        3.8929        3.8957       3.048203       0.03399
   2     792.3        0.8623        0.0029        3.6469        3.6497       2.787483       0.02990
   1     891.5        0.8874        0.0030        3.3535        3.3565       2.469066       0.02710
   0    1013.0        0.9305        0.0032        3.0383        3.0415       2.110974       0.02486



 Wavenumbers:  5150. -  6150. cm-1, ATM      1
 LEVEL PRESSURE   UPWARD FLUX   DIFDOWN FLUX  DIRDOWN FLUX  DOWNWARD FLUX   NET FLUX    HEATING RATE
          mb          W/m2          W/m2          W/m2        W/m2          W/m2       degree/day
  51    .06700        2.1827        0.0000       16.4735       16.4735      14.290792       0.00000
  50    .07753        2.1827        0.0000       16.4735       16.4735      14.290757       0.02761
  49    .09103        2.1827        0.0000       16.4734       16.4734      14.290712       0.02811
  48    0.1069        2.1827        0.0000       16.4734       16.4734      14.290659       0.02859
  47    0.1255        2.1827        0.0000       16.4733       16.4733      14.290595       0.02904
  46    0.1487        2.1827        0.0000       16.4732       16.4732      14.290511       0.03060
  45    0.1794        2.1827        0.0000       16.4731       16.4731      14.290392       0.03269
  44    0.2165        2.1827        0.0000       16.4730       16.4730      14.290245       0.03331
  43    0.2613        2.1827        0.0000       16.4728       16.4728      14.290066       0.03376
  42    0.3336        2.1827        0.0000       16.4725       16.4725      14.289760       0.03564
  41    0.4307        2.1827        0.0000       16.4720       16.4720      14.289341       0.03646
  40    0.5894        2.1827        0.0000       16.4713       16.4713      14.288640       0.03729
  39     1.339        2.1827        0.0000       16.4679       16.4679      14.285231       0.03838
  38     1.782        2.1827        0.0000       16.4659       16.4659      14.283231       0.03807
  37     2.292        2.1827        0.0001       16.4635       16.4636      14.280940       0.03796
  36     2.964        2.1827        0.0001       16.4605       16.4606      14.277970       0.03728
  35     3.853        2.1826        0.0001       16.4567       16.4568      14.274116       0.03657
  34     5.035        2.1826        0.0001       16.4516       16.4517      14.269118       0.03570
  33     6.613        2.1826        0.0002       16.4451       16.4452      14.262656       0.03455
  32     8.786        2.1825        0.0002       16.4367       16.4369      14.254342       0.03229
  31     11.80        2.1825        0.0003       16.4254       16.4257      14.243188       0.03123
  30     15.07        2.1824        0.0004       16.4141       16.4145      14.232098       0.02863
  29     18.79        2.1824        0.0005       16.4024       16.4029      14.220573       0.02613
  28     23.16        2.1823        0.0006       16.3900       16.3906      14.208306       0.02372
  27     28.12        2.1822        0.0007       16.3771       16.3778      14.195636       0.02154
  26     33.73        2.1821        0.0009       16.3641       16.3650      14.182901       0.01915
  25     40.54        2.1820        0.0011       16.3502       16.3512      14.169250       0.01694
  24     48.69        2.1819        0.0013       16.3354       16.3366      14.154762       0.01499
  23     57.69        2.1817        0.0015       16.3211       16.3226      14.140846       0.01304
  22     68.43        2.1816        0.0018       16.3062       16.3080      14.126437       0.01133
  21     81.20        2.1814        0.0021       16.2903       16.2924      14.111019       0.01019
  20     96.49        2.1812        0.0025       16.2726       16.2751      14.093915       0.00944
  19     114.6        2.1810        0.0030       16.2521       16.2551      14.074064       0.00927
  18     136.5        2.1807        0.0035       16.2245       16.2281      14.047357       0.01027
  17     162.9        2.1804        0.0042       16.1747       16.1789      13.998515       0.01561
  16     196.4        2.1800        0.0050       16.0518       16.0569      13.876833       0.03063
  15     218.7        2.1798        0.0056       15.8984       15.9039      13.724130       0.05798
  14     243.0        2.1796        0.0061       15.6153       15.6214      13.441763       0.09793
  13     269.0        2.1794        0.0066       15.1390       15.1456      12.966173       0.15428
  12     297.5        2.1793        0.0071       14.5779       14.5850      12.405650       0.16625
  11     328.5        2.1794        0.0076       13.8780       13.8856      11.706194       0.19018
  10     361.9        2.1796        0.0079       13.0814       13.0894      10.909789       0.20150
   9     398.1        2.1801        0.0083       12.2728       12.2811      10.101072       0.18841
   8     437.6        2.1809        0.0086       11.4776       11.4862       9.305272       0.17015
   7     480.5        2.1823        0.0089       10.7300       10.7388       8.556536       0.14705
   6     533.0        2.1849        0.0092       10.0326       10.0418       7.856906       0.11255
   5     589.8        2.1891        0.0097        9.5050        9.5147       7.325613       0.07886
   4     651.6        2.1956        0.0102        9.0814        9.0916       6.895989       0.05875
   3     718.7        2.2050        0.0108        8.7024        8.7133       6.508236       0.04873
   2     792.3        2.2179        0.0115        8.3379        8.3495       6.131556       0.04320
   1     891.5        2.2417        0.0124        7.9064        7.9188       5.677090       0.03867
   0    1013.0        2.2904        0.0134        7.4741        7.4875       5.197063       0.03333



 Wavenumbers:  6150. -  7700. cm-1, ATM      1
 LEVEL PRESSURE   UPWARD FLUX   DIFDOWN FLUX  DIRDOWN FLUX  DOWNWARD FLUX   NET FLUX    HEATING RATE
          mb          W/m2          W/m2          W/m2        W/m2          W/m2       degree/day
  51    .06700        3.2178        0.0000       30.4684       30.4684      27.250552       0.00000
  50    .07753        3.2178        0.0000       30.4683       30.4683      27.250501       0.04144
  49    .09103        3.2178        0.0000       30.4683       30.4683      27.250434       0.04174
  48    0.1069        3.2178        0.0000       30.4682       30.4682      27.250355       0.04202
  47    0.1255        3.2178        0.0000       30.4681       30.4681      27.250262       0.04227
  46    0.1487        3.2178        0.0000       30.4680       30.4680      27.250141       0.04411
  45    0.1794        3.2178        0.0000       30.4678       30.4678      27.249971       0.04669
  44    0.2165        3.2178        0.0000       30.4676       30.4676      27.249763       0.04715
  43    0.2613        3.2178        0.0000       30.4673       30.4673      27.249512       0.04744
  42    0.3336        3.2178        0.0000       30.4669       30.4669      27.249085       0.04974
  41    0.4307        3.2178        0.0000       30.4663       30.4663      27.248504       0.05052
  40    0.5894        3.2178        0.0001       30.4653       30.4653      27.247536       0.05146
  39     1.339        3.2177        0.0001       30.4604       30.4606      27.242853       0.05273
  38     1.782        3.2177        0.0002       30.4576       30.4578      27.240103       0.05235
  37     2.292        3.2176        0.0002       30.4543       30.4546      27.236944       0.05231
  36     2.964        3.2175        0.0003       30.4501       30.4504      27.232837       0.05156
  35     3.853        3.2175        0.0004       30.4445       30.4449      27.227480       0.05084
  34     5.035        3.2173        0.0005       30.4373       30.4378      27.220480       0.05000
  33     6.613        3.2172        0.0007       30.4278       30.4285      27.211333       0.04890
  32     8.786        3.2170        0.0010       30.4154       30.4163      27.199380       0.04642
  31     11.80        3.2167        0.0013       30.3984       30.3997      27.182995       0.04587
  30     15.07        3.2163        0.0016       30.3810       30.3826      27.166281       0.04315
  29     18.79        3.2160        0.0021       30.3623       30.3643      27.148381       0.04059
  28     23.16        3.2155        0.0025       30.3417       30.3442      27.128698       0.03806
  27     28.12        3.2150        0.0031       30.3196       30.3226      27.107598       0.03587
  26     33.73        3.2145        0.0037       30.2965       30.3002      27.085679       0.03296
  25     40.54        3.2138        0.0044       30.2708       30.2752      27.061342       0.03019
  24     48.69        3.2130        0.0053       30.2423       30.2476      27.034566       0.02771
  23     57.69        3.2121        0.0063       30.2139       30.2201      27.008000       0.02490
  22     68.43        3.2111        0.0074       30.1834       30.1908      26.979726       0.02223
  21     81.20        3.2098        0.0088       30.1500       30.1588      26.948997       0.02030
  20     96.49        3.2083        0.0105       30.1126       30.1231      26.914780       0.01889
  19     114.6        3.2065        0.0124       30.0695       30.0819      26.875396       0.01839
  18     136.5        3.2044        0.0148       30.0139       30.0287      26.824243       0.01967
  17     162.9        3.2019        0.0175       29.9225       29.9400      26.738067       0.02755
  16     196.4        3.1987        0.0210       29.7333       29.7544      26.555685       0.04591
  15     218.7        3.1966        0.0233       29.5259       29.5492      26.352560       0.07712
  14     243.0        3.1944        0.0257       29.1375       29.1631      25.968741       0.13312
  13     269.0        3.1922        0.0279       28.3800       28.4079      25.215777       0.24426
  12     297.5        3.1900        0.0300       27.3895       27.4196      24.229623       0.29248
  11     328.5        3.1879        0.0320       26.2257       26.2577      23.069808       0.31535
  10     361.9        3.1863        0.0339       24.8453       24.8792      21.692933       0.34836
   9     398.1        3.1851        0.0354       23.3471       23.3825      20.197353       0.34844
   8     437.6        3.1849        0.0367       21.7966       21.8334      18.648455       0.33116
   7     480.5        3.1863        0.0378       20.1977       20.2355      17.049180       0.31409
   6     533.0        3.1907        0.0388       18.4969       18.5357      15.344971       0.27415
   5     589.8        3.1996        0.0398       16.9754       17.0152      13.815521       0.22702
   4     651.6        3.2154        0.0408       15.6022       15.6429      12.427514       0.18981
   3     718.7        3.2397        0.0419       14.4232       14.4651      11.225420       0.15107
   2     792.3        3.2739        0.0433       13.4386       13.4819      10.208050       0.11668
   1     891.5        3.3378        0.0453       12.3736       12.4188       9.081034       0.09590
   0    1013.0        3.4669        0.0474       11.2911       11.3385       7.871558       0.08398



 Wavenumbers:  7700. -  8050. cm-1, ATM      1
 LEVEL PRESSURE   UPWARD FLUX   DIFDOWN FLUX  DIRDOWN FLUX  DOWNWARD FLUX   NET FLUX    HEATING RATE
          mb          W/m2          W/m2          W/m2        W/m2          W/m2       degree/day
  51    .06700        1.6694        0.0000        7.2006        7.2006       5.531193       0.00000
  50    .07753        1.6694        0.0000        7.2006        7.2006       5.531175       0.01506
  49    .09103        1.6694        0.0000        7.2005        7.2005       5.531151       0.01476
  48    0.1069        1.6694        0.0000        7.2005        7.2005       5.531124       0.01445
  47    0.1255        1.6694        0.0000        7.2005        7.2005       5.531093       0.01414
  46    0.1487        1.6694        0.0000        7.2004        7.2005       5.531053       0.01435
  45    0.1794        1.6694        0.0000        7.2004        7.2004       5.530999       0.01477
  44    0.2165        1.6694        0.0000        7.2003        7.2003       5.530936       0.01448
  43    0.2613        1.6694        0.0000        7.2003        7.2003       5.530860       0.01421
  42    0.3336        1.6694        0.0000        7.2001        7.2001       5.530736       0.01454
  41    0.4307        1.6694        0.0000        7.2000        7.2000       5.530570       0.01438
  40    0.5894        1.6694        0.0000        7.1997        7.1997       5.530300       0.01437
  39     1.339        1.6695        0.0001        7.1984        7.1985       5.529023       0.01438
  38     1.782        1.6695        0.0001        7.1977        7.1978       5.528272       0.01428
  37     2.292        1.6695        0.0001        7.1968        7.1969       5.527404       0.01438
  36     2.964        1.6696        0.0001        7.1957        7.1958       5.526265       0.01430
  35     3.853        1.6696        0.0002        7.1942        7.1944       5.524761       0.01428
  34     5.035        1.6697        0.0002        7.1922        7.1925       5.522764       0.01427
  33     6.613        1.6698        0.0003        7.1896        7.1899       5.520099       0.01425
  32     8.786        1.6699        0.0004        7.1860        7.1864       5.516513       0.01392
  31     11.80        1.6701        0.0005        7.1810        7.1815       5.511396       0.01433
  30     15.07        1.6703        0.0007        7.1755        7.1762       5.505917       0.01415
  29     18.79        1.6705        0.0008        7.1694        7.1703       5.499748       0.01399
  28     23.16        1.6708        0.0010        7.1623        7.1634       5.492570       0.01388
  27     28.12        1.6711        0.0013        7.1542        7.1555       5.484398       0.01389
  26     33.73        1.6714        0.0015        7.1452        7.1467       5.475301       0.01368
  25     40.54        1.6719        0.0018        7.1344        7.1362       5.464378       0.01355
  24     48.69        1.6724        0.0022        7.1215        7.1237       5.451306       0.01353
  23     57.69        1.6729        0.0025        7.1074        7.1100       5.437071       0.01334
  22     68.43        1.6736        0.0030        7.0909        7.0939       5.420283       0.01320
  21     81.20        1.6744        0.0036        7.0713        7.0749       5.400516       0.01306
  20     96.49        1.6754        0.0042        7.0484        7.0527       5.377284       0.01282
  19     114.6        1.6766        0.0050        7.0217        7.0267       5.350141       0.01267
  18     136.5        1.6780        0.0060        6.9906        6.9965       5.318564       0.01214
  17     162.9        1.6797        0.0071        6.9544        6.9615       5.281754       0.01177
  16     196.4        1.6820        0.0085        6.9087        6.9172       5.235235       0.01171
  15     218.7        1.6835        0.0094        6.8794        6.8888       5.205320       0.01136
  14     243.0        1.6852        0.0104        6.8481        6.8585       5.173319       0.01110
  13     269.0        1.6871        0.0115        6.8147        6.8262       5.139118       0.01109
  12     297.5        1.6892        0.0127        6.7791        6.7918       5.102537       0.01085
  11     328.5        1.6916        0.0139        6.7409        6.7549       5.063292       0.01067
  10     361.9        1.6943        0.0153        6.7002        6.7155       5.021161       0.01066
   9     398.1        1.6974        0.0167        6.6563        6.6730       4.975650       0.01060
   8     437.6        1.7009        0.0183        6.6089        6.6272       4.926246       0.01056
   7     480.5        1.7051        0.0200        6.5570        6.5769       4.871893       0.01067
   6     533.0        1.7107        0.0220        6.4915        6.5134       4.802749       0.01112
   5     589.8        1.7175        0.0241        6.4182        6.4424       4.724822       0.01157
   4     651.6        1.7259        0.0264        6.3359        6.3623       4.636397       0.01209
   3     718.7        1.7360        0.0288        6.2441        6.2730       4.536987       0.01249
   2     792.3        1.7479        0.0314        6.1437        6.1751       4.427177       0.01259
   1     891.5        1.7661        0.0348        6.0042        6.0389       4.272855       0.01313
   0    1013.0        1.7921        0.0386        5.8249        5.8635       4.071449       0.01398



 Wavenumbers:  8050. - 12850. cm-1, ATM      1
 LEVEL PRESSURE   UPWARD FLUX   DIFDOWN FLUX  DIRDOWN FLUX  DOWNWARD FLUX   NET FLUX    HEATING RATE
          mb          W/m2          W/m2          W/m2        W/m2          W/m2       degree/day
  51    .06700       21.7162        0.0000      100.8135      100.8135      79.097353       0.00000
  50    .07753       21.7161        0.0000      100.8135      100.8135      79.097353       0.00000
  49    .09103       21.7161        0.0001      100.8134      100.8135      79.097353       0.00000
  48    0.1069       21.7161        0.0001      100.8134      100.8134      79.097353       0.00000
  47    0.1255       21.7161        0.0001      100.8133      100.8134      79.097353       0.00000
  46    0.1487       21.7160        0.0002      100.8132      100.8134      79.097353      -0.00000
  45    0.1794       21.7160        0.0002      100.8131      100.8133      79.097353       0.00000
  44    0.2165       21.7159        0.0003      100.8129      100.8132      79.097353       0.00000
  43    0.2613       21.7158        0.0004      100.8127      100.8132      79.097353       0.00000
  42    0.3336       21.7157        0.0006      100.8125      100.8130      79.097353      -0.00000
  41    0.4307       21.7155        0.0008      100.8121      100.8129      79.097353       0.00000
  40    0.5894       21.7152        0.0011      100.8115      100.8126      79.097353      -0.00000
  39     1.339       21.7139        0.0028      100.8085      100.8113      79.097353      -0.00000
  38     1.782       21.7131        0.0037      100.8068      100.8105      79.097353       0.00000
  37     2.292       21.7122        0.0048      100.8047      100.8096      79.097353       0.00000
  36     2.964       21.7110        0.0063      100.8021      100.8084      79.097353      -0.00000
  35     3.853       21.7095        0.0082      100.7986      100.8068      79.097353      -0.00000
  34     5.035       21.7074        0.0108      100.7940      100.8047      79.097353       0.00000
  33     6.613       21.7046        0.0142      100.7878      100.8020      79.097353       0.00000
  32     8.786       21.7008        0.0188      100.7794      100.7982      79.097353       0.00000
  31     11.80       21.6955        0.0254      100.7674      100.7928      79.097353      -0.00000
  30     15.07       21.6897        0.0325      100.7546      100.7870      79.097353       0.00000
  29     18.79       21.6831        0.0405      100.7400      100.7805      79.097353      -0.00000
  28     23.16       21.6755        0.0499      100.7230      100.7729      79.097353      -0.00000
  27     28.12       21.6667        0.0606      100.7035      100.7641      79.097353       0.00000
  26     33.73       21.6569        0.0726      100.6817      100.7543      79.097353       0.00000
  25     40.54       21.6451        0.0872      100.6552      100.7424      79.097353       0.00000
  24     48.69       21.6307        0.1047      100.6234      100.7281      79.097353       0.00000
  23     57.69       21.6150        0.1240      100.5883      100.7123      79.097353       0.00000
  22     68.43       21.5962        0.1471      100.5464      100.6935      79.097353       0.00000
  21     81.20       21.5737        0.1746      100.4965      100.6711      79.097353      -0.00000
  20     96.49       21.5469        0.2073      100.4370      100.6443      79.097353      -0.00000
  19     114.6       21.5151        0.2463      100.3585      100.6048      79.089671       0.00359
  18     136.5       21.4774        0.2926      100.2634      100.5560      79.078613       0.00425
  17     162.9       21.4323        0.3478      100.1407      100.4885      79.056171       0.00717
  16     196.4       21.3738        0.4195       99.9505      100.3700      78.996192       0.01510
  15     218.7       21.3353        0.4665       99.7889      100.2555      78.920189       0.02886
  14     243.0       21.2935        0.5176       99.5472      100.0648      78.771292       0.05164
  13     269.0       21.2486        0.5727       99.1452       99.7179      78.469244       0.09798
  12     297.5       21.2009        0.6316       98.5975       99.2291      78.028259       0.13079
  11     328.5       21.1505        0.6948       97.8659       98.5606      77.410148       0.16806
  10     361.9       21.0982        0.7617       96.8848       97.6465      76.548283       0.21806
   9     398.1       21.0450        0.8323       95.6330       96.4653      75.420346       0.26278
   8     437.6       20.9924        0.9061       94.0655       94.9715      73.979116       0.30814
   7     480.5       20.9441        0.9820       92.0807       93.0628      72.118625       0.36539
   6     533.0       20.8981        1.0714       89.4449       90.5162      69.618162       0.40224
   5     589.8       20.8680        1.1633       86.5544       87.7177      66.849655       0.41094
   4     651.6       20.8645        1.2573       83.4174       84.6747      63.810188       0.41566
   3     718.7       20.8936        1.3540       80.2037       81.5577      60.664096       0.39538
   2     792.3       20.9610        1.4541       77.0811       78.5352      57.574161       0.35438
   1     891.5       21.1285        1.5829       73.2645       74.8474      53.718949       0.32806
   0    1013.0       21.5283        1.7254       68.9425       70.6679      49.139598       0.31797



 Wavenumbers: 12850. - 16000. cm-1, ATM      1
 LEVEL PRESSURE   UPWARD FLUX   DIFDOWN FLUX  DIRDOWN FLUX  DOWNWARD FLUX   NET FLUX    HEATING RATE
          mb          W/m2          W/m2          W/m2        W/m2          W/m2       degree/day
  51    .06700       31.2702        0.0000       63.1686       63.1686      31.898391       0.00000
  50    .07753       31.2702        0.0001       63.1677       63.1678      31.897612       0.62407
  49    .09103       31.2701        0.0001       63.1666       63.1668      31.896642       0.60638
  48    0.1069       31.2701        0.0002       63.1654       63.1656      31.895538       0.58786
  47    0.1255       31.2700        0.0003       63.1640       63.1643      31.894282       0.56926
  46    0.1487       31.2700        0.0004       63.1623       63.1627      31.892717       0.57062
  45    0.1794       31.2699        0.0006       63.1600       63.1605      31.890618       0.57606
  44    0.2165       31.2699        0.0008       63.1573       63.1581      31.888193       0.55173
  43    0.2613       31.2698        0.0010       63.1542       63.1552      31.885397       0.52702
  42    0.3336       31.2697        0.0014       63.1493       63.1506      31.880946       0.51897
  41    0.4307       31.2696        0.0018       63.1431       63.1450      31.875384       0.48355
  40    0.5894       31.2695        0.0026       63.1338       63.1365      31.866973       0.44730
  39     1.339       31.2702        0.0064       63.0956       63.1020      31.831850       0.39542
  38     1.782       31.2714        0.0087       63.0740       63.0827      31.811307       0.39110
  37     2.292       31.2736        0.0112       63.0477       63.0589      31.785331       0.43023
  36     2.964       31.2776        0.0146       63.0095       63.0241      31.746511       0.48731
  35     3.853       31.2847        0.0191       62.9533       62.9723      31.687663       0.55848
  34     5.035       31.2957        0.0250       62.8725       62.8975      31.601831       0.61314
  33     6.613       31.3112        0.0329       62.7621       62.7950      31.483755       0.63123
  32     8.786       31.3312        0.0435       62.6182       62.6618      31.330510       0.59515
  31     11.80       31.3567        0.0587       62.4284       62.4870      31.130347       0.56039
  30     15.07       31.3802        0.0749       62.2426       62.3175      30.937311       0.49838
  29     18.79       31.4033        0.0932       62.0493       62.1425      30.739132       0.44933
  28     23.16       31.4264        0.1145       61.8424       61.9569      30.530469       0.40349
  27     28.12       31.4483        0.1388       61.6278       61.7666      30.318284       0.36070
  26     33.73       31.4662        0.1659       61.4177       61.5836      30.117374       0.30207
  25     40.54       31.4803        0.1987       61.1983       61.3970      29.916681       0.24898
  24     48.69       31.4899        0.2381       60.9680       61.2060      29.716179       0.20749
  23     57.69       31.4933        0.2813       60.7478       61.0291      29.535813       0.16907
  22     68.43       31.4896        0.3327       60.5202       60.8529      29.363287       0.13563
  21     81.20       31.4746        0.3939       60.2938       60.6877      29.213080       0.09925
  20     96.49       31.4470        0.4668       60.0643       60.5310      29.083994       0.07125
  19     114.6       31.4152        0.5538       59.8078       60.3616      28.946396       0.06425
  18     136.5       31.3729        0.6567       59.5157       60.1724      28.799552       0.05647
  17     162.9       31.3184        0.7789       59.1770       59.9559      28.637586       0.05177
  16     196.4       31.2389        0.9369       58.7604       59.6974      28.458457       0.04509
  15     218.7       31.1836        1.0404       58.4948       59.5352      28.351632       0.04056
  14     243.0       31.1221        1.1527       58.2089       59.3616      28.239476       0.03890
  13     269.0       31.0543        1.2740       57.9006       59.1746      28.120351       0.03864
  12     297.5       30.9801        1.4048       57.5668       58.9716      27.991563       0.03820
  11     328.5       30.9002        1.5458       57.2005       58.7463      27.846090       0.03955
  10     361.9       30.8151        1.6970       56.7963       58.4934      27.678261       0.04246
   9     398.1       30.7253        1.8591       56.3475       58.2067      27.481402       0.04586
   8     437.6       30.6321        2.0324       55.8422       57.8746      27.242531       0.05107
   7     480.5       30.5382        2.2168       55.2625       57.4793      26.941177       0.05918
   6     533.0       30.4327        2.4417       54.4972       56.9389      26.506222       0.06997
   5     589.8       30.3316        2.6808       53.6307       56.3115      25.979892       0.07812
   4     651.6       30.2402        2.9331       52.6606       55.5937      25.353462       0.08567
   3     718.7       30.1612        3.1990       51.6100       54.8090      24.647870       0.08867
   2     792.3       30.0979        3.4783       50.5019       53.9801      23.882217       0.08781
   1     891.5       30.0557        3.8459       49.0197       52.8656      22.809854       0.09125
   0    1013.0       30.0926        4.2714       47.2289       51.5003      21.407770       0.09735



 Wavenumbers: 16000. - 22650. cm-1, ATM      1
 LEVEL PRESSURE   UPWARD FLUX   DIFDOWN FLUX  DIRDOWN FLUX  DOWNWARD FLUX   NET FLUX    HEATING RATE
          mb          W/m2          W/m2          W/m2        W/m2          W/m2       degree/day
  51    .06700       73.4868        0.0000      100.7153      100.7153      27.228509       0.00000
  50    .07753       73.4867        0.0003      100.7147      100.7151      27.228393       0.09306
  49    .09103       73.4865        0.0007      100.7140      100.7147      27.228224       0.10555
  48    0.1069       73.4863        0.0012      100.7131      100.7143      27.227998       0.12036
  47    0.1255       73.4862        0.0017      100.7121      100.7138      27.227695       0.13719
  46    0.1487       73.4859        0.0024      100.7108      100.7132      27.227249       0.16257
  45    0.1794       73.4857        0.0033      100.7089      100.7122      27.226552       0.19141
  44    0.2165       73.4854        0.0044      100.7066      100.7110      27.225607       0.21512
  43    0.2613       73.4851        0.0057      100.7037      100.7094      27.224323       0.24185
  42    0.3336       73.4847        0.0079      100.6987      100.7066      27.221884       0.28440
  41    0.4307       73.4843        0.0107      100.6918      100.7025      27.218207       0.31969
  40    0.5894       73.4839        0.0154      100.6797      100.6951      27.211195       0.37289
  39     1.339       73.4875        0.0374      100.6095      100.6469      27.159400       0.58312
  38     1.782       73.4935        0.0504      100.5585      100.6088      27.115291       0.83977
  37     2.292       73.5041        0.0654      100.4903      100.5556      27.051463       1.05716
  36     2.964       73.5236        0.0850      100.3868      100.4718      26.948110       1.29738
  35     3.853       73.5573        0.1109      100.2306      100.3415      26.784238       1.55518
  34     5.035       73.6097        0.1453      100.0045      100.1498      26.540027       1.74454
  33     6.613       73.6838        0.1911       99.6939       99.8850      26.201183       1.81146
  32     8.786       73.7796        0.2527       99.2881       99.5408      25.761205       1.70872
  31     11.80       73.9014        0.3405       98.7496       99.0902      25.188744       1.60271
  30     15.07       74.0146        0.4345       98.2198       98.6543      24.639774       1.41733
  29     18.79       74.1265        0.5403       97.6651       98.2054      24.078900       1.27167
  28     23.16       74.2390        0.6634       97.0671       97.7305      23.491517       1.13581
  27     28.12       74.3463        0.8036       96.4406       97.2441      22.897885       1.00913
  26     33.73       74.4356        0.9599       95.8179       96.7778      22.342233       0.83544
  25     40.54       74.5081        1.1482       95.1548       96.3030      21.794974       0.67894
  24     48.69       74.5611        1.3743       94.4420       95.8162      21.255155       0.55863
  23     57.69       74.5862        1.6216       93.7416       95.3632      20.776945       0.44825
  22     68.43       74.5805        1.9148       92.9954       94.9102      20.329644       0.35164
  21     81.20       74.5250        2.2628       92.2231       94.4860      19.960949       0.24363
  20     96.49       74.4139        2.6756       91.4110       94.0866      19.672635       0.15913
  19     114.6       74.2600        3.1622       90.5070       93.6692      19.409238       0.12299
  18     136.5       74.0632        3.7341       89.4803       93.2143      19.151131       0.09925
  17     162.9       73.8167        4.4081       88.3022       92.7104      18.893703       0.08228
  16     196.4       73.4694        5.2721       86.8606       92.1327      18.663302       0.05799
  15     218.7       73.2320        5.8331       85.9492       91.7823      18.550291       0.04291
  14     243.0       72.9707        6.4374       84.9789       91.4163      18.445679       0.03628
  13     269.0       72.6841        7.0857       83.9493       91.0350      18.350941       0.03073
  12     297.5       72.3717        7.7790       82.8589       90.6379      18.266195       0.02513
  11     328.5       72.0346        8.5194       81.6982       90.2177      18.183008       0.02262
  10     361.9       71.6729        9.3068       80.4669       89.7738      18.100868       0.02078
   9     398.1       71.2856       10.1430       79.1611       89.3041      18.018587       0.01917
   8     437.6       70.8730       11.0282       77.7777       88.8059      17.932916       0.01832
   7     480.5       70.4355       11.9627       76.3136       88.2763      17.840786       0.01809
   6     533.0       69.9045       13.0928       74.5359       87.6286      17.724163       0.01876
   5     589.8       69.3425       14.2863       72.6469       86.9332      17.590694       0.01981
   4     651.6       68.7519       15.5412       70.6456       86.1867      17.434878       0.02131
   3     718.7       68.1329       16.8550       68.5367       85.3917      17.258847       0.02212
   2     792.3       67.4884       18.2225       66.3287       84.5512      17.062807       0.02248
   1     891.5       66.6513       20.0043       63.4246       83.4290      16.777634       0.02427
   0    1013.0       65.6993       22.0475       60.0483       82.0959      16.396589       0.02646



 Wavenumbers: 22650. - 29000. cm-1, ATM      1
 LEVEL PRESSURE   UPWARD FLUX   DIFDOWN FLUX  DIRDOWN FLUX  DOWNWARD FLUX   NET FLUX    HEATING RATE
          mb          W/m2          W/m2          W/m2        W/m2          W/m2       degree/day
  51    .06700       32.0718        0.0000       38.0063       38.0063       5.934530       0.00000
  50    .07753       32.0716        0.0004       38.0057       38.0061       5.934530       0.00000
  49    .09103       32.0714        0.0009       38.0050       38.0059       5.934530       0.00000
  48    0.1069       32.0711        0.0014       38.0042       38.0056       5.934530      -0.00000
  47    0.1255       32.0708        0.0020       38.0033       38.0054       5.934530       0.00000
  46    0.1487       32.0705        0.0028       38.0022       38.0050       5.934530       0.00000
  45    0.1794       32.0700        0.0039       38.0006       38.0045       5.934530       0.00000
  44    0.2165       32.0694        0.0052       37.9987       38.0039       5.934530       0.00000
  43    0.2613       32.0687        0.0067       37.9965       38.0032       5.934530       0.00000
  42    0.3336       32.0675        0.0092       37.9928       38.0021       5.934530       0.00000
  41    0.4307       32.0660        0.0125       37.9880       38.0005       5.934530      -0.00000
  40    0.5894       32.0635        0.0180       37.9800       37.9980       5.934530       0.00000
  39     1.339       32.0517        0.0437       37.9425       37.9862       5.934530       0.00000
  38     1.782       32.0447        0.0589       37.9204       37.9793       5.934530       0.00000
  37     2.292       32.0367        0.0763       37.8949       37.9712       5.934530      -0.00000
  36     2.964       32.0262        0.0993       37.8614       37.9607       5.934530       0.00000
  35     3.853       32.0123        0.1296       37.8172       37.9468       5.934530       0.00000
  34     5.035       31.9938        0.1698       37.7586       37.9283       5.934530      -0.00000
  33     6.613       31.9692        0.2234       37.6803       37.9037       5.934530       0.00000
  32     8.786       31.9360        0.2955       37.5750       37.8705       5.934530       0.00000
  31     11.80       31.8887        0.3984       37.4249       37.8232       5.934530      -0.00000
  30     15.07       31.8380        0.5084       37.2642       37.7726       5.934530      -0.00000
  29     18.79       31.7810        0.6322       37.0833       37.7155       5.934530       0.00000
  28     23.16       31.7146        0.7762       36.8730       37.6492       5.934530      -0.00000
  27     28.12       31.6391        0.9398       36.6338       37.5736       5.934530       0.00000
  26     33.73       31.5550        1.1218       36.3677       37.4895       5.934530      -0.00000
  25     40.54       31.4540        1.3400       36.0486       37.3885       5.934530       0.00000
  24     48.69       31.3332        1.6005       35.6672       37.2678       5.934530      -0.00000
  23     57.69       31.2017        1.8836       35.2527       37.1363       5.934530      -0.00000
  22     68.43       31.0468        2.2164       34.7649       36.9813       5.934530       0.00000
  21     81.20       30.8644        2.6067       34.1922       36.7990       5.934530       0.00000
  20     96.49       30.6505        3.0633       33.5217       36.5850       5.934530      -0.00000
  19     114.6       30.4011        3.5933       32.7424       36.3356       5.934530       0.00000
  18     136.5       30.1118        4.2048       31.8416       36.0464       5.934530       0.00000
  17     162.9       29.7762        4.9099       30.8008       35.7107       5.934530      -0.00000
  16     196.4       29.3546        5.7885       29.5007       35.2892       5.934530       0.00000
  15     218.7       29.0860        6.3439       28.6767       35.0206       5.934530       0.00000
  14     243.0       28.8012        6.9289       27.8068       34.7357       5.934530       0.00000
  13     269.0       28.5005        7.5417       26.8933       34.4351       5.934530      -0.00000
  12     297.5       28.1848        8.1800       25.9393       34.1193       5.934530       0.00000
  11     328.5       27.8536        8.8431       24.9451       33.7882       5.934530      -0.00000
  10     361.9       27.5084        9.5270       23.9160       33.4430       5.934530       0.00000
   9     398.1       27.1495       10.2298       22.8541       33.0840       5.934530       0.00000
   8     437.6       26.7778       10.9478       21.7645       32.7123       5.934530      -0.00000
   7     480.5       26.3946       11.6769       20.6521       32.3291       5.934530       0.00000
   6     533.0       25.9429       12.5205       19.3569       31.8774       5.934530      -0.00000
   5     589.8       25.4793       13.3671       18.0467       31.4138       5.934530       0.00000
   4     651.6       25.0061       14.2090       16.7316       30.9406       5.934530       0.00000
   3     718.7       24.5254       15.0385       15.4214       30.4600       5.934530      -0.00000
   2     792.3       24.0402       15.8471       14.1276       29.9747       5.934530      -0.00000
   1     891.5       23.4295       16.8181       12.5459       29.3640       5.934530       0.00000
   0    1013.0       22.7561       17.8189       10.8717       28.6906       5.934530       0.00000



 Wavenumbers: 29000. - 38000. cm-1, ATM      1
 LEVEL PRESSURE   UPWARD FLUX   DIFDOWN FLUX  DIRDOWN FLUX  DOWNWARD FLUX   NET FLUX    HEATING RATE
          mb          W/m2          W/m2          W/m2        W/m2          W/m2       degree/day
  51    .06700        4.7067        0.0000       13.4026       13.4026       8.695872       0.00000
  50    .07753        4.7065        0.0003       13.3983       13.3986       8.692074       3.04422
  49    .09103        4.7062        0.0007       13.3921       13.3928       8.686555       3.44947
  48    0.1069        4.7059        0.0011       13.3840       13.3851       8.679179       3.92654
  47    0.1255        4.7056        0.0016       13.3733       13.3749       8.669334       4.46291
  46    0.1487        4.7051        0.0022       13.3579       13.3600       8.654893       5.26406
  45    0.1794        4.7046        0.0030       13.3340       13.3371       8.632495       6.14888
  44    0.2165        4.7039        0.0040       13.3024       13.3064       8.602478       6.82833
  43    0.2613        4.7031        0.0051       13.2604       13.2655       8.562426       7.54961
  42    0.3336        4.7019        0.0070       13.1833       13.1903       8.488425       8.62782
  41    0.4307        4.7003        0.0095       13.0729       13.0824       8.382061       9.24811
  40    0.5894        4.6979        0.0133       12.8796       12.8929       8.195033       9.94588
  39     1.339        4.6892        0.0295       11.9165       11.9460       7.256815      10.56263
  38     1.782        4.6858        0.0378       11.4399       11.4777       6.791936       8.85055
  37     2.292        4.6831        0.0466       10.9796       11.0262       6.343147       7.43311
  36     2.964        4.6813        0.0574       10.4786       10.5361       5.854742       6.13095
  35     3.853        4.6815        0.0708        9.9429       10.0137       5.332234       4.95869
  34     5.035        4.6842        0.0875        9.4007        9.4882       4.804013       3.77339
  33     6.613        4.6896        0.1087        8.8752        8.9839       4.294321       2.72482
  32     8.786        4.6971        0.1360        8.3786        8.5146       3.817491       1.85184
  31     11.80        4.7061        0.1734        7.8897        8.0631       3.357012       1.28919
  30     15.07        4.7136        0.2120        7.5108        7.7228       3.009237       0.89789
  29     18.79        4.7203        0.2541        7.1776        7.4317       2.711337       0.67543
  28     23.16        4.7262        0.3014        6.8664        7.1678       2.441629       0.52153
  27     28.12        4.7304        0.3537        6.5780        6.9317       2.201303       0.40854
  26     33.73        4.7307        0.4107        6.3195        6.7302       1.999447       0.30350
  25     40.54        4.7257        0.4779        6.0663        6.5441       1.818421       0.22458
  24     48.69        4.7149        0.5566        5.8128        6.3694       1.654535       0.16960
  23     57.69        4.6983        0.6405        5.5777        6.2182       1.519880       0.12622
  22     68.43        4.6736        0.7376        5.3379        6.0754       1.401856       0.09278
  21     81.20        4.6366        0.8501        5.0965        5.9466       1.310058       0.06066
  20     96.49        4.5860        0.9801        4.8476        5.8277       1.241749       0.03770
  19     114.6        4.5247        1.1272        4.5799        5.7071       1.182336       0.02774
  18     136.5        4.4537        1.2914        4.2891        5.5804       1.126698       0.02139
  17     162.9        4.3726        1.4731        3.9732        5.4463       1.073713       0.01694
  16     196.4        4.2700        1.6905        3.6080        5.2985       1.028481       0.01139
  15     218.7        4.2053        1.8225        3.3898        5.2122       1.006973       0.00817
  14     243.0        4.1378        1.9568        3.1686        5.1253       0.987483       0.00676
  13     269.0        4.0680        2.0923        2.9461        5.0383       0.970312       0.00557
  12     297.5        3.9962        2.2277        2.7239        4.9517       0.955473       0.00440
  11     328.5        3.9231        2.3618        2.5029        4.8647       0.941554       0.00378
  10     361.9        3.8492        2.4932        2.2846        4.7778       0.928575       0.00328
   9     398.1        3.7749        2.6206        2.0708        4.6914       0.916529       0.00281
   8     437.6        3.7005        2.7431        1.8626        4.6057       0.905156       0.00243
   7     480.5        3.6266        2.8590        1.6621        4.5211       0.894581       0.00208
   6     533.0        3.5428        2.9825        1.4437        4.4261       0.883303       0.00181
   5     589.8        3.4606        3.0943        1.2390        4.3332       0.872634       0.00158
   4     651.6        3.3805        3.1929        1.0500        4.2429       0.862428       0.00140
   3     718.7        3.3026        3.2774        0.8778        4.1552       0.852653       0.00123
   2     792.3        3.2272        3.3468        0.7237        4.0705       0.843287       0.00107
   1     891.5        3.1364        3.4121        0.5563        3.9684       0.831994       0.00096
   0    1013.0        3.0404        3.4563        0.4039        3.8602       0.819857       0.00084



 Wavenumbers: 38000. - 50000. cm-1, ATM      1
 LEVEL PRESSURE   UPWARD FLUX   DIFDOWN FLUX  DIRDOWN FLUX  DOWNWARD FLUX   NET FLUX    HEATING RATE
          mb          W/m2          W/m2          W/m2        W/m2          W/m2       degree/day
  51    .06700        0.0051        0.0000        0.8267        0.8267       0.821528       0.00000
  50    .07753        0.0051        0.0001        0.8242        0.8243       0.819196       1.86936
  49    .09103        0.0050        0.0002        0.8207        0.8209       0.815872       2.07705
  48    0.1069        0.0049        0.0002        0.8162        0.8164       0.811514       2.31984
  47    0.1255        0.0048        0.0004        0.8103        0.8106       0.805801       2.59006
  46    0.1487        0.0047        0.0005        0.8018        0.8023       0.797567       3.00143
  45    0.1794        0.0045        0.0007        0.7889        0.7896       0.785013       3.44648
  44    0.2165        0.0044        0.0009        0.7720        0.7729       0.768507       3.75474
  43    0.2613        0.0042        0.0011        0.7500        0.7511       0.746955       4.06246
  42    0.3336        0.0039        0.0015        0.7106        0.7121       0.708267       4.51071
  41    0.4307        0.0035        0.0019        0.6566        0.6584       0.654972       4.63387
  40    0.5894        0.0029        0.0024        0.5680        0.5704       0.567464       4.65357
  39     1.339        0.0015        0.0030        0.2422        0.2452       0.243720       3.64476
  38     1.782        0.0010        0.0026        0.1493        0.1519       0.150889       1.76735
  37     2.292        0.0007        0.0022        0.0924        0.0946       0.093932       0.94336
  36     2.964        0.0005        0.0018        0.0539        0.0557       0.055224       0.48589
  35     3.853        0.0003        0.0013        0.0295        0.0308       0.030502       0.23462
  34     5.035        0.0002        0.0010        0.0154        0.0164       0.016181       0.10230
  33     6.613        0.0001        0.0007        0.0073        0.0080       0.007912       0.04420
  32     8.786        0.0000        0.0004        0.0030        0.0034       0.003390       0.01756
  31     11.80        0.0000        0.0003        0.0010        0.0012       0.001199       0.00613
  30     15.07        0.0000        0.0001        0.0003        0.0005       0.000463       0.00190
  29     18.79        0.0000        0.0001        0.0001        0.0002       0.000182       0.00064
  28     23.16        0.0000        0.0000        0.0000        0.0001       0.000071       0.00022
  27     28.12        0.0000        0.0000        0.0000        0.0000       0.000028       0.00007
  26     33.73        0.0000        0.0000        0.0000        0.0000       0.000011       0.00002
  25     40.54        0.0000        0.0000        0.0000        0.0000       0.000005       0.00001
  24     48.69        0.0000        0.0000        0.0000        0.0000       0.000002       0.00000
  23     57.69        0.0000        0.0000        0.0000        0.0000       0.000001       0.00000
  22     68.43        0.0000        0.0000        0.0000        0.0000       0.000000       0.00000
  21     81.20        0.0000        0.0000        0.0000        0.0000       0.000000       0.00000
  20     96.49        0.0000        0.0000        0.0000        0.0000       0.000000       0.00000
  19     114.6        0.0000        0.0000        0.0000        0.0000       0.000000       0.00000
  18     136.5        0.0000        0.0000        0.0000        0.0000       0.000000       0.00000
  17     162.9        0.0000        0.0000        0.0000        0.0000       0.000000       0.00000
  16     196.4        0.0000        0.0000        0.0000        0.0000       0.000000       0.00000
  15     218.7        0.0000        0.0000        0.0000        0.0000       0.000000       0.00000
  14     243.0        0.0000        0.0000        0.0000        0.0000       0.000000       0.00000
  13     269.0        0.0000        0.0000        0.0000        0.0000       0.000000       0.00000
  12     297.5        0.0000        0.0000        0.0000        0.0000       0.000000       0.00000
  11     328.5        0.0000        0.0000        0.0000        0.0000       0.000000       0.00000
  10     361.9        0.0000        0.0000        0.0000        0.0000       0.000000       0.00000
   9     398.1        0.0000        0.0000        0.0000        0.0000       0.000000       0.00000
   8     437.6        0.0000        0.0000        0.0000        0.0000       0.000000       0.00000
   7     480.5        0.0000        0.0000        0.0000        0.0000       0.000000       0.00000
   6     533.0        0.0000        0.0000        0.0000        0.0000       0.000000       0.00000
   5     589.8        0.0000        0.0000        0.0000        0.0000       0.000000       0.00000
   4     651.6        0.0000        0.0000        0.0000        0.0000       0.000000       0.00000
   3     718.7        0.0000        0.0000        0.0000        0.0000       0.000000       0.00000
   2     792.3        0.0000        0.0000        0.0000        0.0000       0.000000       0.00000
   1     891.5        0.0000        0.0000        0.0000        0.0000       0.000000       0.00000
   0    1013.0        0.0000        0.0000        0.0000        0.0000       0.000000       0.00000



 Wavenumbers:   820. -  2600. cm-1, ATM      1
 LEVEL PRESSURE   UPWARD FLUX   DIFDOWN FLUX  DIRDOWN FLUX  DOWNWARD FLUX   NET FLUX    HEATING RATE
          mb          W/m2          W/m2          W/m2        W/m2          W/m2       degree/day
  51    .06700        0.2002        0.0000        3.8670        3.8670       3.666781       0.00000
  50    .07753        0.2002        0.0000        3.8643        3.8643       3.664064       2.17769
  49    .09103        0.2002        0.0000        3.8635        3.8635       3.663253       0.50638
  48    0.1069        0.2002        0.0000        3.8626        3.8626       3.662363       0.47415
  47    0.1255        0.2002        0.0000        3.8616        3.8616       3.661402       0.43559
  46    0.1487        0.2002        0.0000        3.8605        3.8605       3.660293       0.40437
  45    0.1794        0.2002        0.0000        3.8592        3.8592       3.658958       0.36648
  44    0.2165        0.2002        0.0000        3.8578        3.8578       3.657580       0.31346
  43    0.2613        0.2002        0.0000        3.8564        3.8564       3.656120       0.27522
  42    0.3336        0.2002        0.0000        3.8541        3.8541       3.653888       0.26012
  41    0.4307        0.2002        0.0000        3.8512        3.8512       3.651006       0.25063
  40    0.5894        0.2002        0.0000        3.8465        3.8465       3.646280       0.25134
  39     1.339        0.2002        0.0000        3.8251        3.8251       3.624905       0.24064
  38     1.782        0.2002        0.0000        3.8133        3.8133       3.613092       0.22489
  37     2.292        0.2002        0.0000        3.8003        3.8003       3.600031       0.21633
  36     2.964        0.2002        0.0000        3.7841        3.7841       3.583902       0.20247
  35     3.853        0.2002        0.0000        3.7642        3.7642       3.563988       0.18899
  34     5.035        0.2002        0.0000        3.7395        3.7395       3.539297       0.17638
  33     6.613        0.2002        0.0000        3.7090        3.7090       3.508761       0.16324
  32     8.786        0.2002        0.0000        3.6726        3.6726       3.472368       0.14134
  31     11.80        0.2002        0.0000        3.6320        3.6320       3.431774       0.11365
  30     15.07        0.2002        0.0000        3.6016        3.6016       3.401391       0.07844
  29     18.79        0.2002        0.0000        3.5777        3.5777       3.377493       0.05418
  28     23.16        0.2002        0.0000        3.5564        3.5564       3.356140       0.04129
  27     28.12        0.2003        0.0000        3.5348        3.5348       3.334594       0.03663
  26     33.73        0.2003        0.0000        3.5118        3.5118       3.311562       0.03463
  25     40.54        0.2003        0.0000        3.4849        3.4849       3.284674       0.03336
  24     48.69        0.2003        0.0000        3.4537        3.4537       3.253423       0.03234
  23     57.69        0.2003        0.0000        3.4210        3.4210       3.220750       0.03063
  22     68.43        0.2003        0.0000        3.3844        3.3844       3.184164       0.02876
  21     81.20        0.2003        0.0000        3.3441        3.3441       3.143866       0.02663
  20     96.49        0.2003        0.0000        3.2998        3.2998       3.099501       0.02449
  19     114.6        0.2003        0.0000        3.2506        3.2506       3.050352       0.02295
  18     136.5        0.2003        0.0000        3.1936        3.1936       2.993300       0.02194
  17     162.9        0.2003        0.0000        3.1181        3.1181       2.917791       0.02414
  16     196.4        0.2004        0.0000        3.0090        3.0090       2.808591       0.02749
  15     218.7        0.2004        0.0000        2.9420        2.9420       2.741577       0.02544
  14     243.0        0.2005        0.0000        2.8605        2.8605       2.659999       0.02829
  13     269.0        0.2006        0.0000        2.7419        2.7420       2.541390       0.03848
  12     297.5        0.2008        0.0000        2.5729        2.5729       2.372136       0.05020
  11     328.5        0.2010        0.0000        2.3602        2.3602       2.159165       0.05791
  10     361.9        0.2015        0.0000        2.1524        2.1524       1.950959       0.05268
   9     398.1        0.2021        0.0000        1.9974        1.9974       1.795311       0.03626
   8     437.6        0.2030        0.0000        1.8835        1.8835       1.680487       0.02455
   7     480.5        0.2044        0.0000        1.7734        1.7734       1.569067       0.02188
   6     533.0        0.2066        0.0000        1.6397        1.6398       1.433136       0.02187
   5     589.8        0.2099        0.0000        1.5068        1.5069       1.296970       0.02021
   4     651.6        0.2147        0.0000        1.3807        1.3807       1.165983       0.01791
   3     718.7        0.2212        0.0000        1.2680        1.2680       1.046850       0.01497
   2     792.3        0.2291        0.0000        1.1659        1.1660       0.936847       0.01262
   1     891.5        0.2425        0.0000        1.0372        1.0373       0.794789       0.01209
   0    1013.0        0.2667        0.0000        0.8716        0.8717       0.604943       0.01318

  Modules and versions used in this calculation:

       rrtmg_sw.1col.f90:  $Revision$                    rrtmg_sw_init.f90:  $Revision$        
     rrtmgsw_cldprop.f90:  $Revision$                  rrtmgsw_cldprmc.f90:  NOT USED          
     rrtmg_sw_reftra.f90:  $Revision$                  rrtmg_sw_spcvrt.f90:  NOT USED          
     rrtmg_sw_spcvmc.f90:  NOT USED                    rrtmgsw_setcoef.f90:  NOT USED          
     rrtmg_sw_taumol.f90:  $Revision$                  rrtmg_sw_vrtqdr.f90:  NOT USED          
                rrtatm.f:  NOT USED                             util_xxx.f:  NOT USED          
                 extra.f:  NOT USED                       rrtmg_sw_k_g.f90:  $Revision$        

