

 Wavenumbers:   820. - 50000. cm-1, ATM      1
 LEVEL PRESSURE   UPWARD FLUX   DIFDOWN FLUX  DIRDOWN FLUX  DOWNWARD FLUX   NET FLUX    HEATING RATE
          mb          W/m2          W/m2          W/m2        W/m2          W/m2       degree/day
  51    .06700      252.4854        0.0000      397.8738      397.8738     145.388338       0.00000
  50    .07753      252.4849        0.0012      397.8577      397.8589     145.374044      11.45699
  49    .09103      252.4842        0.0027      397.8418      397.8445     145.360351       8.55845
  48    0.1069      252.4834        0.0044      397.8230      397.8274     145.343997       8.70530
  47    0.1255      252.4825        0.0064      397.7997      397.8060     145.323546       9.27142
  46    0.1487      252.4814        0.0089      397.7676      397.7765     145.295076      10.37746
  45    0.1794      252.4800        0.0123      397.7205      397.7328     145.252765      11.61536
  44    0.2165      252.4784        0.0163      397.6602      397.6765     145.198092      12.43737
  43    0.2613      252.4766        0.0210      397.5829      397.6039     145.127260      13.35151
  42    0.3336      252.4739        0.0288      397.4449      397.4736     144.999754      14.86587
  41    0.4307      252.4705        0.0389      397.2524      397.2913     144.820785      15.56101
  40    0.5894      252.4658        0.0553      396.9253      396.9806     144.514874      16.26792
  39     1.339      252.4553        0.1287      395.4254      395.5540     143.098697      15.94358
  38     1.782      252.4574        0.1698      394.7288      394.8986     142.441214      12.51742
  37     2.292      252.4670        0.2167      394.0572      394.2739     141.806851      10.50671
  36     2.964      252.4904        0.2776      393.3007      393.5783     141.087849       9.02565
  35     3.853      252.5363        0.3572      392.4318      392.7890     140.252696       7.92575
  34     5.035      252.6120        0.4619      391.4441      391.9060     139.293998       6.84854
  33     6.613      252.7212        0.6007      390.3268      390.9275     138.206218       5.81527
  32     8.786      252.8624        0.7864      389.0624      389.8488     136.986378       4.73742
  31     11.80      253.0389        1.0499      387.5500      388.5999     135.561034       3.99051
  30     15.07      253.1986        1.3306      386.1556      387.4862     134.287654       3.28762
  29     18.79      253.3525        1.6454      384.7502      386.3955     133.043024       2.82196
  28     23.16      253.5018        2.0101      383.2686      385.2787     131.776956       2.44817
  27     28.12      253.6367        2.4239      381.7329      384.1568     130.520081       2.13660
  26     33.73      253.7355        2.8838      380.1982      383.0819     129.346459       1.76457
  25     40.54      253.7942        3.4354      378.5384      381.9738     128.179560       1.44767
  24     48.69      253.8070        4.0948      376.7214      380.8162     127.009236       1.21110
  23     57.69      253.7653        4.8125      374.8959      379.7084     125.943110       0.99933
  22     68.43      253.6559        5.6591      372.8999      378.5590     124.903057       0.81762
  21     81.20      253.4430        6.6573      370.7496      377.4069     123.963854       0.62061
  20     96.49      253.1147        7.8322      368.4056      376.2378     123.123095       0.46404
  19     114.6      252.7027        9.2057      365.7513      374.9570     122.254245       0.40569
  18     136.5      252.1972       10.8020      362.7231      373.5251     121.327944       0.35619
  17     162.9      251.5855       12.6595      359.1748      371.8343     120.248798       0.34494
  16     196.4      250.7598       15.0041      354.5718      369.5759     118.816050       0.36064
  15     218.7      250.2118       16.5053      351.4437      367.9490     117.737195       0.40960
  14     243.0      249.6200       18.1036      347.7111      365.8147     116.194685       0.53499
  13     269.0      248.9853       19.7973      342.9441      362.7414     113.756147       0.79105
  12     297.5      248.3097       21.5846      337.4137      358.9983     110.688646       0.90979
  11     328.5      247.5996       23.4677      331.1302      354.5979     106.998351       1.00338
  10     361.9      246.8606       25.4412      324.1219      349.5631     102.702526       1.08689
   9     398.1      246.0977       27.5051      316.6066      344.1116      98.013966       1.09233
   8     437.6      245.3223       29.6551      308.5895      338.2446      92.922337       1.08862
   7     480.5      244.5533       31.8860      299.9349      331.8209      87.267583       1.11057
   6     533.0      243.7035       34.5343      289.7021      324.2365      80.532988       1.08338
   5     589.8      242.9171       37.2747      279.3388      316.6135      73.696395       1.01477
   4     651.6      242.2462       40.0956      268.7786      308.8742      66.628008       0.96662
   3     718.7      241.7222       42.9887      258.2837      301.2724      59.550186       0.88949
   2     792.3      241.3782       45.9405      248.0774      294.0179      52.639635       0.79256
   1     891.5      241.3414       49.7007      235.5216      285.2223      43.880885       0.74533
   0    1013.0      242.2784       53.8987      221.4731      275.3718      33.093424       0.74903



 Wavenumbers:  2600. -  3250. cm-1, ATM      1
 LEVEL PRESSURE   UPWARD FLUX   DIFDOWN FLUX  DIRDOWN FLUX  DOWNWARD FLUX   NET FLUX    HEATING RATE
          mb          W/m2          W/m2          W/m2        W/m2          W/m2       degree/day
  51    .06700        0.2338        0.0000        3.5066        3.5066       3.272872       0.00000
  50    .07753        0.2338        0.0000        3.5066        3.5066       3.272864       0.00640
  49    .09103        0.2338        0.0000        3.5066        3.5066       3.272854       0.00627
  48    0.1069        0.2338        0.0000        3.5066        3.5066       3.272843       0.00613
  47    0.1255        0.2338        0.0000        3.5066        3.5066       3.272829       0.00599
  46    0.1487        0.2338        0.0000        3.5066        3.5066       3.272813       0.00607
  45    0.1794        0.2338        0.0000        3.5065        3.5065       3.272790       0.00624
  44    0.2165        0.2338        0.0000        3.5065        3.5065       3.272763       0.00611
  43    0.2613        0.2338        0.0000        3.5065        3.5065       3.272731       0.00598
  42    0.3336        0.2338        0.0000        3.5064        3.5064       3.272679       0.00615
  41    0.4307        0.2338        0.0000        3.5064        3.5064       3.272608       0.00618
  40    0.5894        0.2338        0.0000        3.5062        3.5062       3.272489       0.00633
  39     1.339        0.2338        0.0000        3.5055        3.5055       3.271790       0.00787
  38     1.782        0.2338        0.0000        3.5050        3.5050       3.271259       0.01011
  37     2.292        0.2338        0.0000        3.5043        3.5043       3.270566       0.01147
  36     2.964        0.2338        0.0000        3.5033        3.5033       3.269575       0.01245
  35     3.853        0.2338        0.0000        3.5019        3.5019       3.268198       0.01307
  34     5.035        0.2337        0.0000        3.5001        3.5001       3.266337       0.01329
  33     6.613        0.2337        0.0000        3.4977        3.4977       3.263927       0.01288
  32     8.786        0.2337        0.0000        3.4947        3.4947       3.260957       0.01154
  31     11.80        0.2337        0.0000        3.4911        3.4911       3.257321       0.01018
  30     15.07        0.2337        0.0000        3.4878        3.4878       3.254100       0.00832
  29     18.79        0.2337        0.0000        3.4848        3.4848       3.251037       0.00695
  28     23.16        0.2337        0.0000        3.4816        3.4816       3.247817       0.00623
  27     28.12        0.2337        0.0000        3.4779        3.4779       3.244199       0.00615
  26     33.73        0.2337        0.0000        3.4735        3.4735       3.239733       0.00671
  25     40.54        0.2337        0.0000        3.4671        3.4671       3.233408       0.00785
  24     48.69        0.2337        0.0000        3.4582        3.4583       3.224513       0.00920
  23     57.69        0.2337        0.0000        3.4472        3.4472       3.213466       0.01036
  22     68.43        0.2337        0.0000        3.4329        3.4329       3.199207       0.01121
  21     81.20        0.2337        0.0000        3.4152        3.4152       3.181480       0.01171
  20     96.49        0.2337        0.0000        3.3940        3.3941       3.160337       0.01167
  19     114.6        0.2338        0.0000        3.3692        3.3692       3.135450       0.01162
  18     136.5        0.2338        0.0001        3.3419        3.3420       3.108234       0.01046
  17     162.9        0.2338        0.0001        3.3129        3.3129       3.079163       0.00929
  16     196.4        0.2338        0.0001        3.2793        3.2794       3.045595       0.00845
  15     218.7        0.2339        0.0001        3.2578        3.2578       3.023983       0.00821
  14     243.0        0.2339        0.0001        3.2320        3.2320       2.998116       0.00897
  13     269.0        0.2341        0.0001        3.1968        3.1969       2.962875       0.01143
  12     297.5        0.2342        0.0001        3.1489        3.1490       2.914805       0.01426
  11     328.5        0.2345        0.0001        3.0821        3.0822       2.847640       0.01826
  10     361.9        0.2350        0.0001        2.9902        2.9904       2.755402       0.02334
   9     398.1        0.2356        0.0001        2.8715        2.8716       2.636060       0.02780
   8     437.6        0.2364        0.0001        2.7276        2.7278       2.491376       0.03093
   7     480.5        0.2377        0.0001        2.5595        2.5597       2.321996       0.03327
   6     533.0        0.2397        0.0001        2.3617        2.3619       2.122145       0.03215
   5     589.8        0.2427        0.0002        2.1649        2.1651       1.922347       0.02966
   4     651.6        0.2470        0.0002        1.9608        1.9609       1.713883       0.02851
   3     718.7        0.2529        0.0002        1.7593        1.7595       1.506582       0.02605
   2     792.3        0.2606        0.0002        1.5761        1.5762       1.315661       0.02190
   1     891.5        0.2737        0.0002        1.3714        1.3716       1.097880       0.01853
   0    1013.0        0.2975        0.0002        1.1584        1.1586       0.861071       0.01644



 Wavenumbers:  3250. -  4000. cm-1, ATM      1
 LEVEL PRESSURE   UPWARD FLUX   DIFDOWN FLUX  DIRDOWN FLUX  DOWNWARD FLUX   NET FLUX    HEATING RATE
          mb          W/m2          W/m2          W/m2        W/m2          W/m2       degree/day
  51    .06700        0.0004        0.0000        5.9117        5.9117       5.911216       0.00000
  50    .07753        0.0004        0.0000        5.9075        5.9075       5.907026       3.35808
  49    .09103        0.0004        0.0000        5.9050        5.9050       5.904584       1.52677
  48    0.1069        0.0004        0.0000        5.9032        5.9032       5.902717       0.99346
  47    0.1255        0.0004        0.0000        5.9014        5.9014       5.900959       0.79708
  46    0.1487        0.0004        0.0000        5.8995        5.8995       5.899070       0.68848
  45    0.1794        0.0004        0.0000        5.8974        5.8974       5.896922       0.58983
  44    0.2165        0.0004        0.0000        5.8952        5.8952       5.894805       0.48155
  43    0.2613        0.0004        0.0000        5.8931        5.8931       5.892646       0.40696
  42    0.3336        0.0004        0.0000        5.8899        5.8899       5.889488       0.36820
  41    0.4307        0.0004        0.0000        5.8861        5.8861       5.885651       0.33365
  40    0.5894        0.0004        0.0000        5.8803        5.8803       5.879848       0.30857
  39     1.339        0.0004        0.0000        5.8597        5.8597       5.859250       0.23189
  38     1.782        0.0004        0.0000        5.8513        5.8513       5.850826       0.16039
  37     2.292        0.0004        0.0000        5.8431        5.8431       5.842655       0.13533
  36     2.964        0.0004        0.0000        5.8334        5.8334       5.833015       0.12100
  35     3.853        0.0004        0.0000        5.8213        5.8213       5.820840       0.11555
  34     5.035        0.0004        0.0000        5.8052        5.8052       5.804744       0.11498
  33     6.613        0.0004        0.0000        5.7833        5.7834       5.782923       0.11666
  32     8.786        0.0004        0.0000        5.7531        5.7531       5.752722       0.11729
  31     11.80        0.0004        0.0000        5.7090        5.7090       5.708553       0.12366
  30     15.07        0.0004        0.0000        5.6615        5.6615       5.661088       0.12254
  29     18.79        0.0004        0.0000        5.6093        5.6094       5.608953       0.11821
  28     23.16        0.0004        0.0000        5.5524        5.5524       5.552027       0.11008
  27     28.12        0.0004        0.0000        5.4935        5.4935       5.493148       0.10009
  26     33.73        0.0004        0.0000        5.4348        5.4349       5.434459       0.08824
  25     40.54        0.0004        0.0001        5.3707        5.3708       5.370397       0.07948
  24     48.69        0.0004        0.0001        5.2985        5.2985       5.298164       0.07475
  23     57.69        0.0004        0.0001        5.2215        5.2216       5.221226       0.07212
  22     68.43        0.0003        0.0001        5.1318        5.1319       5.131565       0.07048
  21     81.20        0.0003        0.0001        5.0284        5.0285       5.028136       0.06834
  20     96.49        0.0003        0.0001        4.9122        4.9123       4.912002       0.06410
  19     114.6        0.0003        0.0001        4.7780        4.7782       4.777891       0.06262
  18     136.5        0.0003        0.0002        4.6285        4.6287       4.628413       0.05748
  17     162.9        0.0002        0.0002        4.4406        4.4407       4.440500       0.06006
  16     196.4        0.0002        0.0002        4.1548        4.1550       4.154827       0.07191
  15     218.7        0.0002        0.0002        3.9564        3.9566       3.956446       0.07532
  14     243.0        0.0002        0.0002        3.7055        3.7058       3.705611       0.08700
  13     269.0        0.0001        0.0002        3.3399        3.3401       3.339973       0.11861
  12     297.5        0.0001        0.0002        2.8954        2.8956       2.895483       0.13183
  11     328.5        0.0001        0.0002        2.4388        2.4390       2.438942       0.12413
  10     361.9        0.0001        0.0002        2.0269        2.0271       2.027003       0.10422
   9     398.1        0.0001        0.0002        1.6753        1.6755       1.675415       0.08191
   8     437.6        0.0001        0.0002        1.3592        1.3594       1.359296       0.06759
   7     480.5        0.0001        0.0002        1.0616        1.0618       1.061713       0.05844
   6     533.0        0.0001        0.0001        0.7543        0.7544       0.754377       0.04944
   5     589.8        0.0001        0.0001        0.4951        0.4952       0.495181       0.03847
   4     651.6        0.0001        0.0001        0.2943        0.2943       0.294278       0.02747
   3     718.7        0.0001        0.0001        0.1528        0.1529       0.152770       0.01778
   2     792.3        0.0001        0.0000        0.0658        0.0658       0.065709       0.00998
   1     891.5        0.0003        0.0000        0.0157        0.0157       0.015359       0.00428
   0    1013.0        0.0013        0.0000        0.0013        0.0013       0.000046       0.00106



 Wavenumbers:  4000. -  4650. cm-1, ATM      1
 LEVEL PRESSURE   UPWARD FLUX   DIFDOWN FLUX  DIRDOWN FLUX  DOWNWARD FLUX   NET FLUX    HEATING RATE
          mb          W/m2          W/m2          W/m2        W/m2          W/m2       degree/day
  51    .06700        1.2881        0.0000        6.9421        6.9421       5.653986       0.00000
  50    .07753        1.2881        0.0000        6.9421        6.9421       5.653985       0.00079
  49    .09103        1.2881        0.0000        6.9421        6.9421       5.653983       0.00078
  48    0.1069        1.2881        0.0000        6.9421        6.9421       5.653982       0.00076
  47    0.1255        1.2881        0.0000        6.9421        6.9421       5.653980       0.00074
  46    0.1487        1.2881        0.0000        6.9421        6.9421       5.653978       0.00075
  45    0.1794        1.2881        0.0000        6.9421        6.9421       5.653975       0.00077
  44    0.2165        1.2881        0.0000        6.9421        6.9421       5.653972       0.00076
  43    0.2613        1.2881        0.0000        6.9420        6.9420       5.653968       0.00074
  42    0.3336        1.2881        0.0000        6.9420        6.9420       5.653962       0.00076
  41    0.4307        1.2881        0.0000        6.9420        6.9420       5.653953       0.00077
  40    0.5894        1.2881        0.0000        6.9420        6.9420       5.653938       0.00079
  39     1.339        1.2881        0.0000        6.9419        6.9419       5.653849       0.00100
  38     1.782        1.2881        0.0000        6.9418        6.9419       5.653780       0.00132
  37     2.292        1.2881        0.0000        6.9418        6.9418       5.653686       0.00155
  36     2.964        1.2881        0.0000        6.9416        6.9416       5.653547       0.00175
  35     3.853        1.2881        0.0000        6.9414        6.9414       5.653340       0.00196
  34     5.035        1.2881        0.0000        6.9411        6.9411       5.653036       0.00218
  33     6.613        1.2881        0.0000        6.9406        6.9406       5.652588       0.00239
  32     8.786        1.2881        0.0000        6.9399        6.9400       5.651928       0.00256
  31     11.80        1.2880        0.0000        6.9389        6.9389       5.650894       0.00290
  30     15.07        1.2880        0.0001        6.9377        6.9377       5.649684       0.00312
  29     18.79        1.2880        0.0001        6.9362        6.9363       5.648226       0.00331
  28     23.16        1.2880        0.0001        6.9343        6.9344       5.646423       0.00349
  27     28.12        1.2880        0.0001        6.9321        6.9322       5.644251       0.00369
  26     33.73        1.2880        0.0001        6.9294        6.9296       5.641586       0.00401
  25     40.54        1.2880        0.0002        6.9258        6.9260       5.637993       0.00446
  24     48.69        1.2879        0.0002        6.9210        6.9212       5.633237       0.00492
  23     57.69        1.2879        0.0002        6.9154        6.9156       5.627643       0.00524
  22     68.43        1.2879        0.0003        6.9083        6.9086       5.620691       0.00547
  21     81.20        1.2879        0.0003        6.8998        6.9001       5.612193       0.00562
  20     96.49        1.2879        0.0004        6.8894        6.8898       5.601932       0.00566
  19     114.6        1.2879        0.0004        6.8765        6.8770       5.589091       0.00600
  18     136.5        1.2879        0.0005        6.8610        6.8615       5.573608       0.00595
  17     162.9        1.2879        0.0006        6.8417        6.8423       5.554358       0.00615
  16     196.4        1.2880        0.0007        6.8147        6.8154       5.527370       0.00679
  15     218.7        1.2882        0.0008        6.7948        6.7957       5.507504       0.00754
  14     243.0        1.2884        0.0009        6.7698        6.7707       5.482319       0.00873
  13     269.0        1.2887        0.0010        6.7349        6.7359       5.447109       0.01142
  12     297.5        1.2893        0.0011        6.6869        6.6880       5.398614       0.01438
  11     328.5        1.2902        0.0012        6.6194        6.6206       5.330358       0.01856
  10     361.9        1.2914        0.0013        6.5295        6.5308       5.239391       0.02302
   9     398.1        1.2929        0.0014        6.4202        6.4216       5.128715       0.02578
   8     437.6        1.2950        0.0015        6.2962        6.2977       5.002755       0.02693
   7     480.5        1.2977        0.0017        6.1555        6.1572       4.859429       0.02815
   6     533.0        1.3022        0.0018        5.9675        5.9693       4.667173       0.03093
   5     589.8        1.3086        0.0019        5.7368        5.7387       4.430132       0.03518
   4     651.6        1.3178        0.0021        5.4662        5.4683       4.150473       0.03824
   3     718.7        1.3305        0.0022        5.1912        5.1934       3.862909       0.03614
   2     792.3        1.3468        0.0023        4.9395        4.9418       3.595019       0.03072
   1     891.5        1.3747        0.0025        4.6486        4.6511       3.276421       0.02711
   0    1013.0        1.4247        0.0027        4.3179        4.3205       2.895848       0.02643



 Wavenumbers:  4650. -  5150. cm-1, ATM      1
 LEVEL PRESSURE   UPWARD FLUX   DIFDOWN FLUX  DIRDOWN FLUX  DOWNWARD FLUX   NET FLUX    HEATING RATE
          mb          W/m2          W/m2          W/m2        W/m2          W/m2       degree/day
  51    .06700        0.6386        0.0000        6.5710        6.5710       5.932407       0.00000
  50    .07753        0.6386        0.0000        6.5708        6.5708       5.932171       0.18887
  49    .09103        0.6386        0.0000        6.5705        6.5705       5.931877       0.18362
  48    0.1069        0.6386        0.0000        6.5701        6.5701       5.931543       0.17806
  47    0.1255        0.6386        0.0000        6.5697        6.5697       5.931162       0.17238
  46    0.1487        0.6386        0.0000        6.5693        6.5693       5.930689       0.17268
  45    0.1794        0.6386        0.0000        6.5686        6.5686       5.930052       0.17473
  44    0.2165        0.6386        0.0000        6.5679        6.5679       5.929314       0.16788
  43    0.2613        0.6386        0.0000        6.5670        6.5670       5.928461       0.16078
  42    0.3336        0.6386        0.0000        6.5657        6.5657       5.927098       0.15894
  41    0.4307        0.6386        0.0000        6.5640        6.5640       5.925376       0.14971
  40    0.5894        0.6386        0.0000        6.5613        6.5613       5.922760       0.13913
  39     1.339        0.6386        0.0000        6.5516        6.5516       5.912982       0.11008
  38     1.782        0.6386        0.0000        6.5473        6.5473       5.908767       0.08026
  37     2.292        0.6386        0.0000        6.5434        6.5435       5.904880       0.06438
  36     2.964        0.6386        0.0000        6.5395        6.5395       5.900925       0.04964
  35     3.853        0.6386        0.0000        6.5355        6.5356       5.896983       0.03742
  34     5.035        0.6386        0.0000        6.5315        6.5315       5.892981       0.02859
  33     6.613        0.6386        0.0000        6.5271        6.5271       5.888587       0.02349
  32     8.786        0.6385        0.0000        6.5216        6.5216       5.883092       0.02134
  31     11.80        0.6385        0.0001        6.5135        6.5135       5.875015       0.02262
  30     15.07        0.6385        0.0001        6.5041        6.5042       5.865647       0.02418
  29     18.79        0.6385        0.0001        6.4925        6.4926       5.854133       0.02611
  28     23.16        0.6385        0.0001        6.4779        6.4780       5.839544       0.02821
  27     28.12        0.6385        0.0002        6.4599        6.4600       5.821572       0.03055
  26     33.73        0.6384        0.0002        6.4384        6.4386       5.800146       0.03222
  25     40.54        0.6384        0.0002        6.4112        6.4115       5.773028       0.03364
  24     48.69        0.6384        0.0003        6.3775        6.3778       5.739401       0.03480
  23     57.69        0.6384        0.0003        6.3404        6.3407       5.702323       0.03475
  22     68.43        0.6384        0.0004        6.2971        6.2975       5.659152       0.03394
  21     81.20        0.6383        0.0004        6.2483        6.2487       5.610365       0.03224
  20     96.49        0.6383        0.0005        6.1948        6.1954       5.557032       0.02944
  19     114.6        0.6383        0.0006        6.1381        6.1388       5.500450       0.02642
  18     136.5        0.6383        0.0007        6.0790        6.0797       5.441414       0.02270
  17     162.9        0.6384        0.0009        6.0160        6.0169       5.378554       0.02009
  16     196.4        0.6384        0.0010        5.9399        5.9409       5.302464       0.01915
  15     218.7        0.6385        0.0011        5.8896        5.8908       5.252246       0.01907
  14     243.0        0.6387        0.0013        5.8322        5.8334       5.194767       0.01994
  13     269.0        0.6389        0.0014        5.7624        5.7638       5.124857       0.02268
  12     297.5        0.6393        0.0015        5.6767        5.6782       5.038918       0.02549
  11     328.5        0.6399        0.0016        5.5726        5.5742       4.934333       0.02844
  10     361.9        0.6407        0.0018        5.4473        5.4491       4.808383       0.03187
   9     398.1        0.6419        0.0019        5.2995        5.3014       4.659541       0.03468
   8     437.6        0.6434        0.0021        5.1275        5.1295       4.486106       0.03708
   7     480.5        0.6456        0.0022        4.9290        4.9312       4.285599       0.03938
   6     533.0        0.6490        0.0023        4.6794        4.6817       4.032739       0.04068
   5     589.8        0.6537        0.0025        4.4188        4.4212       3.767503       0.03937
   4     651.6        0.6605        0.0026        4.1521        4.1547       3.494218       0.03737
   3     718.7        0.6694        0.0027        3.8929        3.8956       3.226225       0.03368
   2     792.3        0.6810        0.0028        3.6469        3.6497       2.968653       0.02954
   1     891.5        0.7009        0.0030        3.3535        3.3564       2.655578       0.02664
   0    1013.0        0.7348        0.0031        3.0383        3.0414       2.306613       0.02423



 Wavenumbers:  5150. -  6150. cm-1, ATM      1
 LEVEL PRESSURE   UPWARD FLUX   DIFDOWN FLUX  DIRDOWN FLUX  DOWNWARD FLUX   NET FLUX    HEATING RATE
          mb          W/m2          W/m2          W/m2        W/m2          W/m2       degree/day
  51    .06700        2.5570        0.0000       16.4735       16.4735      13.916520       0.00000
  50    .07753        2.5570        0.0000       16.4735       16.4735      13.916485       0.02761
  49    .09103        2.5570        0.0000       16.4734       16.4734      13.916441       0.02811
  48    0.1069        2.5570        0.0000       16.4734       16.4734      13.916387       0.02860
  47    0.1255        2.5570        0.0000       16.4733       16.4733      13.916323       0.02905
  46    0.1487        2.5570        0.0000       16.4732       16.4732      13.916239       0.03060
  45    0.1794        2.5570        0.0000       16.4731       16.4731      13.916120       0.03269
  44    0.2165        2.5570        0.0000       16.4730       16.4730      13.915973       0.03331
  43    0.2613        2.5570        0.0000       16.4728       16.4728      13.915794       0.03376
  42    0.3336        2.5570        0.0000       16.4725       16.4725      13.915488       0.03564
  41    0.4307        2.5570        0.0000       16.4720       16.4720      13.915069       0.03646
  40    0.5894        2.5570        0.0000       16.4713       16.4713      13.914368       0.03729
  39     1.339        2.5570        0.0000       16.4679       16.4679      13.910959       0.03838
  38     1.782        2.5570        0.0000       16.4659       16.4659      13.908959       0.03807
  37     2.292        2.5569        0.0001       16.4635       16.4636      13.906667       0.03796
  36     2.964        2.5569        0.0001       16.4605       16.4606      13.903697       0.03728
  35     3.853        2.5569        0.0001       16.4567       16.4568      13.899843       0.03658
  34     5.035        2.5569        0.0001       16.4516       16.4517      13.894844       0.03571
  33     6.613        2.5569        0.0002       16.4451       16.4452      13.888381       0.03455
  32     8.786        2.5568        0.0002       16.4367       16.4369      13.880066       0.03229
  31     11.80        2.5568        0.0003       16.4254       16.4257      13.868910       0.03123
  30     15.07        2.5567        0.0004       16.4141       16.4145      13.857817       0.02864
  29     18.79        2.5566        0.0005       16.4024       16.4029      13.846288       0.02614
  28     23.16        2.5566        0.0006       16.3900       16.3906      13.834018       0.02373
  27     28.12        2.5565        0.0007       16.3771       16.3778      13.821342       0.02155
  26     33.73        2.5564        0.0009       16.3641       16.3650      13.808602       0.01916
  25     40.54        2.5563        0.0011       16.3502       16.3512      13.794942       0.01695
  24     48.69        2.5562        0.0013       16.3354       16.3366      13.780444       0.01500
  23     57.69        2.5561        0.0015       16.3211       16.3226      13.766514       0.01306
  22     68.43        2.5560        0.0018       16.3062       16.3080      13.752088       0.01134
  21     81.20        2.5558        0.0021       16.2903       16.2925      13.736649       0.01020
  20     96.49        2.5556        0.0025       16.2726       16.2752      13.719519       0.00945
  19     114.6        2.5554        0.0030       16.2521       16.2551      13.699635       0.00928
  18     136.5        2.5552        0.0036       16.2245       16.2281      13.672889       0.01028
  17     162.9        2.5550        0.0042       16.1747       16.1790      13.623999       0.01563
  16     196.4        2.5547        0.0051       16.0518       16.0569      13.502250       0.03065
  15     218.7        2.5545        0.0056       15.8984       15.9040      13.349502       0.05799
  14     243.0        2.5543        0.0062       15.6153       15.6214      13.067082       0.09795
  13     269.0        2.5542        0.0067       15.1390       15.1457      12.591427       0.15430
  12     297.5        2.5542        0.0072       14.5779       14.5851      12.030821       0.16627
  11     328.5        2.5544        0.0076       13.8780       13.8856      11.331258       0.19021
  10     361.9        2.5548        0.0080       13.0814       13.0895      10.534713       0.20153
   9     398.1        2.5554        0.0084       12.2728       12.2812       9.725811       0.18846
   8     437.6        2.5565        0.0087       11.4776       11.4863       8.929764       0.17020
   7     480.5        2.5583        0.0090       10.7300       10.7390       8.180682       0.14712
   6     533.0        2.5615        0.0093       10.0326       10.0420       7.480482       0.11264
   5     589.8        2.5665        0.0098        9.5050        9.5148       6.948349       0.07899
   4     651.6        2.5743        0.0104        9.0814        9.0917       6.517472       0.05892
   3     718.7        2.5855        0.0110        8.7024        8.7134       6.127957       0.04895
   2     792.3        2.6008        0.0117        8.3379        8.3497       5.748913       0.04347
   1     891.5        2.6288        0.0126        7.9064        7.9190       5.290162       0.03904
   0    1013.0        2.6862        0.0136        7.4741        7.4877       4.801505       0.03393



 Wavenumbers:  6150. -  7700. cm-1, ATM      1
 LEVEL PRESSURE   UPWARD FLUX   DIFDOWN FLUX  DIRDOWN FLUX  DOWNWARD FLUX   NET FLUX    HEATING RATE
          mb          W/m2          W/m2          W/m2        W/m2          W/m2       degree/day
  51    .06700        3.7799        0.0000       30.4684       30.4684      26.688528       0.00000
  50    .07753        3.7799        0.0000       30.4683       30.4683      26.688476       0.04144
  49    .09103        3.7799        0.0000       30.4683       30.4683      26.688409       0.04174
  48    0.1069        3.7799        0.0000       30.4682       30.4682      26.688330       0.04202
  47    0.1255        3.7799        0.0000       30.4681       30.4681      26.688237       0.04227
  46    0.1487        3.7798        0.0000       30.4680       30.4680      26.688116       0.04411
  45    0.1794        3.7798        0.0000       30.4678       30.4678      26.687946       0.04669
  44    0.2165        3.7798        0.0000       30.4676       30.4676      26.687739       0.04715
  43    0.2613        3.7798        0.0000       30.4673       30.4673      26.687487       0.04744
  42    0.3336        3.7798        0.0000       30.4669       30.4669      26.687060       0.04974
  41    0.4307        3.7798        0.0000       30.4663       30.4663      26.686479       0.05052
  40    0.5894        3.7798        0.0001       30.4653       30.4653      26.685512       0.05146
  39     1.339        3.7797        0.0001       30.4604       30.4606      26.680828       0.05273
  38     1.782        3.7797        0.0002       30.4576       30.4578      26.678078       0.05235
  37     2.292        3.7796        0.0002       30.4543       30.4546      26.674920       0.05231
  36     2.964        3.7796        0.0003       30.4501       30.4504      26.670812       0.05156
  35     3.853        3.7795        0.0004       30.4445       30.4449      26.665455       0.05084
  34     5.035        3.7794        0.0006       30.4373       30.4378      26.658455       0.05000
  33     6.613        3.7792        0.0007       30.4278       30.4285      26.649308       0.04890
  32     8.786        3.7790        0.0010       30.4154       30.4164      26.637355       0.04642
  31     11.80        3.7787        0.0013       30.3984       30.3997      26.620970       0.04587
  30     15.07        3.7784        0.0017       30.3810       30.3826      26.604256       0.04315
  29     18.79        3.7780        0.0021       30.3623       30.3644      26.586356       0.04059
  28     23.16        3.7776        0.0026       30.3417       30.3443      26.566673       0.03806
  27     28.12        3.7771        0.0031       30.3196       30.3227      26.545573       0.03587
  26     33.73        3.7765        0.0037       30.2965       30.3002      26.523654       0.03296
  25     40.54        3.7759        0.0045       30.2708       30.2752      26.499317       0.03019
  24     48.69        3.7751        0.0053       30.2423       30.2476      26.472541       0.02771
  23     57.69        3.7742        0.0063       30.2139       30.2202      26.445975       0.02490
  22     68.43        3.7732        0.0075       30.1834       30.1909      26.417700       0.02223
  21     81.20        3.7719        0.0089       30.1500       30.1589      26.386971       0.02031
  20     96.49        3.7704        0.0106       30.1126       30.1232      26.352753       0.01889
  19     114.6        3.7687        0.0125       30.0695       30.0820      26.313368       0.01839
  18     136.5        3.7666        0.0149       30.0139       30.0288      26.262214       0.01967
  17     162.9        3.7641        0.0177       29.9225       29.9401      26.176036       0.02755
  16     196.4        3.7609        0.0212       29.7333       29.7545      25.993647       0.04591
  15     218.7        3.7588        0.0235       29.5259       29.5494      25.790516       0.07712
  14     243.0        3.7567        0.0259       29.1375       29.1633      25.406685       0.13313
  13     269.0        3.7545        0.0282       28.3800       28.4082      24.653695       0.24427
  12     297.5        3.7523        0.0303       27.3895       27.4198      23.667490       0.29250
  11     328.5        3.7504        0.0323       26.2257       26.2580      22.507581       0.31538
  10     361.9        3.7490        0.0342       24.8453       24.8795      21.130542       0.34840
   9     398.1        3.7481        0.0358       23.3471       23.3828      19.634697       0.34850
   8     437.6        3.7484        0.0371       21.7966       21.8337      18.085370       0.33126
   7     480.5        3.7505        0.0382       20.1977       20.2359      16.485386       0.31423
   6     533.0        3.7563        0.0392       18.4969       18.5362      14.779864       0.27436
   5     589.8        3.7673        0.0403       16.9754       17.0157      13.248307       0.22733
   4     651.6        3.7865        0.0413       15.6022       15.6435      11.856973       0.19027
   3     718.7        3.8157        0.0425       14.4232       14.4657      10.650031       0.15168
   2     792.3        3.8565        0.0440       13.4386       13.4826       9.626041       0.11744
   1     891.5        3.9326        0.0460       12.3736       12.4196       8.486947       0.09693
   0    1013.0        4.0857        0.0482       11.2911       11.3393       7.253648       0.08563



 Wavenumbers:  7700. -  8050. cm-1, ATM      1
 LEVEL PRESSURE   UPWARD FLUX   DIFDOWN FLUX  DIRDOWN FLUX  DOWNWARD FLUX   NET FLUX    HEATING RATE
          mb          W/m2          W/m2          W/m2        W/m2          W/m2       degree/day
  51    .06700        3.5493        0.0000        7.2006        7.2006       3.651301       0.00000
  50    .07753        3.5493        0.0000        7.2006        7.2006       3.651281       0.01602
  49    .09103        3.5493        0.0000        7.2005        7.2005       3.651256       0.01570
  48    0.1069        3.5493        0.0000        7.2005        7.2005       3.651227       0.01537
  47    0.1255        3.5493        0.0000        7.2005        7.2005       3.651194       0.01504
  46    0.1487        3.5493        0.0000        7.2004        7.2005       3.651152       0.01526
  45    0.1794        3.5493        0.0000        7.2004        7.2004       3.651095       0.01571
  44    0.2165        3.5493        0.0000        7.2003        7.2003       3.651027       0.01541
  43    0.2613        3.5493        0.0000        7.2003        7.2003       3.650947       0.01512
  42    0.3336        3.5493        0.0000        7.2001        7.2001       3.650815       0.01547
  41    0.4307        3.5493        0.0000        7.2000        7.2000       3.650639       0.01530
  40    0.5894        3.5494        0.0000        7.1997        7.1997       3.650351       0.01528
  39     1.339        3.5495        0.0001        7.1984        7.1985       3.648992       0.01530
  38     1.782        3.5496        0.0001        7.1977        7.1978       3.648194       0.01519
  37     2.292        3.5497        0.0001        7.1968        7.1969       3.647270       0.01530
  36     2.964        3.5498        0.0001        7.1957        7.1958       3.646058       0.01522
  35     3.853        3.5499        0.0002        7.1942        7.1944       3.644458       0.01519
  34     5.035        3.5501        0.0002        7.1922        7.1925       3.642332       0.01518
  33     6.613        3.5504        0.0003        7.1896        7.1899       3.639496       0.01516
  32     8.786        3.5508        0.0004        7.1860        7.1865       3.635679       0.01482
  31     11.80        3.5513        0.0006        7.1810        7.1816       3.630230       0.01526
  30     15.07        3.5519        0.0007        7.1755        7.1763       3.624395       0.01507
  29     18.79        3.5525        0.0009        7.1694        7.1704       3.617821       0.01490
  28     23.16        3.5533        0.0011        7.1623        7.1635       3.610170       0.01480
  27     28.12        3.5542        0.0014        7.1542        7.1556       3.601455       0.01481
  26     33.73        3.5552        0.0017        7.1452        7.1469       3.591748       0.01459
  25     40.54        3.5563        0.0020        7.1344        7.1364       3.580084       0.01447
  24     48.69        3.5578        0.0024        7.1215        7.1239       3.566117       0.01445
  23     57.69        3.5594        0.0028        7.1074        7.1103       3.550892       0.01427
  22     68.43        3.5613        0.0033        7.0909        7.0942       3.532919       0.01413
  21     81.20        3.5636        0.0040        7.0713        7.0753       3.511730       0.01400
  20     96.49        3.5663        0.0047        7.0484        7.0531       3.486791       0.01376
  19     114.6        3.5696        0.0056        7.0217        7.0272       3.457603       0.01363
  18     136.5        3.5736        0.0066        6.9906        6.9972       3.423576       0.01308
  17     162.9        3.5784        0.0078        6.9544        6.9622       3.383812       0.01271
  16     196.4        3.5847        0.0094        6.9087        6.9181       3.333402       0.01269
  15     218.7        3.5890        0.0104        6.8794        6.8898       3.300892       0.01234
  14     243.0        3.5936        0.0115        6.8481        6.8597       3.266033       0.01209
  13     269.0        3.5988        0.0128        6.8147        6.8275       3.228678       0.01212
  12     297.5        3.6045        0.0141        6.7791        6.7931       3.188610       0.01188
  11     328.5        3.6109        0.0155        6.7409        6.7564       3.145487       0.01172
  10     361.9        3.6181        0.0170        6.7002        6.7171       3.099021       0.01176
   9     398.1        3.6262        0.0186        6.6563        6.6749       3.048643       0.01174
   8     437.6        3.6354        0.0203        6.6089        6.6292       2.993747       0.01174
   7     480.5        3.6461        0.0222        6.5570        6.5792       2.933098       0.01191
   6     533.0        3.6603        0.0244        6.4915        6.5159       2.855585       0.01247
   5     589.8        3.6773        0.0268        6.4182        6.4451       2.767761       0.01304
   4     651.6        3.6978        0.0294        6.3359        6.3653       2.667546       0.01370
   3     718.7        3.7221        0.0321        6.2441        6.2763       2.554186       0.01425
   2     792.3        3.7506        0.0350        6.1437        6.1788       2.428128       0.01446
   1     891.5        3.7935        0.0388        6.0042        6.0430       2.249566       0.01519
   0    1013.0        3.8540        0.0433        5.8249        5.8682       2.014175       0.01634



 Wavenumbers:  8050. - 12850. cm-1, ATM      1
 LEVEL PRESSURE   UPWARD FLUX   DIFDOWN FLUX  DIRDOWN FLUX  DOWNWARD FLUX   NET FLUX    HEATING RATE
          mb          W/m2          W/m2          W/m2        W/m2          W/m2       degree/day
  51    .06700       58.7744        0.0000      100.8135      100.8135      42.039121       0.00000
  50    .07753       58.7744        0.0000      100.8135      100.8135      42.039121       0.00000
  49    .09103       58.7744        0.0001      100.8134      100.8135      42.039121      -0.00000
  48    0.1069       58.7743        0.0001      100.8134      100.8135      42.039121      -0.00000
  47    0.1255       58.7743        0.0001      100.8133      100.8134      42.039121       0.00000
  46    0.1487       58.7743        0.0002      100.8132      100.8134      42.039121      -0.00000
  45    0.1794       58.7742        0.0003      100.8131      100.8134      42.039121       0.00000
  44    0.2165       58.7742        0.0004      100.8129      100.8133      42.039121       0.00000
  43    0.2613       58.7741        0.0005      100.8127      100.8132      42.039121       0.00000
  42    0.3336       58.7740        0.0007      100.8125      100.8131      42.039121      -0.00000
  41    0.4307       58.7739        0.0009      100.8121      100.8130      42.039121       0.00000
  40    0.5894       58.7736        0.0013      100.8115      100.8128      42.039121      -0.00000
  39     1.339       58.7726        0.0032      100.8085      100.8117      42.039121       0.00000
  38     1.782       58.7719        0.0043      100.8068      100.8111      42.039121       0.00000
  37     2.292       58.7712        0.0056      100.8047      100.8103      42.039121       0.00000
  36     2.964       58.7703        0.0073      100.8021      100.8094      42.039121      -0.00000
  35     3.853       58.7690        0.0095      100.7986      100.8081      42.039121       0.00000
  34     5.035       58.7673        0.0125      100.7940      100.8064      42.039121      -0.00000
  33     6.613       58.7651        0.0164      100.7878      100.8042      42.039121       0.00000
  32     8.786       58.7620        0.0218      100.7794      100.8012      42.039121       0.00000
  31     11.80       58.7577        0.0294      100.7674      100.7968      42.039121       0.00000
  30     15.07       58.7531        0.0376      100.7546      100.7922      42.039121      -0.00000
  29     18.79       58.7478        0.0469      100.7400      100.7869      42.039121      -0.00000
  28     23.16       58.7416        0.0578      100.7230      100.7807      42.039121      -0.00000
  27     28.12       58.7346        0.0702      100.7035      100.7737      42.039121       0.00000
  26     33.73       58.7267        0.0841      100.6817      100.7658      42.039121       0.00000
  25     40.54       58.7171        0.1010      100.6552      100.7562      42.039121      -0.00000
  24     48.69       58.7056        0.1213      100.6234      100.7447      42.039121      -0.00000
  23     57.69       58.6929        0.1437      100.5883      100.7320      42.039121       0.00000
  22     68.43       58.6777        0.1704      100.5464      100.7168      42.039121      -0.00000
  21     81.20       58.6596        0.2022      100.4965      100.6988      42.039121       0.00000
  20     96.49       58.6381        0.2402      100.4370      100.6772      42.039121       0.00000
  19     114.6       58.6125        0.2854      100.3585      100.6439      42.031352       0.00363
  18     136.5       58.5822        0.3391      100.2634      100.6024      42.020178       0.00430
  17     162.9       58.5462        0.4031      100.1407      100.5437      41.997539       0.00724
  16     196.4       58.4995        0.4862       99.9505      100.4367      41.937208       0.01519
  15     218.7       58.4688        0.5408       99.7889      100.3298      41.860963       0.02895
  14     243.0       58.4357        0.6001       99.5472      100.1473      41.711643       0.05179
  13     269.0       58.4008        0.6641       99.1452       99.8094      41.408587       0.09831
  12     297.5       58.3648        0.7328       98.5975       99.3303      40.965474       0.13142
  11     328.5       58.3291        0.8065       97.8659       98.6723      40.343215       0.16919
  10     361.9       58.2957        0.8848       96.8848       97.7696      39.473891       0.21995
   9     398.1       58.2673        0.9677       95.6330       96.6007      38.333424       0.26570
   8     437.6       58.2487        1.0547       94.0655       95.1202      36.871459       0.31258
   7     480.5       58.2498        1.1449       92.0807       93.2257      34.975915       0.37228
   6     533.0       58.2864        1.2520       89.4449       90.6968      32.410428       0.41271
   5     589.8       58.3784        1.3629       86.5544       87.9173      29.538930       0.42622
   4     651.6       58.5554        1.4774       83.4174       84.8948      26.339396       0.43754
   3     718.7       58.8358        1.5962       80.2037       81.7999      22.964084       0.42418
   2     792.3       59.2361        1.7200       77.0811       78.8011      19.564920       0.38985
   1     891.5       59.9900        1.8807       73.2645       75.1452      15.155256       0.37524
   0    1013.0       61.4567        2.0613       68.9425       71.0038       9.547055       0.38941



 Wavenumbers: 12850. - 16000. cm-1, ATM      1
 LEVEL PRESSURE   UPWARD FLUX   DIFDOWN FLUX  DIRDOWN FLUX  DOWNWARD FLUX   NET FLUX    HEATING RATE
          mb          W/m2          W/m2          W/m2        W/m2          W/m2       degree/day
  51    .06700       50.0075        0.0000       63.1686       63.1686      13.161097       0.00000
  50    .07753       50.0075        0.0001       63.1677       63.1678      13.160315       0.62737
  49    .09103       50.0074        0.0001       63.1666       63.1668      13.159339       0.61012
  48    0.1069       50.0074        0.0002       63.1654       63.1656      13.158226       0.59213
  47    0.1255       50.0074        0.0003       63.1640       63.1644      13.156960       0.57413
  46    0.1487       50.0074        0.0005       63.1623       63.1628      13.155378       0.57639
  45    0.1794       50.0074        0.0006       63.1600       63.1606      13.153255       0.58285
  44    0.2165       50.0073        0.0008       63.1573       63.1581      13.150796       0.55937
  43    0.2613       50.0073        0.0011       63.1542       63.1553      13.147955       0.53560
  42    0.3336       50.0074        0.0015       63.1493       63.1508      13.143417       0.52906
  41    0.4307       50.0075        0.0020       63.1431       63.1452      13.137725       0.49490
  40    0.5894       50.0077        0.0029       63.1338       63.1368      13.129065       0.46055
  39     1.339       50.0106        0.0071       63.0956       63.1027      13.092100       0.41616
  38     1.782       50.0136        0.0096       63.0740       63.0836      13.069987       0.42099
  37     2.292       50.0183        0.0124       63.0477       63.0601      13.041739       0.46787
  36     2.964       50.0264        0.0161       63.0095       63.0257      12.999236       0.53354
  35     3.853       50.0398        0.0211       62.9533       62.9743      12.934540       0.61397
  34     5.035       50.0601        0.0276       62.8725       62.9001      12.839974       0.67554
  33     6.613       50.0886        0.0363       62.7621       62.7984      12.709736       0.69625
  32     8.786       50.1256        0.0480       62.6182       62.6663      12.540621       0.65678
  31     11.80       50.1734        0.0648       62.4284       62.4931      12.319674       0.61858
  30     15.07       50.2187        0.0827       62.2426       62.3253      12.106558       0.55022
  29     18.79       50.2645        0.1029       62.0493       62.1522      11.887707       0.49620
  28     23.16       50.3117        0.1265       61.8424       61.9689      11.657218       0.44569
  27     28.12       50.3584        0.1534       61.6278       61.7812      11.422786       0.39852
  26     33.73       50.4002        0.1834       61.4177       61.6011      11.200861       0.33367
  25     40.54       50.4387        0.2197       61.1983       61.4180      10.979274       0.27490
  24     48.69       50.4733        0.2633       60.9680       61.2313      10.757962       0.22902
  23     57.69       50.5000        0.3112       60.7478       61.0590      10.558989       0.18651
  22     68.43       50.5195        0.3682       60.5202       60.8884      10.368916       0.14942
  21     81.20       50.5258        0.4361       60.2938       60.7300      10.204132       0.10889
  20     96.49       50.5178        0.5171       60.0643       60.5813      10.063541       0.07760
  19     114.6       50.5100        0.6139       59.8078       60.4217       9.911728       0.07089
  18     136.5       50.4934        0.7285       59.5157       60.2442       9.750836       0.06187
  17     162.9       50.4670        0.8647       59.1770       60.0417       9.574736       0.05629
  16     196.4       50.4186        1.0410       58.7604       59.8014       9.382758       0.04832
  15     218.7       50.3818        1.1565       58.4948       59.6513       9.269494       0.04300
  14     243.0       50.3395        1.2818       58.2089       59.4907       9.151225       0.04102
  13     269.0       50.2918        1.4175       57.9006       59.3181       9.026273       0.04053
  12     297.5       50.2388        1.5638       57.5668       59.1306       8.891799       0.03988
  11     328.5       50.1821        1.7216       57.2005       58.9221       8.740051       0.04126
  10     361.9       50.1226        1.8912       56.7963       58.6875       8.564953       0.04430
   9     398.1       50.0614        2.0732       56.3475       58.4207       8.359251       0.04792
   8     437.6       50.0013        2.2679       55.8422       58.1102       8.108883       0.05353
   7     480.5       49.9468        2.4757       55.2625       57.7383       7.791484       0.06234
   6     533.0       49.8965        2.7298       54.4972       57.2269       7.330425       0.07417
   5     589.8       49.8632        3.0004       53.6307       56.6311       6.767963       0.08349
   4     651.6       49.8560        3.2870       52.6606       55.9476       6.091595       0.09250
   3     718.7       49.8796        3.5898       51.6100       55.1998       5.320258       0.09694
   2     792.3       49.9401        3.9088       50.5019       54.4107       4.470531       0.09745
   1     891.5       50.0934        4.3304       49.0197       53.3501       3.256627       0.10330
   0    1013.0       50.4233        4.8211       47.2289       52.0500       1.626664       0.11318



 Wavenumbers: 16000. - 22650. cm-1, ATM      1
 LEVEL PRESSURE   UPWARD FLUX   DIFDOWN FLUX  DIRDOWN FLUX  DOWNWARD FLUX   NET FLUX    HEATING RATE
          mb          W/m2          W/m2          W/m2        W/m2          W/m2       degree/day
  51    .06700       88.3218        0.0000      100.7153      100.7153      12.393458       0.00000
  50    .07753       88.3217        0.0003      100.7147      100.7151      12.393335       0.09850
  49    .09103       88.3216        0.0008      100.7140      100.7148      12.393156       0.11172
  48    0.1069       88.3215        0.0013      100.7131      100.7144      12.392917       0.12739
  47    0.1255       88.3213        0.0018      100.7121      100.7139      12.392596       0.14521
  46    0.1487       88.3212        0.0025      100.7108      100.7133      12.392124       0.17207
  45    0.1794       88.3210        0.0035      100.7089      100.7124      12.391386       0.20260
  44    0.2165       88.3208        0.0047      100.7066      100.7112      12.390385       0.22770
  43    0.2613       88.3207        0.0060      100.7037      100.7097      12.389027       0.25598
  42    0.3336       88.3205        0.0083      100.6987      100.7070      12.386445       0.30103
  41    0.4307       88.3205        0.0113      100.6918      100.7030      12.382554       0.33838
  40    0.5894       88.3208        0.0162      100.6797      100.6959      12.375132       0.39469
  39     1.339       88.3285        0.0393      100.6095      100.6488      12.320307       0.61723
  38     1.782       88.3377        0.0529      100.5585      100.6113      12.273616       0.88893
  37     2.292       88.3528        0.0686      100.4903      100.5588      12.206048       1.11909
  36     2.964       88.3793        0.0892      100.3868      100.4760      12.096634       1.37348
  35     3.853       88.4239        0.1164      100.2306      100.3470      11.923131       1.64657
  34     5.035       88.4925        0.1525      100.0045      100.1570      11.664528       1.84735
  33     6.613       88.5889        0.2006       99.6939       99.8945      11.305634       1.91865
  32     8.786       88.7139        0.2653       99.2881       99.5534      10.839481       1.81037
  31     11.80       88.8745        0.3576       98.7496       99.1072      10.232725       1.69873
  30     15.07       89.0255        0.4563       98.2198       98.6761       9.650606       1.50292
  29     18.79       89.1770        0.5675       97.6651       98.2326       9.055594       1.34908
  28     23.16       89.3318        0.6969       97.0671       97.7640       8.432160       1.20552
  27     28.12       89.4831        0.8443       96.4406       97.2849       7.801773       1.07162
  26     33.73       89.6153        1.0088       95.8179       96.8267       7.211414       0.88762
  25     40.54       89.7320        1.2069       95.1548       96.3617       6.629670       0.72172
  24     48.69       89.8313        1.4449       94.4420       95.8868       6.055522       0.59415
  23     57.69       89.9003        1.7053       93.7416       95.4469       5.546624       0.47701
  22     68.43       89.9392        2.0142       92.9954       95.0096       5.070360       0.37441
  21     81.20       89.9266        2.3810       92.2231       94.6042       4.677579       0.25954
  20     96.49       89.8570        2.8163       91.4110       94.2273       4.370264       0.16962
  19     114.6       89.7474        3.3297       90.5070       93.8367       4.089281       0.13120
  18     136.5       89.6000        3.9335       89.4803       93.4137       3.813775       0.10594
  17     162.9       89.4091        4.6457       88.3022       92.9479       3.538805       0.08789
  16     196.4       89.1275        5.5593       86.8606       92.4200       3.292504       0.06200
  15     218.7       88.9308        6.1532       85.9492       92.1024       3.171610       0.04590
  14     243.0       88.7126        6.7933       84.9789       91.7722       3.059642       0.03883
  13     269.0       88.4717        7.4806       83.9493       91.4299       2.958201       0.03291
  12     297.5       88.2076        8.2161       82.8589       91.0750       2.867437       0.02692
  11     328.5       87.9223        9.0024       81.6982       90.7006       2.778335       0.02423
  10     361.9       87.6160        9.8395       80.4669       90.3064       2.690365       0.02226
   9     398.1       87.2882       10.7294       79.1611       89.8905       2.602276       0.02052
   8     437.6       86.9397       11.6726       77.7777       89.4504       2.510610       0.01960
   7     480.5       86.5712       12.6697       76.3136       88.9834       2.412133       0.01934
   6     533.0       86.1258       13.8775       74.5359       88.4134       2.287560       0.02004
   5     589.8       85.6575       15.1556       72.6469       87.8025       2.144996       0.02116
   4     651.6       85.1694       16.5023       70.6456       87.1479       1.978427       0.02278
   3     718.7       84.6625       17.9157       68.5367       86.4524       1.789891       0.02369
   2     792.3       84.1403       19.3909       66.3287       85.7196       1.579272       0.02416
   1     891.5       83.4727       21.3197       63.4246       84.7443       1.271594       0.02618
   0    1013.0       82.7323       23.5421       60.0483       83.5905       0.858150       0.02871



 Wavenumbers: 22650. - 29000. cm-1, ATM      1
 LEVEL PRESSURE   UPWARD FLUX   DIFDOWN FLUX  DIRDOWN FLUX  DOWNWARD FLUX   NET FLUX    HEATING RATE
          mb          W/m2          W/m2          W/m2        W/m2          W/m2       degree/day
  51    .06700       37.8057        0.0000       38.0063       38.0063       0.200589       0.00000
  50    .07753       37.8055        0.0004       38.0057       38.0061       0.200589      -0.00000
  49    .09103       37.8053        0.0009       38.0050       38.0059       0.200589       0.00000
  48    0.1069       37.8051        0.0015       38.0042       38.0057       0.200589      -0.00000
  47    0.1255       37.8049        0.0021       38.0033       38.0055       0.200589       0.00000
  46    0.1487       37.8045        0.0030       38.0022       38.0051       0.200589      -0.00000
  45    0.1794       37.8041        0.0041       38.0006       38.0047       0.200589       0.00000
  44    0.2165       37.8036        0.0054       37.9987       38.0042       0.200589       0.00000
  43    0.2613       37.8029        0.0070       37.9965       38.0035       0.200589       0.00000
  42    0.3336       37.8019        0.0097       37.9928       38.0025       0.200589       0.00000
  41    0.4307       37.8005        0.0131       37.9880       38.0011       0.200589       0.00000
  40    0.5894       37.7983        0.0189       37.9800       37.9989       0.200589      -0.00000
  39     1.339       37.7877        0.0458       37.9425       37.9883       0.200589       0.00000
  38     1.782       37.7815        0.0617       37.9204       37.9821       0.200589       0.00000
  37     2.292       37.7743        0.0800       37.8949       37.9749       0.200589       0.00000
  36     2.964       37.7649        0.1040       37.8614       37.9655       0.200589      -0.00000
  35     3.853       37.7524        0.1358       37.8172       37.9530       0.200589       0.00000
  34     5.035       37.7359        0.1779       37.7586       37.9365       0.200589      -0.00000
  33     6.613       37.7138        0.2341       37.6803       37.9144       0.200589       0.00000
  32     8.786       37.6841        0.3097       37.5750       37.8847       0.200589       0.00000
  31     11.80       37.6418        0.4175       37.4249       37.8424       0.200589      -0.00000
  30     15.07       37.5965        0.5329       37.2642       37.7971       0.200589       0.00000
  29     18.79       37.5455        0.6628       37.0833       37.7461       0.200589      -0.00000
  28     23.16       37.4862        0.8138       36.8730       37.6868       0.200589       0.00000
  27     28.12       37.4188        0.9856       36.6338       37.6194       0.200589      -0.00000
  26     33.73       37.3438        1.1767       36.3677       37.5444       0.200589       0.00000
  25     40.54       37.2538        1.4058       36.0486       37.4544       0.200589       0.00000
  24     48.69       37.1463        1.6797       35.6672       37.3469       0.200589       0.00000
  23     57.69       37.0294        1.9773       35.2527       37.2300       0.200589       0.00000
  22     68.43       36.8919        2.3275       34.7649       37.0925       0.200589      -0.00000
  21     81.20       36.7304        2.7387       34.1922       36.9310       0.200589       0.00000
  20     96.49       36.5413        3.2201       33.5217       36.7419       0.200589       0.00000
  19     114.6       36.3214        3.7797       32.7424       36.5220       0.200589      -0.00000
  18     136.5       36.0673        4.4263       31.8416       36.2679       0.200589       0.00000
  17     162.9       35.7737        5.1735       30.8008       35.9743       0.200589      -0.00000
  16     196.4       35.4068        6.1067       29.5007       35.6074       0.200589       0.00000
  15     218.7       35.1742        6.6981       28.6767       35.3748       0.200589      -0.00000
  14     243.0       34.9286        7.3224       27.8068       35.1292       0.200589       0.00000
  13     269.0       34.6707        7.9780       26.8933       34.8713       0.200589       0.00000
  12     297.5       34.4013        8.6626       25.9393       34.6018       0.200589      -0.00000
  11     328.5       34.1204        9.3759       24.9451       34.3210       0.200589       0.00000
  10     361.9       33.8296       10.1142       23.9160       34.0302       0.200589       0.00000
   9     398.1       33.5294       10.8759       22.8541       33.7300       0.200589      -0.00000
   8     437.6       33.2213       11.6574       21.7645       33.4219       0.200589       0.00000
   7     480.5       32.9066       12.4551       20.6521       33.1072       0.200589      -0.00000
   6     533.0       32.5401       13.3837       19.3569       32.7406       0.200589       0.00000
   5     589.8       32.1690       14.3229       18.0467       32.3696       0.200589       0.00000
   4     651.6       31.7963       15.2653       16.7316       31.9969       0.200589       0.00000
   3     718.7       31.4246       16.2038       15.4214       31.6252       0.200589       0.00000
   2     792.3       31.0573       17.1303       14.1276       31.2579       0.200589      -0.00000
   1     891.5       30.6076       18.2623       12.5459       30.8082       0.200589       0.00000
   0    1013.0       30.1307       19.4596       10.8717       30.3313       0.200589      -0.00000



 Wavenumbers: 29000. - 38000. cm-1, ATM      1
 LEVEL PRESSURE   UPWARD FLUX   DIFDOWN FLUX  DIRDOWN FLUX  DOWNWARD FLUX   NET FLUX    HEATING RATE
          mb          W/m2          W/m2          W/m2        W/m2          W/m2       degree/day
  51    .06700        5.3889        0.0000       13.4026       13.4026       8.013712       0.00000
  50    .07753        5.3887        0.0003       13.3983       13.3986       8.009913       3.04485
  49    .09103        5.3884        0.0007       13.3921       13.3928       8.004393       3.45020
  48    0.1069        5.3881        0.0011       13.3840       13.3851       7.997015       3.92738
  47    0.1255        5.3878        0.0016       13.3733       13.3749       7.987168       4.46389
  46    0.1487        5.3873        0.0022       13.3579       13.3601       7.972724       5.26524
  45    0.1794        5.3868        0.0031       13.3340       13.3371       7.950320       6.15029
  44    0.2165        5.3861        0.0040       13.3024       13.3064       7.920296       6.82994
  43    0.2613        5.3854        0.0052       13.2604       13.2656       7.880234       7.55146
  42    0.3336        5.3842        0.0071       13.1833       13.1904       7.806214       8.63004
  41    0.4307        5.3827        0.0096       13.0729       13.0825       7.699821       9.25066
  40    0.5894        5.3804        0.0135       12.8796       12.8931       7.512736       9.94893
  39     1.339        5.3725        0.0300       11.9165       11.9465       6.574082      10.56754
  38     1.782        5.3695        0.0384       11.4399       11.4784       6.108834       8.85756
  37     2.292        5.3676        0.0475       10.9796       11.0271       5.659523       7.44176
  36     2.964        5.3669        0.0586       10.4786       10.5372       5.170289       6.14137
  35     3.853        5.3687        0.0723        9.9429       10.0152       4.646485       4.97099
  34     5.035        5.3738        0.0895        9.4007        9.4902       4.116354       3.78704
  33     6.613        5.3825        0.1113        8.8752        8.9865       3.604030       2.73889
  32     8.786        5.3942        0.1394        8.3786        8.5180       3.123784       1.86510
  31     11.80        5.4089        0.1781        7.8897        8.0677       2.658834       1.30171
  30     15.07        5.4221        0.2180        7.5108        7.7288       2.306712       0.90911
  29     18.79        5.4348        0.2615        7.1776        7.4391       2.004297       0.68567
  28     23.16        5.4472        0.3106        6.8664        7.1770       1.729757       0.53087
  27     28.12        5.4585        0.3649        6.5780        6.9429       1.484421       0.41706
  26     33.73        5.4658        0.4241        6.3195        6.7436       1.277743       0.31075
  25     40.54        5.4685        0.4941        6.0663        6.5603       1.091828       0.23065
  24     48.69        5.4660        0.5761        5.8128        6.3889       0.922968       0.17474
  23     57.69        5.4577        0.6637        5.5777        6.2414       0.783763       0.13048
  22     68.43        5.4418        0.7653        5.3379        6.1032       0.661345       0.09624
  21     81.20        5.4140        0.8833        5.0965        5.9798       0.565804       0.06313
  20     96.49        5.3729        1.0197        4.8476        5.8674       0.494471       0.03937
  19     114.6        5.3223        1.1747        4.5799        5.7545       0.432208       0.02907
  18     136.5        5.2636        1.3481        4.2891        5.6372       0.373667       0.02251
  17     162.9        5.1966        1.5411        3.9732        5.5143       0.317655       0.01790
  16     196.4        5.1115        1.7731        3.6080        5.3811       0.269568       0.01210
  15     218.7        5.0580        1.9148        3.3898        5.3046       0.246582       0.00873
  14     243.0        5.0026        2.0597        3.1686        5.2283       0.225663       0.00726
  13     269.0        4.9458        2.2068        2.9461        5.1529       0.207148       0.00601
  12     297.5        4.8878        2.3549        2.7239        5.0788       0.191068       0.00477
  11     328.5        4.8296        2.5026        2.5029        5.0055       0.175901       0.00412
  10     361.9        4.7718        2.6489        2.2846        4.9335       0.161675       0.00360
   9     398.1        4.7148        2.7924        2.0708        4.8632       0.148384       0.00310
   8     437.6        4.6591        2.9323        1.8626        4.7949       0.135748       0.00270
   7     480.5        4.6053        3.0671        1.6621        4.7292       0.123907       0.00233
   6     533.0        4.5464        3.2139        1.4437        4.6576       0.111167       0.00205
   5     589.8        4.4912        3.3512        1.2390        4.5902       0.098989       0.00181
   4     651.6        4.4404        3.4776        1.0500        4.5276       0.087208       0.00161
   3     718.7        4.3943        3.5923        0.8778        4.4701       0.075785       0.00144
   2     792.3        4.3535        3.6944        0.7237        4.4182       0.064697       0.00127
   1     891.5        4.3097        3.8045        0.5563        4.3608       0.051111       0.00116
   0    1013.0        4.2713        3.9035        0.4039        4.3075       0.036210       0.00103



 Wavenumbers: 38000. - 50000. cm-1, ATM      1
 LEVEL PRESSURE   UPWARD FLUX   DIFDOWN FLUX  DIRDOWN FLUX  DOWNWARD FLUX   NET FLUX    HEATING RATE
          mb          W/m2          W/m2          W/m2        W/m2          W/m2       degree/day
  51    .06700        0.0051        0.0000        0.8267        0.8267       0.821528       0.00000
  50    .07753        0.0051        0.0001        0.8242        0.8243       0.819196       1.86936
  49    .09103        0.0050        0.0002        0.8207        0.8209       0.815872       2.07705
  48    0.1069        0.0049        0.0002        0.8162        0.8164       0.811514       2.31984
  47    0.1255        0.0048        0.0004        0.8103        0.8106       0.805801       2.59006
  46    0.1487        0.0047        0.0005        0.8018        0.8023       0.797567       3.00143
  45    0.1794        0.0045        0.0007        0.7889        0.7896       0.785013       3.44648
  44    0.2165        0.0044        0.0009        0.7720        0.7729       0.768507       3.75474
  43    0.2613        0.0042        0.0011        0.7500        0.7511       0.746955       4.06246
  42    0.3336        0.0039        0.0015        0.7106        0.7121       0.708267       4.51071
  41    0.4307        0.0035        0.0019        0.6566        0.6584       0.654972       4.63387
  40    0.5894        0.0029        0.0024        0.5680        0.5704       0.567464       4.65357
  39     1.339        0.0015        0.0030        0.2422        0.2452       0.243720       3.64476
  38     1.782        0.0010        0.0026        0.1493        0.1519       0.150889       1.76735
  37     2.292        0.0007        0.0022        0.0924        0.0946       0.093932       0.94336
  36     2.964        0.0005        0.0018        0.0539        0.0557       0.055224       0.48589
  35     3.853        0.0003        0.0013        0.0295        0.0308       0.030502       0.23462
  34     5.035        0.0002        0.0010        0.0154        0.0164       0.016181       0.10230
  33     6.613        0.0001        0.0007        0.0073        0.0080       0.007912       0.04420
  32     8.786        0.0000        0.0004        0.0030        0.0034       0.003390       0.01756
  31     11.80        0.0000        0.0003        0.0010        0.0012       0.001199       0.00613
  30     15.07        0.0000        0.0001        0.0003        0.0005       0.000463       0.00190
  29     18.79        0.0000        0.0001        0.0001        0.0002       0.000182       0.00064
  28     23.16        0.0000        0.0000        0.0000        0.0001       0.000071       0.00022
  27     28.12        0.0000        0.0000        0.0000        0.0000       0.000028       0.00007
  26     33.73        0.0000        0.0000        0.0000        0.0000       0.000011       0.00002
  25     40.54        0.0000        0.0000        0.0000        0.0000       0.000005       0.00001
  24     48.69        0.0000        0.0000        0.0000        0.0000       0.000002       0.00000
  23     57.69        0.0000        0.0000        0.0000        0.0000       0.000001       0.00000
  22     68.43        0.0000        0.0000        0.0000        0.0000       0.000000       0.00000
  21     81.20        0.0000        0.0000        0.0000        0.0000       0.000000       0.00000
  20     96.49        0.0000        0.0000        0.0000        0.0000       0.000000       0.00000
  19     114.6        0.0000        0.0000        0.0000        0.0000       0.000000       0.00000
  18     136.5        0.0000        0.0000        0.0000        0.0000       0.000000       0.00000
  17     162.9        0.0000        0.0000        0.0000        0.0000       0.000000       0.00000
  16     196.4        0.0000        0.0000        0.0000        0.0000       0.000000       0.00000
  15     218.7        0.0000        0.0000        0.0000        0.0000       0.000000       0.00000
  14     243.0        0.0000        0.0000        0.0000        0.0000       0.000000       0.00000
  13     269.0        0.0000        0.0000        0.0000        0.0000       0.000000       0.00000
  12     297.5        0.0000        0.0000        0.0000        0.0000       0.000000       0.00000
  11     328.5        0.0000        0.0000        0.0000        0.0000       0.000000       0.00000
  10     361.9        0.0000        0.0000        0.0000        0.0000       0.000000       0.00000
   9     398.1        0.0000        0.0000        0.0000        0.0000       0.000000       0.00000
   8     437.6        0.0000        0.0000        0.0000        0.0000       0.000000       0.00000
   7     480.5        0.0000        0.0000        0.0000        0.0000       0.000000       0.00000
   6     533.0        0.0000        0.0000        0.0000        0.0000       0.000000       0.00000
   5     589.8        0.0000        0.0000        0.0000        0.0000       0.000000       0.00000
   4     651.6        0.0000        0.0000        0.0000        0.0000       0.000000       0.00000
   3     718.7        0.0000        0.0000        0.0000        0.0000       0.000000       0.00000
   2     792.3        0.0000        0.0000        0.0000        0.0000       0.000000       0.00000
   1     891.5        0.0000        0.0000        0.0000        0.0000       0.000000       0.00000
   0    1013.0        0.0000        0.0000        0.0000        0.0000       0.000000       0.00000



 Wavenumbers:   820. -  2600. cm-1, ATM      1
 LEVEL PRESSURE   UPWARD FLUX   DIFDOWN FLUX  DIRDOWN FLUX  DOWNWARD FLUX   NET FLUX    HEATING RATE
          mb          W/m2          W/m2          W/m2        W/m2          W/m2       degree/day
  51    .06700        0.1350        0.0000        3.8670        3.8670       3.732004       0.00000
  50    .07753        0.1350        0.0000        3.8643        3.8643       3.729287       2.17769
  49    .09103        0.1350        0.0000        3.8635        3.8635       3.728477       0.50638
  48    0.1069        0.1350        0.0000        3.8626        3.8626       3.727586       0.47415
  47    0.1255        0.1350        0.0000        3.8616        3.8616       3.726625       0.43559
  46    0.1487        0.1350        0.0000        3.8605        3.8605       3.725516       0.40437
  45    0.1794        0.1350        0.0000        3.8592        3.8592       3.724181       0.36647
  44    0.2165        0.1350        0.0000        3.8578        3.8578       3.722803       0.31346
  43    0.2613        0.1350        0.0000        3.8564        3.8564       3.721343       0.27522
  42    0.3336        0.1350        0.0000        3.8541        3.8541       3.719112       0.26012
  41    0.4307        0.1350        0.0000        3.8512        3.8512       3.716229       0.25063
  40    0.5894        0.1350        0.0000        3.8465        3.8465       3.711503       0.25133
  39     1.339        0.1350        0.0000        3.8251        3.8251       3.690128       0.24064
  38     1.782        0.1350        0.0000        3.8133        3.8133       3.678315       0.22489
  37     2.292        0.1350        0.0000        3.8003        3.8003       3.665254       0.21632
  36     2.964        0.1350        0.0000        3.7841        3.7841       3.649126       0.20246
  35     3.853        0.1350        0.0000        3.7642        3.7642       3.629211       0.18899
  34     5.035        0.1350        0.0000        3.7395        3.7395       3.604521       0.17638
  33     6.613        0.1350        0.0000        3.7090        3.7090       3.573985       0.16324
  32     8.786        0.1350        0.0000        3.6726        3.6726       3.537593       0.14133
  31     11.80        0.1350        0.0000        3.6320        3.6320       3.497000       0.11365
  30     15.07        0.1350        0.0000        3.6016        3.6016       3.466617       0.07844
  29     18.79        0.1350        0.0000        3.5777        3.5777       3.442720       0.05418
  28     23.16        0.1350        0.0000        3.5564        3.5564       3.421367       0.04129
  27     28.12        0.1350        0.0000        3.5348        3.5348       3.399823       0.03662
  26     33.73        0.1350        0.0000        3.5118        3.5118       3.376791       0.03463
  25     40.54        0.1350        0.0000        3.4849        3.4849       3.349905       0.03336
  24     48.69        0.1350        0.0000        3.4537        3.4537       3.318655       0.03234
  23     57.69        0.1350        0.0000        3.4210        3.4210       3.285984       0.03062
  22     68.43        0.1350        0.0000        3.3844        3.3844       3.249401       0.02876
  21     81.20        0.1350        0.0000        3.3441        3.3441       3.209105       0.02663
  20     96.49        0.1350        0.0000        3.2998        3.2998       3.164744       0.02448
  19     114.6        0.1351        0.0000        3.2506        3.2506       3.115598       0.02295
  18     136.5        0.1351        0.0000        3.1936        3.1936       3.058552       0.02194
  17     162.9        0.1351        0.0000        3.1181        3.1181       2.983052       0.02413
  16     196.4        0.1351        0.0000        3.0090        3.0090       2.873870       0.02748
  15     218.7        0.1351        0.0000        2.9420        2.9420       2.806869       0.02544
  14     243.0        0.1352        0.0000        2.8605        2.8605       2.725311       0.02829
  13     269.0        0.1352        0.0000        2.7419        2.7420       2.606736       0.03847
  12     297.5        0.1354        0.0000        2.5729        2.5729       2.437538       0.05018
  11     328.5        0.1355        0.0000        2.3602        2.3602       2.224660       0.05788
  10     361.9        0.1358        0.0000        2.1524        2.1524       2.016597       0.05264
   9     398.1        0.1363        0.0000        1.9974        1.9974       1.861159       0.03621
   8     437.6        0.1369        0.0000        1.8835        1.8835       1.746633       0.02449
   7     480.5        0.1378        0.0000        1.7734        1.7734       1.635652       0.02180
   6     533.0        0.1393        0.0000        1.6397        1.6398       1.500455       0.02175
   5     589.8        0.1415        0.0000        1.5068        1.5069       1.365350       0.02005
   4     651.6        0.1448        0.0000        1.3807        1.3807       1.235949       0.01770
   3     718.7        0.1491        0.0000        1.2680        1.2680       1.118919       0.01471
   2     792.3        0.1545        0.0000        1.1659        1.1660       1.011503       0.01232
   1     891.5        0.1635        0.0000        1.0372        1.0373       0.873794       0.01172
   0    1013.0        0.1798        0.0000        0.8716        0.8717       0.691851       0.01263

  Modules and versions used in this calculation:

       rrtmg_sw.1col.f90:  $Revision$                    rrtmg_sw_init.f90:  $Revision$        
     rrtmgsw_cldprop.f90:  $Revision$                  rrtmgsw_cldprmc.f90:  NOT USED          
     rrtmg_sw_reftra.f90:  $Revision$                  rrtmg_sw_spcvrt.f90:  NOT USED          
     rrtmg_sw_spcvmc.f90:  NOT USED                    rrtmgsw_setcoef.f90:  NOT USED          
     rrtmg_sw_taumol.f90:  $Revision$                  rrtmg_sw_vrtqdr.f90:  NOT USED          
                rrtatm.f:  NOT USED                             util_xxx.f:  NOT USED          
                 extra.f:  NOT USED                       rrtmg_sw_k_g.f90:  $Revision$        

