

 Wavenumbers:   820. - 50000. cm-1, ATM      1
 LEVEL PRESSURE   UPWARD FLUX   DIFDOWN FLUX  DIRDOWN FLUX  DOWNWARD FLUX   NET FLUX    HEATING RATE
          mb          W/m2          W/m2          W/m2        W/m2          W/m2       degree/day
  51    .06700      218.0483        0.0000      397.8738      397.8738     179.825501       0.00000
  50    .07753      218.0477        0.0012      397.8577      397.8589     179.811211      11.45371
  49    .09103      218.0470        0.0027      397.8418      397.8445     179.797524       8.55489
  48    0.1069      218.0462        0.0044      397.8230      397.8273     179.781177       8.70140
  47    0.1255      218.0453        0.0063      397.7997      397.8060     179.760736       9.26714
  46    0.1487      218.0441        0.0088      397.7676      397.7764     179.732280      10.37254
  45    0.1794      218.0427        0.0122      397.7205      397.7327     179.689990      11.60971
  44    0.2165      218.0410        0.0161      397.6602      397.6764     179.635343      12.43116
  43    0.2613      218.0392        0.0208      397.5829      397.6037     179.564547      13.34467
  42    0.3336      218.0363        0.0285      397.4449      397.4734     179.437110      14.85796
  41    0.4307      218.0327        0.0386      397.2524      397.2910     179.258241      15.55225
  40    0.5894      218.0276        0.0548      396.9253      396.9801     178.952520      16.25784
  39     1.339      218.0151        0.1275      395.4254      395.5528     177.537696      15.92835
  38     1.782      218.0156        0.1682      394.7288      394.8970     176.881342      12.49592
  37     2.292      218.0232        0.2146      394.0572      394.2718     176.248598      10.47990
  36     2.964      218.0433        0.2748      393.3007      393.5755     175.532197       8.99299
  35     3.853      218.0842        0.3536      392.4318      392.7854     174.701152       7.88677
  34     5.035      218.1527        0.4572      391.4441      391.9013     173.748571       6.80485
  33     6.613      218.2519        0.5945      390.3268      390.9212     172.669297       5.76980
  32     8.786      218.3799        0.7781      389.0624      389.8405     171.460564       4.69428
  31     11.80      218.5389        1.0388      387.5500      388.5887     170.049802       3.94969
  30     15.07      218.6814        1.3164      386.1556      387.4720     168.790559       3.25112
  29     18.79      218.8172        1.6276      384.7502      386.3777     167.560535       2.78884
  28     23.16      218.9468        1.9882      383.2686      385.2568     166.309952       2.41822
  27     28.12      219.0612        2.3973      381.7329      384.1301     165.068948       2.10962
  26     33.73      219.1395        2.8518      380.1982      383.0500     163.910441       1.74185
  25     40.54      219.1767        3.3970      378.5384      381.9354     162.758736       1.42882
  24     48.69      219.1663        4.0486      376.7214      380.7701     161.603742       1.19524
  23     57.69      219.1021        4.7578      374.8959      379.6537     160.551558       0.98626
  22     68.43      218.9690        5.5941      372.8999      378.4940     159.524965       0.80704
  21     81.20      218.7322        6.5800      370.7496      377.3296     158.597470       0.61287
  20     96.49      218.3793        7.7403      368.4056      376.1459     157.766636       0.45856
  19     114.6      217.9389        9.0962      365.7513      374.8475     156.908611       0.40064
  18     136.5      217.4012       10.6717      362.7231      373.3948     155.993552       0.35186
  17     162.9      216.7526       12.5042      359.1748      371.6789     154.926377       0.34111
  16     196.4      215.8820       14.8162      354.5718      369.3880     153.506068       0.35751
  15     218.7      215.3054       16.2960      351.4437      367.7397     152.434274       0.40692
  14     243.0      214.6829       17.8708      347.7111      365.5819     150.899088       0.53245
  13     269.0      214.0147       19.5391      342.9441      362.4832     148.468455       0.78849
  12     297.5      213.3026       21.2987      337.4137      358.7124     145.409878       0.90714
  11     328.5      212.5515       23.1518      331.1302      354.2820     141.730529       1.00040
  10     361.9      211.7660       25.0927      324.1219      349.2147     137.448660       1.08336
   9     398.1      210.9496       27.1215      316.6066      343.7280     132.778430       1.08806
   8     437.6      210.1111       29.2335      308.5895      337.8230     127.711928       1.08325
   7     480.5      209.2646       31.4234      299.9349      331.3583     122.093662       1.10341
   6     533.0      208.3025       34.0207      289.7021      323.7229     115.420328       1.07353
   5     589.8      207.3705       36.7057      279.3388      316.0445     108.674044       1.00137
   4     651.6      206.5064       39.4667      268.7786      308.2453     101.738846       0.94841
   3     718.7      205.7328       42.2950      258.2837      300.5786      94.845775       0.86627
   2     792.3      205.0747       45.1767      248.0774      293.2541      88.179387       0.76456
   1     891.5      204.5139       48.8416      235.5216      284.3632      79.849266       0.70885
   0    1013.0      204.5594       52.9238      221.4731      274.3969      69.837516       0.69517



 Wavenumbers:  2600. -  3250. cm-1, ATM      1
 LEVEL PRESSURE   UPWARD FLUX   DIFDOWN FLUX  DIRDOWN FLUX  DOWNWARD FLUX   NET FLUX    HEATING RATE
          mb          W/m2          W/m2          W/m2        W/m2          W/m2       degree/day
  51    .06700        0.2241        0.0000        3.5066        3.5066       3.282513       0.00000
  50    .07753        0.2241        0.0000        3.5066        3.5066       3.282505       0.00640
  49    .09103        0.2241        0.0000        3.5066        3.5066       3.282495       0.00627
  48    0.1069        0.2241        0.0000        3.5066        3.5066       3.282484       0.00613
  47    0.1255        0.2241        0.0000        3.5066        3.5066       3.282470       0.00599
  46    0.1487        0.2241        0.0000        3.5066        3.5066       3.282454       0.00607
  45    0.1794        0.2241        0.0000        3.5065        3.5065       3.282431       0.00624
  44    0.2165        0.2241        0.0000        3.5065        3.5065       3.282404       0.00611
  43    0.2613        0.2241        0.0000        3.5065        3.5065       3.282372       0.00598
  42    0.3336        0.2241        0.0000        3.5064        3.5064       3.282320       0.00615
  41    0.4307        0.2241        0.0000        3.5064        3.5064       3.282249       0.00618
  40    0.5894        0.2241        0.0000        3.5062        3.5062       3.282130       0.00633
  39     1.339        0.2241        0.0000        3.5055        3.5055       3.281431       0.00787
  38     1.782        0.2241        0.0000        3.5050        3.5050       3.280900       0.01011
  37     2.292        0.2241        0.0000        3.5043        3.5043       3.280207       0.01147
  36     2.964        0.2241        0.0000        3.5033        3.5033       3.279216       0.01245
  35     3.853        0.2241        0.0000        3.5019        3.5019       3.277839       0.01307
  34     5.035        0.2241        0.0000        3.5001        3.5001       3.275978       0.01329
  33     6.613        0.2241        0.0000        3.4977        3.4977       3.273568       0.01288
  32     8.786        0.2241        0.0000        3.4947        3.4947       3.270598       0.01154
  31     11.80        0.2241        0.0000        3.4911        3.4911       3.266962       0.01018
  30     15.07        0.2241        0.0000        3.4878        3.4878       3.263741       0.00832
  29     18.79        0.2241        0.0000        3.4848        3.4848       3.260678       0.00695
  28     23.16        0.2241        0.0000        3.4816        3.4816       3.257458       0.00623
  27     28.12        0.2241        0.0000        3.4779        3.4779       3.253841       0.00615
  26     33.73        0.2241        0.0000        3.4735        3.4735       3.249374       0.00671
  25     40.54        0.2241        0.0000        3.4671        3.4671       3.243049       0.00785
  24     48.69        0.2241        0.0000        3.4582        3.4583       3.234155       0.00920
  23     57.69        0.2241        0.0000        3.4472        3.4472       3.223107       0.01036
  22     68.43        0.2241        0.0000        3.4329        3.4329       3.208849       0.01121
  21     81.20        0.2241        0.0000        3.4152        3.4152       3.191122       0.01171
  20     96.49        0.2241        0.0000        3.3940        3.3941       3.169979       0.01167
  19     114.6        0.2241        0.0000        3.3692        3.3692       3.145092       0.01162
  18     136.5        0.2241        0.0001        3.3419        3.3420       3.117878       0.01046
  17     162.9        0.2241        0.0001        3.3129        3.3129       3.088808       0.00929
  16     196.4        0.2242        0.0001        3.2793        3.2794       3.055242       0.00845
  15     218.7        0.2242        0.0001        3.2578        3.2578       3.033631       0.00820
  14     243.0        0.2243        0.0001        3.2320        3.2320       3.007767       0.00897
  13     269.0        0.2244        0.0001        3.1968        3.1969       2.972532       0.01143
  12     297.5        0.2246        0.0001        3.1489        3.1490       2.924471       0.01425
  11     328.5        0.2249        0.0001        3.0821        3.0822       2.857318       0.01826
  10     361.9        0.2253        0.0001        2.9902        2.9904       2.765097       0.02333
   9     398.1        0.2258        0.0001        2.8715        2.8716       2.645780       0.02780
   8     437.6        0.2267        0.0001        2.7276        2.7278       2.501133       0.03093
   7     480.5        0.2279        0.0001        2.5595        2.5597       2.331805       0.03326
   6     533.0        0.2298        0.0001        2.3617        2.3619       2.132040       0.03214
   5     589.8        0.2327        0.0002        2.1649        2.1651       1.932366       0.02964
   4     651.6        0.2368        0.0002        1.9608        1.9609       1.724080       0.02848
   3     718.7        0.2425        0.0002        1.7593        1.7595       1.517022       0.02602
   2     792.3        0.2498        0.0002        1.5761        1.5762       1.326417       0.02186
   1     891.5        0.2624        0.0002        1.3714        1.3716       1.109181       0.01849
   0    1013.0        0.2852        0.0002        1.1584        1.1586       0.873353       0.01637



 Wavenumbers:  3250. -  4000. cm-1, ATM      1
 LEVEL PRESSURE   UPWARD FLUX   DIFDOWN FLUX  DIRDOWN FLUX  DOWNWARD FLUX   NET FLUX    HEATING RATE
          mb          W/m2          W/m2          W/m2        W/m2          W/m2       degree/day
  51    .06700        0.0004        0.0000        5.9117        5.9117       5.911216       0.00000
  50    .07753        0.0004        0.0000        5.9075        5.9075       5.907026       3.35808
  49    .09103        0.0004        0.0000        5.9050        5.9050       5.904584       1.52677
  48    0.1069        0.0004        0.0000        5.9032        5.9032       5.902717       0.99346
  47    0.1255        0.0004        0.0000        5.9014        5.9014       5.900959       0.79708
  46    0.1487        0.0004        0.0000        5.8995        5.8995       5.899070       0.68848
  45    0.1794        0.0004        0.0000        5.8974        5.8974       5.896922       0.58983
  44    0.2165        0.0004        0.0000        5.8952        5.8952       5.894805       0.48155
  43    0.2613        0.0004        0.0000        5.8931        5.8931       5.892646       0.40696
  42    0.3336        0.0004        0.0000        5.8899        5.8899       5.889488       0.36820
  41    0.4307        0.0004        0.0000        5.8861        5.8861       5.885651       0.33365
  40    0.5894        0.0004        0.0000        5.8803        5.8803       5.879848       0.30857
  39     1.339        0.0004        0.0000        5.8597        5.8597       5.859251       0.23189
  38     1.782        0.0004        0.0000        5.8513        5.8513       5.850826       0.16039
  37     2.292        0.0004        0.0000        5.8431        5.8431       5.842655       0.13533
  36     2.964        0.0004        0.0000        5.8334        5.8334       5.833015       0.12100
  35     3.853        0.0004        0.0000        5.8213        5.8213       5.820840       0.11555
  34     5.035        0.0004        0.0000        5.8052        5.8052       5.804745       0.11498
  33     6.613        0.0004        0.0000        5.7833        5.7834       5.782923       0.11666
  32     8.786        0.0004        0.0000        5.7531        5.7531       5.752722       0.11729
  31     11.80        0.0004        0.0000        5.7090        5.7090       5.708553       0.12366
  30     15.07        0.0004        0.0000        5.6615        5.6615       5.661088       0.12254
  29     18.79        0.0004        0.0000        5.6093        5.6094       5.608953       0.11821
  28     23.16        0.0004        0.0000        5.5524        5.5524       5.552027       0.11008
  27     28.12        0.0004        0.0000        5.4935        5.4935       5.493148       0.10009
  26     33.73        0.0004        0.0000        5.4348        5.4349       5.434459       0.08824
  25     40.54        0.0004        0.0001        5.3707        5.3708       5.370398       0.07948
  24     48.69        0.0004        0.0001        5.2985        5.2985       5.298165       0.07475
  23     57.69        0.0004        0.0001        5.2215        5.2216       5.221226       0.07212
  22     68.43        0.0003        0.0001        5.1318        5.1319       5.131566       0.07048
  21     81.20        0.0003        0.0001        5.0284        5.0285       5.028136       0.06834
  20     96.49        0.0003        0.0001        4.9122        4.9123       4.912002       0.06410
  19     114.6        0.0003        0.0001        4.7780        4.7782       4.777891       0.06262
  18     136.5        0.0003        0.0002        4.6285        4.6287       4.628413       0.05748
  17     162.9        0.0002        0.0002        4.4406        4.4407       4.440500       0.06006
  16     196.4        0.0002        0.0002        4.1548        4.1550       4.154827       0.07191
  15     218.7        0.0002        0.0002        3.9564        3.9566       3.956446       0.07532
  14     243.0        0.0002        0.0002        3.7055        3.7058       3.705612       0.08700
  13     269.0        0.0001        0.0002        3.3399        3.3401       3.339973       0.11861
  12     297.5        0.0001        0.0002        2.8954        2.8956       2.895483       0.13183
  11     328.5        0.0001        0.0002        2.4388        2.4390       2.438942       0.12413
  10     361.9        0.0001        0.0002        2.0269        2.0271       2.027003       0.10422
   9     398.1        0.0001        0.0002        1.6753        1.6755       1.675415       0.08191
   8     437.6        0.0001        0.0002        1.3592        1.3594       1.359296       0.06759
   7     480.5        0.0001        0.0002        1.0616        1.0618       1.061713       0.05844
   6     533.0        0.0001        0.0001        0.7543        0.7544       0.754377       0.04944
   5     589.8        0.0001        0.0001        0.4951        0.4952       0.495181       0.03847
   4     651.6        0.0001        0.0001        0.2943        0.2943       0.294278       0.02747
   3     718.7        0.0001        0.0001        0.1528        0.1529       0.152770       0.01778
   2     792.3        0.0001        0.0000        0.0658        0.0658       0.065710       0.00998
   1     891.5        0.0003        0.0000        0.0157        0.0157       0.015360       0.00428
   0    1013.0        0.0013        0.0000        0.0013        0.0013       0.000051       0.00106



 Wavenumbers:  4000. -  4650. cm-1, ATM      1
 LEVEL PRESSURE   UPWARD FLUX   DIFDOWN FLUX  DIRDOWN FLUX  DOWNWARD FLUX   NET FLUX    HEATING RATE
          mb          W/m2          W/m2          W/m2        W/m2          W/m2       degree/day
  51    .06700        0.6718        0.0000        6.9421        6.9421       6.270233       0.00000
  50    .07753        0.6718        0.0000        6.9421        6.9421       6.270232       0.00079
  49    .09103        0.6718        0.0000        6.9421        6.9421       6.270231       0.00078
  48    0.1069        0.6718        0.0000        6.9421        6.9421       6.270229       0.00076
  47    0.1255        0.6718        0.0000        6.9421        6.9421       6.270228       0.00074
  46    0.1487        0.6718        0.0000        6.9421        6.9421       6.270226       0.00075
  45    0.1794        0.6718        0.0000        6.9421        6.9421       6.270223       0.00077
  44    0.2165        0.6718        0.0000        6.9421        6.9421       6.270219       0.00076
  43    0.2613        0.6718        0.0000        6.9420        6.9420       6.270216       0.00074
  42    0.3336        0.6718        0.0000        6.9420        6.9420       6.270209       0.00076
  41    0.4307        0.6718        0.0000        6.9420        6.9420       6.270200       0.00077
  40    0.5894        0.6718        0.0000        6.9420        6.9420       6.270185       0.00079
  39     1.339        0.6718        0.0000        6.9419        6.9419       6.270096       0.00100
  38     1.782        0.6718        0.0000        6.9418        6.9419       6.270027       0.00132
  37     2.292        0.6718        0.0000        6.9418        6.9418       6.269934       0.00155
  36     2.964        0.6718        0.0000        6.9416        6.9416       6.269794       0.00175
  35     3.853        0.6718        0.0000        6.9414        6.9414       6.269588       0.00196
  34     5.035        0.6718        0.0000        6.9411        6.9411       6.269283       0.00218
  33     6.613        0.6718        0.0000        6.9406        6.9406       6.268836       0.00239
  32     8.786        0.6718        0.0000        6.9399        6.9400       6.268176       0.00256
  31     11.80        0.6718        0.0000        6.9389        6.9389       6.267142       0.00290
  30     15.07        0.6718        0.0001        6.9377        6.9377       6.265932       0.00312
  29     18.79        0.6718        0.0001        6.9362        6.9362       6.264475       0.00330
  28     23.16        0.6718        0.0001        6.9343        6.9344       6.262673       0.00348
  27     28.12        0.6717        0.0001        6.9321        6.9322       6.260501       0.00369
  26     33.73        0.6717        0.0001        6.9294        6.9296       6.257837       0.00401
  25     40.54        0.6717        0.0001        6.9258        6.9260       6.254247       0.00445
  24     48.69        0.6717        0.0002        6.9210        6.9212       6.249495       0.00492
  23     57.69        0.6717        0.0002        6.9154        6.9156       6.243906       0.00524
  22     68.43        0.6716        0.0003        6.9083        6.9086       6.236962       0.00546
  21     81.20        0.6716        0.0003        6.8998        6.9001       6.228475       0.00561
  20     96.49        0.6716        0.0004        6.8894        6.8898       6.218230       0.00565
  19     114.6        0.6715        0.0004        6.8765        6.8770       6.205415       0.00598
  18     136.5        0.6715        0.0005        6.8610        6.8615       6.189969       0.00594
  17     162.9        0.6715        0.0006        6.8417        6.8423       6.170777       0.00613
  16     196.4        0.6715        0.0007        6.8147        6.8154       6.143893       0.00677
  15     218.7        0.6715        0.0008        6.7948        6.7956       6.124119       0.00751
  14     243.0        0.6716        0.0009        6.7698        6.7707       6.099070       0.00869
  13     269.0        0.6717        0.0010        6.7349        6.7358       6.064078       0.01135
  12     297.5        0.6720        0.0011        6.6869        6.6879       6.015911       0.01429
  11     328.5        0.6724        0.0012        6.6194        6.6205       5.948118       0.01843
  10     361.9        0.6730        0.0013        6.5295        6.5307       5.857758       0.02286
   9     398.1        0.6737        0.0014        6.4202        6.4216       5.747871       0.02560
   8     437.6        0.6747        0.0015        6.2962        6.2977       5.622940       0.02671
   7     480.5        0.6761        0.0016        6.1555        6.1571       5.480997       0.02788
   6     533.0        0.6783        0.0017        5.9675        5.9693       5.290932       0.03058
   5     589.8        0.6816        0.0019        5.7368        5.7386       5.057028       0.03472
   4     651.6        0.6863        0.0020        5.4662        5.4682       4.781882       0.03763
   3     718.7        0.6928        0.0021        5.1912        5.1933       4.500455       0.03537
   2     792.3        0.7012        0.0022        4.9395        4.9417       4.240461       0.02982
   1     891.5        0.7157        0.0024        4.6486        4.6510       3.935345       0.02596
   0    1013.0        0.7416        0.0025        4.3179        4.3204       3.578861       0.02475



 Wavenumbers:  4650. -  5150. cm-1, ATM      1
 LEVEL PRESSURE   UPWARD FLUX   DIFDOWN FLUX  DIRDOWN FLUX  DOWNWARD FLUX   NET FLUX    HEATING RATE
          mb          W/m2          W/m2          W/m2        W/m2          W/m2       degree/day
  51    .06700        0.4504        0.0000        6.5710        6.5710       6.120575       0.00000
  50    .07753        0.4504        0.0000        6.5708        6.5708       6.120339       0.18887
  49    .09103        0.4504        0.0000        6.5705        6.5705       6.120045       0.18362
  48    0.1069        0.4504        0.0000        6.5701        6.5701       6.119711       0.17806
  47    0.1255        0.4504        0.0000        6.5697        6.5697       6.119330       0.17238
  46    0.1487        0.4504        0.0000        6.5693        6.5693       6.118857       0.17268
  45    0.1794        0.4504        0.0000        6.5686        6.5686       6.118220       0.17473
  44    0.2165        0.4504        0.0000        6.5679        6.5679       6.117482       0.16788
  43    0.2613        0.4504        0.0000        6.5670        6.5670       6.116629       0.16078
  42    0.3336        0.4504        0.0000        6.5657        6.5657       6.115266       0.15894
  41    0.4307        0.4504        0.0000        6.5640        6.5640       6.113544       0.14971
  40    0.5894        0.4504        0.0000        6.5613        6.5613       6.110928       0.13913
  39     1.339        0.4504        0.0000        6.5516        6.5516       6.101150       0.11008
  38     1.782        0.4504        0.0000        6.5473        6.5473       6.096935       0.08026
  37     2.292        0.4504        0.0000        6.5434        6.5435       6.093048       0.06438
  36     2.964        0.4504        0.0000        6.5395        6.5395       6.089094       0.04964
  35     3.853        0.4504        0.0000        6.5355        6.5356       6.085151       0.03742
  34     5.035        0.4504        0.0000        6.5315        6.5315       6.081149       0.02859
  33     6.613        0.4504        0.0000        6.5271        6.5271       6.076755       0.02349
  32     8.786        0.4504        0.0000        6.5216        6.5216       6.071261       0.02134
  31     11.80        0.4504        0.0001        6.5135        6.5135       6.063184       0.02261
  30     15.07        0.4503        0.0001        6.5041        6.5042       6.053817       0.02418
  29     18.79        0.4503        0.0001        6.4925        6.4926       6.042304       0.02610
  28     23.16        0.4503        0.0001        6.4779        6.4780       6.027716       0.02821
  27     28.12        0.4503        0.0002        6.4599        6.4600       6.009746       0.03055
  26     33.73        0.4503        0.0002        6.4384        6.4386       5.988322       0.03221
  25     40.54        0.4502        0.0002        6.4112        6.4114       5.961208       0.03364
  24     48.69        0.4502        0.0003        6.3775        6.3778       5.927586       0.03479
  23     57.69        0.4502        0.0003        6.3404        6.3407       5.890515       0.03475
  22     68.43        0.4501        0.0004        6.2971        6.2975       5.847353       0.03393
  21     81.20        0.4501        0.0004        6.2483        6.2487       5.798578       0.03223
  20     96.49        0.4501        0.0005        6.1948        6.1953       5.745262       0.02943
  19     114.6        0.4501        0.0006        6.1381        6.1388       5.688703       0.02641
  18     136.5        0.4500        0.0007        6.0790        6.0797       5.629700       0.02269
  17     162.9        0.4500        0.0009        6.0160        6.0169       5.566885       0.02008
  16     196.4        0.4500        0.0010        5.9399        5.9409       5.490865       0.01914
  15     218.7        0.4501        0.0011        5.8896        5.8908       5.440704       0.01904
  14     243.0        0.4501        0.0012        5.8322        5.8334       5.383299       0.01991
  13     269.0        0.4503        0.0014        5.7624        5.7638       5.313497       0.02264
  12     297.5        0.4505        0.0015        5.6767        5.6782       5.227713       0.02544
  11     328.5        0.4509        0.0016        5.5726        5.5742       5.123339       0.02838
  10     361.9        0.4514        0.0018        5.4473        5.4491       4.997672       0.03179
   9     398.1        0.4522        0.0019        5.2995        5.3014       4.849208       0.03459
   8     437.6        0.4532        0.0020        5.1275        5.1295       4.676276       0.03697
   7     480.5        0.4547        0.0022        4.9290        4.9311       4.476450       0.03925
   6     533.0        0.4570        0.0023        4.6794        4.6817       4.224654       0.04051
   5     589.8        0.4603        0.0024        4.4188        4.4212       3.960886       0.03915
   4     651.6        0.4650        0.0025        4.1521        4.1546       3.689646       0.03709
   3     718.7        0.4712        0.0027        3.8929        3.8956       3.424369       0.03334
   2     792.3        0.4793        0.0028        3.6469        3.6496       3.170299       0.02914
   1     891.5        0.4932        0.0029        3.3535        3.3564       2.863171       0.02614
   0    1013.0        0.5170        0.0030        3.0383        3.0414       2.524363       0.02353



 Wavenumbers:  5150. -  6150. cm-1, ATM      1
 LEVEL PRESSURE   UPWARD FLUX   DIFDOWN FLUX  DIRDOWN FLUX  DOWNWARD FLUX   NET FLUX    HEATING RATE
          mb          W/m2          W/m2          W/m2        W/m2          W/m2       degree/day
  51    .06700        1.3260        0.0000       16.4735       16.4735      15.147480       0.00000
  50    .07753        1.3260        0.0000       16.4735       16.4735      15.147445       0.02761
  49    .09103        1.3260        0.0000       16.4734       16.4734      15.147400       0.02810
  48    0.1069        1.3260        0.0000       16.4734       16.4734      15.147347       0.02859
  47    0.1255        1.3260        0.0000       16.4733       16.4733      15.147283       0.02904
  46    0.1487        1.3260        0.0000       16.4732       16.4732      15.147199       0.03059
  45    0.1794        1.3260        0.0000       16.4731       16.4731      15.147080       0.03269
  44    0.2165        1.3260        0.0000       16.4730       16.4730      15.146933       0.03331
  43    0.2613        1.3260        0.0000       16.4728       16.4728      15.146754       0.03376
  42    0.3336        1.3260        0.0000       16.4725       16.4725      15.146448       0.03564
  41    0.4307        1.3260        0.0000       16.4720       16.4720      15.146029       0.03645
  40    0.5894        1.3260        0.0000       16.4713       16.4713      15.145328       0.03728
  39     1.339        1.3260        0.0000       16.4679       16.4679      15.141920       0.03837
  38     1.782        1.3260        0.0000       16.4659       16.4659      15.139920       0.03806
  37     2.292        1.3260        0.0001       16.4635       16.4636      15.137629       0.03795
  36     2.964        1.3260        0.0001       16.4605       16.4606      15.134660       0.03727
  35     3.853        1.3259        0.0001       16.4567       16.4567      15.130807       0.03656
  34     5.035        1.3259        0.0001       16.4516       16.4517      15.125811       0.03569
  33     6.613        1.3259        0.0002       16.4451       16.4452      15.119351       0.03453
  32     8.786        1.3258        0.0002       16.4367       16.4369      15.111041       0.03228
  31     11.80        1.3258        0.0003       16.4254       16.4257      15.099892       0.03121
  30     15.07        1.3257        0.0004       16.4141       16.4145      15.088807       0.02862
  29     18.79        1.3256        0.0005       16.4024       16.4029      15.077289       0.02611
  28     23.16        1.3255        0.0006       16.3900       16.3906      15.065032       0.02370
  27     28.12        1.3254        0.0007       16.3771       16.3778      15.052372       0.02152
  26     33.73        1.3253        0.0009       16.3641       16.3650      15.039652       0.01913
  25     40.54        1.3252        0.0010       16.3502       16.3512      15.026019       0.01691
  24     48.69        1.3250        0.0012       16.3354       16.3366      15.011558       0.01497
  23     57.69        1.3249        0.0015       16.3211       16.3225      14.997672       0.01302
  22     68.43        1.3247        0.0017       16.3062       16.3080      14.983302       0.01130
  21     81.20        1.3245        0.0021       16.2903       16.2924      14.967932       0.01016
  20     96.49        1.3242        0.0025       16.2726       16.2751      14.950888       0.00941
  19     114.6        1.3239        0.0029       16.2521       16.2550      14.931110       0.00923
  18     136.5        1.3235        0.0035       16.2245       16.2280      14.904493       0.01023
  17     162.9        1.3231        0.0041       16.1747       16.1788      14.855763       0.01558
  16     196.4        1.3225        0.0049       16.0518       16.0568      14.734233       0.03059
  15     218.7        1.3222        0.0054       15.8984       15.9038      14.581635       0.05794
  14     243.0        1.3218        0.0060       15.6153       15.6212      14.299389       0.09789
  13     269.0        1.3215        0.0065       15.1390       15.1454      13.823948       0.15423
  12     297.5        1.3212        0.0069       14.5779       14.5848      13.263613       0.16619
  11     328.5        1.3210        0.0074       13.8780       13.8854      12.564403       0.19011
  10     361.9        1.3209        0.0077       13.0814       13.0892      11.768320       0.20142
   9     398.1        1.3209        0.0081       12.2728       12.2809      10.960023       0.18831
   8     437.6        1.3211        0.0084       11.4776       11.4859      10.164788       0.17003
   7     480.5        1.3217        0.0086       10.7300       10.7386       9.416847       0.14689
   6     533.0        1.3230        0.0089       10.0326       10.0415       8.718524       0.11234
   5     589.8        1.3252        0.0093        9.5050        9.5143       8.189154       0.07858
   4     651.6        1.3288        0.0098        9.0814        9.0912       7.762397       0.05836
   3     718.7        1.3342        0.0104        8.7024        8.7129       7.378680       0.04822
   2     792.3        1.3416        0.0111        8.3379        8.3490       7.007413       0.04258
   1     891.5        1.3555        0.0119        7.9064        7.9183       6.562761       0.03784
   0    1013.0        1.3844        0.0128        7.4741        7.4869       6.102505       0.03196



 Wavenumbers:  6150. -  7700. cm-1, ATM      1
 LEVEL PRESSURE   UPWARD FLUX   DIFDOWN FLUX  DIRDOWN FLUX  DOWNWARD FLUX   NET FLUX    HEATING RATE
          mb          W/m2          W/m2          W/m2        W/m2          W/m2       degree/day
  51    .06700        2.1190        0.0000       30.4684       30.4684      28.349346       0.00000
  50    .07753        2.1190        0.0000       30.4683       30.4683      28.349295       0.04144
  49    .09103        2.1190        0.0000       30.4683       30.4683      28.349228       0.04174
  48    0.1069        2.1190        0.0000       30.4682       30.4682      28.349149       0.04202
  47    0.1255        2.1190        0.0000       30.4681       30.4681      28.349056       0.04227
  46    0.1487        2.1190        0.0000       30.4680       30.4680      28.348935       0.04411
  45    0.1794        2.1190        0.0000       30.4678       30.4678      28.348765       0.04669
  44    0.2165        2.1190        0.0000       30.4676       30.4676      28.348557       0.04715
  43    0.2613        2.1190        0.0000       30.4673       30.4673      28.348306       0.04744
  42    0.3336        2.1190        0.0000       30.4669       30.4669      28.347879       0.04974
  41    0.4307        2.1190        0.0000       30.4663       30.4663      28.347298       0.05052
  40    0.5894        2.1190        0.0001       30.4653       30.4653      28.346330       0.05146
  39     1.339        2.1189        0.0001       30.4604       30.4606      28.341647       0.05273
  38     1.782        2.1189        0.0002       30.4576       30.4578      28.338897       0.05235
  37     2.292        2.1188        0.0002       30.4543       30.4545      28.335738       0.05231
  36     2.964        2.1187        0.0003       30.4501       30.4504      28.331631       0.05156
  35     3.853        2.1187        0.0004       30.4445       30.4449      28.326274       0.05084
  34     5.035        2.1185        0.0005       30.4373       30.4378      28.319274       0.05000
  33     6.613        2.1184        0.0007       30.4278       30.4285      28.310127       0.04890
  32     8.786        2.1182        0.0009       30.4154       30.4163      28.298174       0.04642
  31     11.80        2.1178        0.0013       30.3984       30.3996      28.281789       0.04587
  30     15.07        2.1175        0.0016       30.3810       30.3826      28.265075       0.04315
  29     18.79        2.1171        0.0020       30.3623       30.3643      28.247175       0.04059
  28     23.16        2.1167        0.0025       30.3417       30.3442      28.227492       0.03806
  27     28.12        2.1162        0.0030       30.3196       30.3226      28.206392       0.03587
  26     33.73        2.1156        0.0036       30.2965       30.3001      28.184474       0.03295
  25     40.54        2.1150        0.0044       30.2708       30.2751      28.160137       0.03019
  24     48.69        2.1141        0.0052       30.2423       30.2475      28.133361       0.02771
  23     57.69        2.1132        0.0062       30.2139       30.2200      28.106796       0.02490
  22     68.43        2.1122        0.0073       30.1834       30.1907      28.078522       0.02223
  21     81.20        2.1109        0.0087       30.1500       30.1587      28.047794       0.02030
  20     96.49        2.1094        0.0103       30.1126       30.1229      28.013578       0.01888
  19     114.6        2.1076        0.0122       30.0695       30.0817      27.974195       0.01839
  18     136.5        2.1054        0.0145       30.0139       30.0284      27.923045       0.01967
  17     162.9        2.1028        0.0172       29.9225       29.9397      27.836875       0.02754
  16     196.4        2.0996        0.0207       29.7333       29.7541      27.654504       0.04590
  15     218.7        2.0974        0.0230       29.5259       29.5488      27.451392       0.07711
  14     243.0        2.0951        0.0253       29.1375       29.1627      27.067596       0.13311
  13     269.0        2.0928        0.0275       28.3800       28.4075      26.314682       0.24424
  12     297.5        2.0905        0.0295       27.3895       27.4191      25.328627       0.29245
  11     328.5        2.0882        0.0315       26.2257       26.2572      24.168997       0.31530
  10     361.9        2.0862        0.0333       24.8453       24.8786      22.792441       0.34828
   9     398.1        2.0845        0.0348       23.3471       23.3818      21.297381       0.34832
   8     437.6        2.0833        0.0360       21.7966       21.8327      19.749323       0.33098
   7     480.5        2.0833        0.0370       20.1977       20.2347      18.151433       0.31382
   6     533.0        2.0850        0.0379       18.4969       18.5348      16.449792       0.27374
   5     589.8        2.0897        0.0388       16.9754       17.0142      14.924463       0.22641
   4     651.6        2.0989        0.0397       15.6022       15.6419      13.542963       0.18892
   3     718.7        2.1136        0.0408       14.4232       14.4639      12.350348       0.14988
   2     792.3        2.1347        0.0420       13.4386       13.4806      11.345926       0.11520
   1     891.5        2.1749        0.0438       12.3736       12.4174      10.242530       0.09389
   0    1013.0        2.2572        0.0457       11.2911       11.3369       9.079649       0.08074



 Wavenumbers:  7700. -  8050. cm-1, ATM      1
 LEVEL PRESSURE   UPWARD FLUX   DIFDOWN FLUX  DIRDOWN FLUX  DOWNWARD FLUX   NET FLUX    HEATING RATE
          mb          W/m2          W/m2          W/m2        W/m2          W/m2       degree/day
  51    .06700        1.5348        0.0000        7.2006        7.2006       5.665748       0.00000
  50    .07753        1.5348        0.0000        7.2006        7.2006       5.665729       0.01499
  49    .09103        1.5348        0.0000        7.2005        7.2005       5.665706       0.01470
  48    0.1069        1.5348        0.0000        7.2005        7.2005       5.665679       0.01439
  47    0.1255        1.5348        0.0000        7.2005        7.2005       5.665648       0.01408
  46    0.1487        1.5348        0.0000        7.2004        7.2005       5.665609       0.01428
  45    0.1794        1.5348        0.0000        7.2004        7.2004       5.665555       0.01470
  44    0.2165        1.5348        0.0000        7.2003        7.2003       5.665492       0.01442
  43    0.2613        1.5348        0.0000        7.2003        7.2003       5.665417       0.01415
  42    0.3336        1.5349        0.0000        7.2001        7.2001       5.665292       0.01448
  41    0.4307        1.5349        0.0000        7.2000        7.2000       5.665128       0.01432
  40    0.5894        1.5349        0.0000        7.1997        7.1997       5.664859       0.01430
  39     1.339        1.5349        0.0001        7.1984        7.1985       5.663587       0.01432
  38     1.782        1.5349        0.0001        7.1977        7.1978       5.662840       0.01422
  37     2.292        1.5350        0.0001        7.1968        7.1969       5.661976       0.01431
  36     2.964        1.5350        0.0001        7.1957        7.1958       5.660842       0.01424
  35     3.853        1.5350        0.0002        7.1942        7.1944       5.659345       0.01421
  34     5.035        1.5351        0.0002        7.1922        7.1925       5.657357       0.01420
  33     6.613        1.5352        0.0003        7.1896        7.1899       5.654704       0.01418
  32     8.786        1.5353        0.0004        7.1860        7.1864       5.651136       0.01386
  31     11.80        1.5355        0.0005        7.1810        7.1815       5.646042       0.01426
  30     15.07        1.5356        0.0007        7.1755        7.1762       5.640589       0.01408
  29     18.79        1.5358        0.0008        7.1694        7.1703       5.634448       0.01392
  28     23.16        1.5361        0.0010        7.1623        7.1634       5.627304       0.01381
  27     28.12        1.5363        0.0012        7.1542        7.1555       5.619171       0.01383
  26     33.73        1.5366        0.0015        7.1452        7.1467       5.610118       0.01361
  25     40.54        1.5370        0.0018        7.1344        7.1362       5.599247       0.01349
  24     48.69        1.5374        0.0021        7.1215        7.1237       5.586240       0.01346
  23     57.69        1.5379        0.0025        7.1074        7.1100       5.572076       0.01328
  22     68.43        1.5385        0.0030        7.0909        7.0939       5.555373       0.01313
  21     81.20        1.5392        0.0036        7.0713        7.0749       5.535707       0.01299
  20     96.49        1.5400        0.0042        7.0484        7.0526       5.512598       0.01275
  19     114.6        1.5411        0.0050        7.0217        7.0267       5.485601       0.01261
  18     136.5        1.5423        0.0059        6.9906        6.9965       5.454200       0.01207
  17     162.9        1.5438        0.0070        6.9544        6.9614       5.417601       0.01170
  16     196.4        1.5458        0.0084        6.9087        6.9172       5.371360       0.01164
  15     218.7        1.5471        0.0093        6.8794        6.8888       5.341631       0.01129
  14     243.0        1.5486        0.0103        6.8481        6.8585       5.309835       0.01103
  13     269.0        1.5503        0.0114        6.8147        6.8261       5.275860       0.01102
  12     297.5        1.5521        0.0126        6.7791        6.7917       5.239528       0.01078
  11     328.5        1.5542        0.0138        6.7409        6.7548       5.200562       0.01059
  10     361.9        1.5566        0.0152        6.7002        6.7153       5.158741       0.01058
   9     398.1        1.5593        0.0166        6.6563        6.6729       5.113578       0.01052
   8     437.6        1.5624        0.0182        6.6089        6.6270       5.064567       0.01048
   7     480.5        1.5661        0.0198        6.5570        6.5768       5.010665       0.01059
   6     533.0        1.5712        0.0218        6.4915        6.5133       4.942120       0.01103
   5     589.8        1.5773        0.0239        6.4182        6.4422       4.864901       0.01146
   4     651.6        1.5848        0.0262        6.3359        6.3621       4.777321       0.01198
   3     718.7        1.5938        0.0286        6.2441        6.2727       4.678910       0.01237
   2     792.3        1.6046        0.0311        6.1437        6.1749       4.570263       0.01246
   1     891.5        1.6210        0.0345        6.0042        6.0386       4.417677       0.01298
   0    1013.0        1.6445        0.0383        5.8249        5.8632       4.218704       0.01382



 Wavenumbers:  8050. - 12850. cm-1, ATM      1
 LEVEL PRESSURE   UPWARD FLUX   DIFDOWN FLUX  DIRDOWN FLUX  DOWNWARD FLUX   NET FLUX    HEATING RATE
          mb          W/m2          W/m2          W/m2        W/m2          W/m2       degree/day
  51    .06700       39.6444        0.0000      100.8135      100.8135      61.169140       0.00000
  50    .07753       39.6444        0.0000      100.8135      100.8135      61.169140       0.00000
  49    .09103       39.6443        0.0001      100.8134      100.8135      61.169140       0.00000
  48    0.1069       39.6443        0.0001      100.8134      100.8135      61.169140      -0.00000
  47    0.1255       39.6443        0.0001      100.8133      100.8134      61.169140       0.00000
  46    0.1487       39.6442        0.0002      100.8132      100.8134      61.169140       0.00000
  45    0.1794       39.6442        0.0003      100.8131      100.8133      61.169140       0.00000
  44    0.2165       39.6441        0.0004      100.8129      100.8133      61.169140       0.00000
  43    0.2613       39.6441        0.0005      100.8127      100.8132      61.169140      -0.00000
  42    0.3336       39.6439        0.0006      100.8125      100.8131      61.169140      -0.00000
  41    0.4307       39.6438        0.0009      100.8121      100.8129      61.169140       0.00000
  40    0.5894       39.6435        0.0012      100.8115      100.8127      61.169140      -0.00000
  39     1.339       39.6423        0.0030      100.8085      100.8115      61.169140      -0.00000
  38     1.782       39.6416        0.0040      100.8068      100.8108      61.169140      -0.00000
  37     2.292       39.6408        0.0052      100.8047      100.8099      61.169140       0.00000
  36     2.964       39.6397        0.0068      100.8021      100.8089      61.169140      -0.00000
  35     3.853       39.6383        0.0088      100.7986      100.8075      61.169140      -0.00000
  34     5.035       39.6364        0.0116      100.7940      100.8056      61.169140       0.00000
  33     6.613       39.6339        0.0153      100.7878      100.8030      61.169140       0.00000
  32     8.786       39.6305        0.0202      100.7794      100.7996      61.169140       0.00000
  31     11.80       39.6256        0.0273      100.7674      100.7948      61.169140      -0.00000
  30     15.07       39.6204        0.0350      100.7546      100.7895      61.169140       0.00000
  29     18.79       39.6145        0.0436      100.7400      100.7836      61.169140      -0.00000
  28     23.16       39.6075        0.0537      100.7230      100.7767      61.169140      -0.00000
  27     28.12       39.5996        0.0652      100.7035      100.7687      61.169140      -0.00000
  26     33.73       39.5907        0.0782      100.6817      100.7598      61.169140      -0.00000
  25     40.54       39.5800        0.0939      100.6552      100.7491      61.169140       0.00000
  24     48.69       39.5670        0.1128      100.6234      100.7361      61.169140      -0.00000
  23     57.69       39.5527        0.1336      100.5883      100.7218      61.169140       0.00000
  22     68.43       39.5357        0.1584      100.5464      100.7048      61.169140      -0.00000
  21     81.20       39.5153        0.1879      100.4965      100.6845      61.169140      -0.00000
  20     96.49       39.4911        0.2232      100.4370      100.6602      61.169140       0.00000
  19     114.6       39.4623        0.2652      100.3585      100.6237      61.161415       0.00361
  18     136.5       39.4281        0.3151      100.2634      100.5784      61.150302       0.00427
  17     162.9       39.3874        0.3745      100.1407      100.5152      61.127764       0.00720
  16     196.4       39.3346        0.4517       99.9505      100.4023      61.067614       0.01514
  15     218.7       39.2999        0.5025       99.7889      100.2914      60.991495       0.02890
  14     243.0       39.2623        0.5575       99.5472      100.1047      60.842393       0.05171
  13     269.0       39.2223        0.6169       99.1452       99.7621      60.539857       0.09814
  12     297.5       39.1802        0.6806       98.5975       99.2781      60.097841       0.13110
  11     328.5       39.1369        0.7488       97.8659       98.6147      59.477721       0.16861
  10     361.9       39.0938        0.8213       96.8848       97.7061      58.612244       0.21897
   9     398.1       39.0526        0.8978       95.6330       96.5308      57.478240       0.26420
   8     437.6       39.0165        0.9780       94.0655       95.0435      56.026968       0.31029
   7     480.5       38.9921        1.0608       92.0807       93.1416      54.149502       0.36873
   6     533.0       38.9860        1.1587       89.4449       90.6036      51.617551       0.40731
   5     589.8       39.0151        1.2599       86.5544       87.8143      48.799168       0.41834
   4     651.6       39.0990        1.3638       83.4174       84.7812      45.682184       0.42626
   3     718.7       39.2498        1.4712       80.2037       81.6749      42.425084       0.40933
   2     792.3       39.4784        1.5827       77.0811       78.6638      39.185391       0.37156
   1     891.5       39.9299        1.7270       73.2645       74.9915      35.061649       0.35091
   0    1013.0       40.8464        1.8879       68.9425       70.8304      29.983973       0.35257



 Wavenumbers: 12850. - 16000. cm-1, ATM      1
 LEVEL PRESSURE   UPWARD FLUX   DIFDOWN FLUX  DIRDOWN FLUX  DOWNWARD FLUX   NET FLUX    HEATING RATE
          mb          W/m2          W/m2          W/m2        W/m2          W/m2       degree/day
  51    .06700       44.5419        0.0000       63.1686       63.1686      18.626705       0.00000
  50    .07753       44.5418        0.0001       63.1677       63.1678      18.625924       0.62641
  49    .09103       44.5418        0.0001       63.1666       63.1668      18.624949       0.60903
  48    0.1069       44.5418        0.0002       63.1654       63.1656      18.623839       0.59089
  47    0.1255       44.5418        0.0003       63.1640       63.1643      18.622576       0.57271
  46    0.1487       44.5417        0.0004       63.1623       63.1627      18.620999       0.57471
  45    0.1794       44.5417        0.0006       63.1600       63.1606      18.618884       0.58087
  44    0.2165       44.5417        0.0008       63.1573       63.1581      18.616434       0.55714
  43    0.2613       44.5417        0.0011       63.1542       63.1553      18.613606       0.53310
  42    0.3336       44.5417        0.0015       63.1493       63.1507      18.609094       0.52612
  41    0.4307       44.5417        0.0020       63.1431       63.1451      18.603440       0.49159
  40    0.5894       44.5418        0.0028       63.1338       63.1367      18.594852       0.45668
  39     1.339       44.5441        0.0069       63.0956       63.1025      18.558425       0.41011
  38     1.782       44.5466        0.0093       63.0740       63.0833      18.536770       0.41227
  37     2.292       44.5505        0.0121       63.0477       63.0597      18.509185       0.45689
  36     2.964       44.5575        0.0157       63.0095       63.0252      18.467756       0.52006
  35     3.853       44.5690        0.0205       62.9533       62.9737      18.404766       0.59778
  34     5.035       44.5866        0.0268       62.8725       62.8993      18.312749       0.65734
  33     6.613       44.6113        0.0353       62.7621       62.7974      18.186059       0.67728
  32     8.786       44.6434        0.0467       62.6182       62.6650      18.021574       0.63880
  31     11.80       44.6846        0.0630       62.4284       62.4913      17.806691       0.60160
  30     15.07       44.7236        0.0804       62.2426       62.3230      17.599434       0.53510
  29     18.79       44.7627        0.1001       62.0493       62.1494      17.386614       0.48253
  28     23.16       44.8029        0.1230       61.8424       61.9654      17.162493       0.43338
  27     28.12       44.8424        0.1491       61.6278       61.7769      16.934552       0.38748
  26     33.73       44.8772        0.1783       61.4177       61.5960      16.718758       0.32445
  25     40.54       44.9086        0.2135       61.1983       61.4118      16.503268       0.26734
  24     48.69       44.9359        0.2560       60.9680       61.2239      16.288028       0.22274
  23     57.69       44.9558        0.3025       60.7478       61.0503      16.094483       0.18142
  22     68.43       44.9685        0.3579       60.5202       60.8781      15.909530       0.14540
  21     81.20       44.9686        0.4238       60.2938       60.7176      15.748998       0.10608
  20     96.49       44.9549        0.5024       60.0643       60.5667      15.611764       0.07574
  19     114.6       44.9400        0.5964       59.8078       60.4041      15.464099       0.06895
  18     136.5       44.9160        0.7076       59.5157       60.2233      15.307306       0.06029
  17     162.9       44.8814        0.8397       59.1770       60.0167      15.135330       0.05497
  16     196.4       44.8240        1.0106       58.7604       59.7711      14.947100       0.04738
  15     218.7       44.7817        1.1226       58.4948       59.6174      14.835715       0.04229
  14     243.0       44.7338        1.2442       58.2089       59.4531      14.719229       0.04040
  13     269.0       44.6802        1.3756       57.9006       59.2762      14.595977       0.03998
  12     297.5       44.6211        1.5174       57.5668       59.0842      14.463162       0.03939
  11     328.5       44.5576        1.6703       57.2005       58.8708      14.313244       0.04076
  10     361.9       44.4906        1.8345       56.7963       58.6309      14.140266       0.04377
   9     398.1       44.4211        2.0107       56.3475       58.3582      13.937142       0.04732
   8     437.6       44.3513        2.1992       55.8422       58.0414      13.690126       0.05281
   7     480.5       44.2853        2.4002       55.2625       57.6627      13.377403       0.06142
   6     533.0       44.2189        2.6457       54.4972       57.1429      12.923953       0.07295
   5     589.8       44.1658        2.9072       53.6307       56.5379      12.372021       0.08192
   4     651.6       44.1341        3.1837       52.6606       55.8443      11.710209       0.09050
   3     718.7       44.1278        3.4758       51.6100       55.0858      10.958033       0.09453
   2     792.3       44.1523        3.7832       50.5019       54.2851      10.132808       0.09464
   1     891.5       44.2486        4.1890       49.0197       53.2087       8.960154       0.09979
   0    1013.0       44.4930        4.6607       47.2289       51.8896       7.396599       0.10857



 Wavenumbers: 16000. - 22650. cm-1, ATM      1
 LEVEL PRESSURE   UPWARD FLUX   DIFDOWN FLUX  DIRDOWN FLUX  DOWNWARD FLUX   NET FLUX    HEATING RATE
          mb          W/m2          W/m2          W/m2        W/m2          W/m2       degree/day
  51    .06700       85.1291        0.0000      100.7153      100.7153      15.586167       0.00000
  50    .07753       85.1290        0.0003      100.7147      100.7151      15.586046       0.09733
  49    .09103       85.1289        0.0008      100.7140      100.7148      15.585869       0.11040
  48    0.1069       85.1287        0.0012      100.7131      100.7144      15.585633       0.12589
  47    0.1255       85.1286        0.0018      100.7121      100.7139      15.585316       0.14349
  46    0.1487       85.1284        0.0025      100.7108      100.7133      15.584850       0.17004
  45    0.1794       85.1282        0.0035      100.7089      100.7123      15.584120       0.20020
  44    0.2165       85.1280        0.0046      100.7066      100.7112      15.583131       0.22500
  43    0.2613       85.1278        0.0060      100.7037      100.7096      15.581789       0.25296
  42    0.3336       85.1277        0.0082      100.6987      100.7069      15.579238       0.29747
  41    0.4307       85.1275        0.0112      100.6918      100.7029      15.575392       0.33438
  40    0.5894       85.1277        0.0160      100.6797      100.6957      15.568058       0.39002
  39     1.339       85.1345        0.0389      100.6095      100.6484      15.513882       0.60992
  38     1.782       85.1431        0.0523      100.5585      100.6108      15.467743       0.87840
  37     2.292       85.1572        0.0679      100.4903      100.5581      15.400977       1.10583
  36     2.964       85.1822        0.0883      100.3868      100.4751      15.292860       1.35719
  35     3.853       85.2244        0.1152      100.2306      100.3458      15.121420       1.62700
  34     5.035       85.2895        0.1510      100.0045      100.1554      14.865899       1.82534
  33     6.613       85.3811        0.1986       99.6939       99.8924      14.511298       1.89569
  32     8.786       85.4999        0.2626       99.2881       99.5507      14.050751       1.78860
  31     11.80       85.6522        0.3539       98.7496       99.1035      13.451338       1.67817
  30     15.07       85.7951        0.4516       98.2198       98.6714      12.876318       1.48459
  29     18.79       85.9381        0.5616       97.6651       98.2267      12.288617       1.33250
  28     23.16       86.0839        0.6896       97.0671       97.7568      11.672903       1.19059
  27     28.12       86.2257        0.8355       96.4406       97.2761      11.050386       1.05824
  26     33.73       86.3487        0.9982       95.8179       96.8161      10.467459       0.87645
  25     40.54       86.4560        1.1942       95.1548       96.3491       9.893099       0.71256
  24     48.69       86.5453        1.4296       94.4420       95.8716       9.326302       0.58655
  23     57.69       86.6048        1.6872       93.7416       95.4288       8.823976       0.47086
  22     68.43       86.6342        1.9928       92.9954       94.9882       8.353914       0.36953
  21     81.20       86.6124        2.3555       92.2231       94.5787       7.966290       0.25614
  20     96.49       86.5339        2.7859       91.4110       94.1969       7.663044       0.16737
  19     114.6       86.4148        3.2936       90.5070       93.8006       7.385828       0.12944
  18     136.5       86.2567        3.8905       89.4803       93.3707       7.114049       0.10451
  17     162.9       86.0538        4.5944       88.3022       92.8967       6.842837       0.08669
  16     196.4       85.7580        5.4974       86.8606       92.3580       6.599942       0.06114
  15     218.7       85.5526        6.0842       85.9492       92.0334       6.480737       0.04526
  14     243.0       85.3251        6.7165       84.9789       91.6954       6.370345       0.03829
  13     269.0       85.0743        7.3954       83.9493       91.3447       6.270340       0.03244
  12     297.5       84.7998        8.1218       82.8589       90.9807       6.180865       0.02654
  11     328.5       84.5034        8.8982       81.6982       90.5964       6.093030       0.02388
  10     361.9       84.1852        9.7245       80.4669       90.1915       6.006309       0.02194
   9     398.1       83.8445       10.6029       79.1611       89.7640       5.919463       0.02023
   8     437.6       83.4823       11.5336       77.7777       89.3113       5.829080       0.01932
   7     480.5       83.0989       12.5172       76.3136       88.8308       5.731962       0.01907
   6     533.0       82.6350       13.7082       74.5359       88.2441       5.609089       0.01977
   5     589.8       82.1465       14.9681       72.6469       87.6150       5.468470       0.02087
   4     651.6       81.6363       16.2949       70.6456       86.9405       5.304199       0.02246
   3     718.7       81.1053       17.6869       68.5367       86.2236       5.118335       0.02336
   2     792.3       80.5567       19.1388       66.3287       85.4675       4.910832       0.02380
   1     891.5       79.8526       21.0359       63.4246       84.4606       4.607961       0.02577
   0    1013.0       79.0666       23.2197       60.0483       83.2680       4.201438       0.02823



 Wavenumbers: 22650. - 29000. cm-1, ATM      1
 LEVEL PRESSURE   UPWARD FLUX   DIFDOWN FLUX  DIRDOWN FLUX  DOWNWARD FLUX   NET FLUX    HEATING RATE
          mb          W/m2          W/m2          W/m2        W/m2          W/m2       degree/day
  51    .06700       37.0074        0.0000       38.0063       38.0063       0.998868       0.00000
  50    .07753       37.0073        0.0004       38.0057       38.0061       0.998868       0.00000
  49    .09103       37.0071        0.0009       38.0050       38.0059       0.998868       0.00000
  48    0.1069       37.0068        0.0015       38.0042       38.0057       0.998868       0.00000
  47    0.1255       37.0066        0.0021       38.0033       38.0054       0.998868      -0.00000
  46    0.1487       37.0062        0.0029       38.0022       38.0051       0.998868       0.00000
  45    0.1794       37.0058        0.0041       38.0006       38.0047       0.998868      -0.00000
  44    0.2165       37.0053        0.0054       37.9987       38.0041       0.998868       0.00000
  43    0.2613       37.0046        0.0070       37.9965       38.0035       0.998868      -0.00000
  42    0.3336       37.0036        0.0096       37.9928       38.0024       0.998868       0.00000
  41    0.4307       37.0022        0.0131       37.9880       38.0010       0.998868       0.00000
  40    0.5894       36.9999        0.0187       37.9800       37.9988       0.998868       0.00000
  39     1.339       36.9891        0.0455       37.9425       37.9880       0.998868       0.00000
  38     1.782       36.9828        0.0613       37.9204       37.9817       0.998868      -0.00000
  37     2.292       36.9755        0.0795       37.8949       37.9744       0.998868       0.00000
  36     2.964       36.9659        0.1034       37.8614       37.9648       0.998868       0.00000
  35     3.853       36.9533        0.1349       37.8172       37.9521       0.998868      -0.00000
  34     5.035       36.9365        0.1768       37.7586       37.9353       0.998868       0.00000
  33     6.613       36.9140        0.2326       37.6803       37.9129       0.998868      -0.00000
  32     8.786       36.8839        0.3077       37.5750       37.8827       0.998868       0.00000
  31     11.80       36.8408        0.4149       37.4249       37.8397       0.998868      -0.00000
  30     15.07       36.7948        0.5295       37.2642       37.7937       0.998868      -0.00000
  29     18.79       36.7430        0.6585       37.0833       37.7418       0.998868       0.00000
  28     23.16       36.6827        0.8086       36.8730       37.6816       0.998868      -0.00000
  27     28.12       36.6141        0.9792       36.6338       37.6130       0.998868       0.00000
  26     33.73       36.5378        1.1690       36.3677       37.5367       0.998868       0.00000
  25     40.54       36.4463        1.3966       36.0486       37.4452       0.998868      -0.00000
  24     48.69       36.3369        1.6686       35.6672       37.3358       0.998868      -0.00000
  23     57.69       36.2180        1.9642       35.2527       37.2169       0.998868       0.00000
  22     68.43       36.0780        2.3120       34.7649       37.0769       0.998868       0.00000
  21     81.20       35.9136        2.7203       34.1922       36.9125       0.998868      -0.00000
  20     96.49       35.7210        3.1982       33.5217       36.7199       0.998868       0.00000
  19     114.6       35.4971        3.7536       32.7424       36.4959       0.998868      -0.00000
  18     136.5       35.2381        4.3953       31.8416       36.2369       0.998868       0.00000
  17     162.9       34.9385        5.1366       30.8008       35.9374       0.998868      -0.00000
  16     196.4       34.5640        6.0622       29.5007       35.5628       0.998868      -0.00000
  15     218.7       34.3264        6.6485       28.6767       35.3252       0.998868       0.00000
  14     243.0       34.0753        7.2674       27.8068       35.0742       0.998868       0.00000
  13     269.0       33.8114        7.9169       26.8933       34.8102       0.998868       0.00000
  12     297.5       33.5354        8.5950       25.9393       34.5343       0.998868       0.00000
  11     328.5       33.2476        9.3013       24.9451       34.2464       0.998868       0.00000
  10     361.9       32.9491       10.0320       23.9160       33.9480       0.998868      -0.00000
   9     398.1       32.6407       10.7855       22.8541       33.6396       0.998868       0.00000
   8     437.6       32.3237       11.5581       21.7645       33.3226       0.998868      -0.00000
   7     480.5       31.9995       12.3462       20.6521       32.9983       0.998868       0.00000
   6     533.0       31.6210       13.2629       19.3569       32.6198       0.998868      -0.00000
   5     589.8       31.2370       14.1891       18.0467       32.2358       0.998868      -0.00000
   4     651.6       30.8502       15.1174       16.7316       31.8491       0.998868       0.00000
   3     718.7       30.4633       16.0407       15.4214       31.4622       0.998868       0.00000
   2     792.3       30.0794       16.9507       14.1276       31.0783       0.998868      -0.00000
   1     891.5       29.6072       18.0602       12.5459       30.6061       0.998868       0.00000
   0    1013.0       29.1028       19.2300       10.8717       30.1017       0.998868      -0.00000



 Wavenumbers: 29000. - 38000. cm-1, ATM      1
 LEVEL PRESSURE   UPWARD FLUX   DIFDOWN FLUX  DIRDOWN FLUX  DOWNWARD FLUX   NET FLUX    HEATING RATE
          mb          W/m2          W/m2          W/m2        W/m2          W/m2       degree/day
  51    .06700        5.2659        0.0000       13.4026       13.4026       8.136651       0.00000
  50    .07753        5.2657        0.0003       13.3983       13.3986       8.132852       3.04474
  49    .09103        5.2655        0.0007       13.3921       13.3928       8.127333       3.45007
  48    0.1069        5.2652        0.0011       13.3840       13.3851       8.119955       3.92723
  47    0.1255        5.2648        0.0016       13.3733       13.3749       8.110109       4.46371
  46    0.1487        5.2644        0.0022       13.3579       13.3601       8.095665       5.26503
  45    0.1794        5.2638        0.0030       13.3340       13.3371       8.073262       6.15004
  44    0.2165        5.2632        0.0040       13.3024       13.3064       8.043239       6.82965
  43    0.2613        5.2624        0.0052       13.2604       13.2656       8.003180       7.55112
  42    0.3336        5.2612        0.0071       13.1833       13.1904       7.929163       8.62964
  41    0.4307        5.2597        0.0096       13.0729       13.0825       7.822775       9.25020
  40    0.5894        5.2574        0.0135       12.8796       12.8931       7.635700       9.94838
  39     1.339        5.2493        0.0299       11.9165       11.9465       6.697125      10.56665
  38     1.782        5.2463        0.0383       11.4399       11.4783       6.231944       8.85629
  37     2.292        5.2442        0.0473       10.9796       11.0269       5.782728       7.44019
  36     2.964        5.2434        0.0584       10.4786       10.5370       5.293644       6.13948
  35     3.853        5.2449        0.0721        9.9429       10.0150       4.770075       4.96876
  34     5.035        5.2495        0.0891        9.4007        9.4898       4.240290       3.78457
  33     6.613        5.2576        0.1108        8.8752        8.9860       3.728443       2.73634
  32     8.786        5.2686        0.1388        8.3786        8.5174       3.248815       1.86270
  31     11.80        5.2822        0.1772        7.8897        8.0669       2.784676       1.29944
  30     15.07        5.2944        0.2169        7.5108        7.7277       2.433342       0.90708
  29     18.79        5.3060        0.2601        7.1776        7.4378       2.131745       0.68381
  28     23.16        5.3173        0.3089        6.8664        7.1753       1.858081       0.52918
  27     28.12        5.3272        0.3629        6.5780        6.9409       1.613652       0.41551
  26     33.73        5.3333        0.4217        6.3195        6.7412       1.407848       0.30943
  25     40.54        5.3346        0.4911        6.0663        6.5574       1.222819       0.22955
  24     48.69        5.3305        0.5726        5.8128        6.3854       1.054860       0.17381
  23     57.69        5.3208        0.6595        5.5777        6.2372       0.916480       0.12971
  22     68.43        5.3033        0.7603        5.3379        6.0982       0.794858       0.09561
  21     81.20        5.2738        0.8773        5.0965        5.9738       0.699996       0.06268
  20     96.49        5.2310        1.0126        4.8476        5.8602       0.629211       0.03907
  19     114.6        5.1785        1.1661        4.5799        5.7460       0.567464       0.02883
  18     136.5        5.1175        1.3379        4.2891        5.6270       0.509449       0.02231
  17     162.9        5.0480        1.5289        3.9732        5.5020       0.453986       0.01773
  16     196.4        4.9598        1.7582        3.6080        5.3662       0.406415       0.01197
  15     218.7        4.9042        1.8982        3.3898        5.2879       0.383697       0.00863
  14     243.0        4.8467        2.0412        3.1686        5.2097       0.363037       0.00717
  13     269.0        4.7875        2.1862        2.9461        5.1322       0.344766       0.00593
  12     297.5        4.7270        2.3320        2.7239        5.0559       0.328911       0.00470
  11     328.5        4.6661        2.4772        2.5029        4.9801       0.313970       0.00406
  10     361.9        4.6054        2.6208        2.2846        4.9054       0.299970       0.00354
   9     398.1        4.5453        2.7615        2.0708        4.8322       0.286904       0.00304
   8     437.6        4.4863        2.8982        1.8626        4.7608       0.274497       0.00265
   7     480.5        4.4288        3.0295        1.6621        4.6917       0.262886       0.00228
   6     533.0        4.3654        3.1721        1.4437        4.6158       0.250410       0.00201
   5     589.8        4.3053        3.3049        1.2390        4.5439       0.238505       0.00177
   4     651.6        4.2492        3.4262        1.0500        4.4763       0.227010       0.00157
   3     718.7        4.1974        3.5355        0.8778        4.4133       0.215885       0.00140
   2     792.3        4.1503        3.6317        0.7237        4.3554       0.205109       0.00124
   1     891.5        4.0981        3.7337        0.5563        4.2900       0.191939       0.00112
   0    1013.0        4.0492        3.8229        0.4039        4.2268       0.177538       0.00100



 Wavenumbers: 38000. - 50000. cm-1, ATM      1
 LEVEL PRESSURE   UPWARD FLUX   DIFDOWN FLUX  DIRDOWN FLUX  DOWNWARD FLUX   NET FLUX    HEATING RATE
          mb          W/m2          W/m2          W/m2        W/m2          W/m2       degree/day
  51    .06700        0.0051        0.0000        0.8267        0.8267       0.821528       0.00000
  50    .07753        0.0051        0.0001        0.8242        0.8243       0.819196       1.86936
  49    .09103        0.0050        0.0002        0.8207        0.8209       0.815872       2.07705
  48    0.1069        0.0049        0.0002        0.8162        0.8164       0.811514       2.31984
  47    0.1255        0.0048        0.0004        0.8103        0.8106       0.805801       2.59006
  46    0.1487        0.0047        0.0005        0.8018        0.8023       0.797567       3.00143
  45    0.1794        0.0045        0.0007        0.7889        0.7896       0.785013       3.44648
  44    0.2165        0.0044        0.0009        0.7720        0.7729       0.768507       3.75474
  43    0.2613        0.0042        0.0011        0.7500        0.7511       0.746955       4.06246
  42    0.3336        0.0039        0.0015        0.7106        0.7121       0.708267       4.51071
  41    0.4307        0.0035        0.0019        0.6566        0.6584       0.654972       4.63387
  40    0.5894        0.0029        0.0024        0.5680        0.5704       0.567464       4.65357
  39     1.339        0.0015        0.0030        0.2422        0.2452       0.243720       3.64476
  38     1.782        0.0010        0.0026        0.1493        0.1519       0.150889       1.76735
  37     2.292        0.0007        0.0022        0.0924        0.0946       0.093932       0.94336
  36     2.964        0.0005        0.0018        0.0539        0.0557       0.055224       0.48589
  35     3.853        0.0003        0.0013        0.0295        0.0308       0.030502       0.23462
  34     5.035        0.0002        0.0010        0.0154        0.0164       0.016181       0.10230
  33     6.613        0.0001        0.0007        0.0073        0.0080       0.007912       0.04420
  32     8.786        0.0000        0.0004        0.0030        0.0034       0.003390       0.01756
  31     11.80        0.0000        0.0003        0.0010        0.0012       0.001199       0.00613
  30     15.07        0.0000        0.0001        0.0003        0.0005       0.000463       0.00190
  29     18.79        0.0000        0.0001        0.0001        0.0002       0.000182       0.00064
  28     23.16        0.0000        0.0000        0.0000        0.0001       0.000071       0.00022
  27     28.12        0.0000        0.0000        0.0000        0.0000       0.000028       0.00007
  26     33.73        0.0000        0.0000        0.0000        0.0000       0.000011       0.00002
  25     40.54        0.0000        0.0000        0.0000        0.0000       0.000005       0.00001
  24     48.69        0.0000        0.0000        0.0000        0.0000       0.000002       0.00000
  23     57.69        0.0000        0.0000        0.0000        0.0000       0.000001       0.00000
  22     68.43        0.0000        0.0000        0.0000        0.0000       0.000000       0.00000
  21     81.20        0.0000        0.0000        0.0000        0.0000       0.000000       0.00000
  20     96.49        0.0000        0.0000        0.0000        0.0000       0.000000       0.00000
  19     114.6        0.0000        0.0000        0.0000        0.0000       0.000000       0.00000
  18     136.5        0.0000        0.0000        0.0000        0.0000       0.000000       0.00000
  17     162.9        0.0000        0.0000        0.0000        0.0000       0.000000       0.00000
  16     196.4        0.0000        0.0000        0.0000        0.0000       0.000000       0.00000
  15     218.7        0.0000        0.0000        0.0000        0.0000       0.000000       0.00000
  14     243.0        0.0000        0.0000        0.0000        0.0000       0.000000       0.00000
  13     269.0        0.0000        0.0000        0.0000        0.0000       0.000000       0.00000
  12     297.5        0.0000        0.0000        0.0000        0.0000       0.000000       0.00000
  11     328.5        0.0000        0.0000        0.0000        0.0000       0.000000       0.00000
  10     361.9        0.0000        0.0000        0.0000        0.0000       0.000000       0.00000
   9     398.1        0.0000        0.0000        0.0000        0.0000       0.000000       0.00000
   8     437.6        0.0000        0.0000        0.0000        0.0000       0.000000       0.00000
   7     480.5        0.0000        0.0000        0.0000        0.0000       0.000000       0.00000
   6     533.0        0.0000        0.0000        0.0000        0.0000       0.000000       0.00000
   5     589.8        0.0000        0.0000        0.0000        0.0000       0.000000       0.00000
   4     651.6        0.0000        0.0000        0.0000        0.0000       0.000000       0.00000
   3     718.7        0.0000        0.0000        0.0000        0.0000       0.000000       0.00000
   2     792.3        0.0000        0.0000        0.0000        0.0000       0.000000       0.00000
   1     891.5        0.0000        0.0000        0.0000        0.0000       0.000000       0.00000
   0    1013.0        0.0000        0.0000        0.0000        0.0000       0.000000       0.00000



 Wavenumbers:   820. -  2600. cm-1, ATM      1
 LEVEL PRESSURE   UPWARD FLUX   DIFDOWN FLUX  DIRDOWN FLUX  DOWNWARD FLUX   NET FLUX    HEATING RATE
          mb          W/m2          W/m2          W/m2        W/m2          W/m2       degree/day
  51    .06700        0.1277        0.0000        3.8670        3.8670       3.739331       0.00000
  50    .07753        0.1277        0.0000        3.8643        3.8643       3.736614       2.17769
  49    .09103        0.1277        0.0000        3.8635        3.8635       3.735804       0.50638
  48    0.1069        0.1277        0.0000        3.8626        3.8626       3.734913       0.47415
  47    0.1255        0.1277        0.0000        3.8616        3.8616       3.733952       0.43559
  46    0.1487        0.1277        0.0000        3.8605        3.8605       3.732843       0.40437
  45    0.1794        0.1277        0.0000        3.8592        3.8592       3.731508       0.36647
  44    0.2165        0.1277        0.0000        3.8578        3.8578       3.730130       0.31346
  43    0.2613        0.1277        0.0000        3.8564        3.8564       3.728670       0.27522
  42    0.3336        0.1277        0.0000        3.8541        3.8541       3.726439       0.26012
  41    0.4307        0.1277        0.0000        3.8512        3.8512       3.723556       0.25063
  40    0.5894        0.1277        0.0000        3.8465        3.8465       3.718830       0.25133
  39     1.339        0.1277        0.0000        3.8251        3.8251       3.697455       0.24064
  38     1.782        0.1277        0.0000        3.8133        3.8133       3.685642       0.22489
  37     2.292        0.1277        0.0000        3.8003        3.8003       3.672581       0.21632
  36     2.964        0.1277        0.0000        3.7841        3.7841       3.656453       0.20246
  35     3.853        0.1277        0.0000        3.7642        3.7642       3.636538       0.18899
  34     5.035        0.1277        0.0000        3.7395        3.7395       3.611848       0.17638
  33     6.613        0.1277        0.0000        3.7090        3.7090       3.581313       0.16324
  32     8.786        0.1277        0.0000        3.6726        3.6726       3.544920       0.14133
  31     11.80        0.1277        0.0000        3.6320        3.6320       3.504327       0.11365
  30     15.07        0.1277        0.0000        3.6016        3.6016       3.473944       0.07844
  29     18.79        0.1277        0.0000        3.5777        3.5777       3.450047       0.05418
  28     23.16        0.1277        0.0000        3.5564        3.5564       3.428695       0.04129
  27     28.12        0.1277        0.0000        3.5348        3.5348       3.407150       0.03662
  26     33.73        0.1277        0.0000        3.5118        3.5118       3.384119       0.03463
  25     40.54        0.1277        0.0000        3.4849        3.4849       3.357233       0.03335
  24     48.69        0.1277        0.0000        3.4537        3.4537       3.325983       0.03234
  23     57.69        0.1277        0.0000        3.4210        3.4210       3.293313       0.03062
  22     68.43        0.1277        0.0000        3.3844        3.3844       3.256730       0.02876
  21     81.20        0.1277        0.0000        3.3441        3.3441       3.216434       0.02663
  20     96.49        0.1277        0.0000        3.2998        3.2998       3.172073       0.02448
  19     114.6        0.1277        0.0000        3.2506        3.2506       3.122928       0.02295
  18     136.5        0.1277        0.0000        3.1936        3.1936       3.065882       0.02194
  17     162.9        0.1277        0.0000        3.1181        3.1181       2.990383       0.02413
  16     196.4        0.1278        0.0000        3.0090        3.0090       2.881203       0.02748
  15     218.7        0.1278        0.0000        2.9420        2.9420       2.814203       0.02544
  14     243.0        0.1278        0.0000        2.8605        2.8605       2.732648       0.02829
  13     269.0        0.1279        0.0000        2.7419        2.7420       2.614076       0.03846
  12     297.5        0.1280        0.0000        2.5729        2.5729       2.444885       0.05018
  11     328.5        0.1282        0.0000        2.3602        2.3602       2.232017       0.05788
  10     361.9        0.1285        0.0000        2.1524        2.1524       2.023971       0.05264
   9     398.1        0.1289        0.0000        1.9974        1.9974       1.868557       0.03621
   8     437.6        0.1295        0.0000        1.8835        1.8835       1.754064       0.02448
   7     480.5        0.1303        0.0000        1.7734        1.7734       1.643132       0.02179
   6     533.0        0.1317        0.0000        1.6397        1.6398       1.508017       0.02174
   5     589.8        0.1338        0.0000        1.5068        1.5069       1.373032       0.02004
   4     651.6        0.1369        0.0000        1.3807        1.3807       1.243809       0.01767
   3     718.7        0.1410        0.0000        1.2680        1.2680       1.127015       0.01468
   2     792.3        0.1461        0.0000        1.1659        1.1660       1.019890       0.01229
   1     891.5        0.1546        0.0000        1.0372        1.0373       0.882670       0.01168
   0    1013.0        0.1701        0.0000        0.8716        0.8717       0.701614       0.01257

  Modules and versions used in this calculation:

       rrtmg_sw.1col.f90:  $Revision$                    rrtmg_sw_init.f90:  $Revision$        
     rrtmgsw_cldprop.f90:  $Revision$                  rrtmgsw_cldprmc.f90:  NOT USED          
     rrtmg_sw_reftra.f90:  $Revision$                  rrtmg_sw_spcvrt.f90:  NOT USED          
     rrtmg_sw_spcvmc.f90:  NOT USED                    rrtmgsw_setcoef.f90:  NOT USED          
     rrtmg_sw_taumol.f90:  $Revision$                  rrtmg_sw_vrtqdr.f90:  NOT USED          
                rrtatm.f:  NOT USED                             util_xxx.f:  NOT USED          
                 extra.f:  NOT USED                       rrtmg_sw_k_g.f90:  $Revision$        

