

 Wavenumbers:   820. - 50000. cm-1, ATM      1
 LEVEL PRESSURE   UPWARD FLUX   DIFDOWN FLUX  DIRDOWN FLUX  DOWNWARD FLUX   NET FLUX    HEATING RATE
          mb          W/m2          W/m2          W/m2        W/m2          W/m2       degree/day
  51    .06700      207.2475        0.0000      397.8738      397.8738     190.626259       0.00000
  50    .07753      207.2469        0.0012      397.8577      397.8589     190.611970      11.45245
  49    .09103      207.2462        0.0027      397.8418      397.8445     190.598285       8.55348
  48    0.1069      207.2454        0.0044      397.8230      397.8273     190.581942       8.69981
  47    0.1255      207.2445        0.0063      397.7997      397.8060     190.561504       9.26534
  46    0.1487      207.2433        0.0088      397.7676      397.7764     190.533054      10.37043
  45    0.1794      207.2418        0.0121      397.7205      397.7326     190.490772      11.60725
  44    0.2165      207.2402        0.0161      397.6602      397.6763     190.436138      12.42841
  43    0.2613      207.2383        0.0207      397.5829      397.6036     190.365359      13.34158
  42    0.3336      207.2353        0.0284      397.4449      397.4733     190.237952      14.85435
  41    0.4307      207.2317        0.0384      397.2524      397.2908     190.059130      15.54819
  40    0.5894      207.2264        0.0546      396.9253      396.9799     189.753498      16.25313
  39     1.339      207.2129        0.1269      395.4254      395.5522     188.339324      15.92103
  38     1.782      207.2127        0.1674      394.7288      394.8962     187.683521      12.48543
  37     2.292      207.2192        0.2136      394.0572      394.2707     187.051571      10.46674
  36     2.964      207.2377        0.2735      393.3007      393.5742     186.336454       8.97687
  35     3.853      207.2762        0.3519      392.4318      392.7837     185.507444       7.86746
  34     5.035      207.3411        0.4550      391.4441      391.8990     184.557898       6.78316
  33     6.613      207.4354        0.5915      390.3268      390.9183     183.482849       5.74721
  32     8.786      207.5570        0.7742      389.0624      389.8366     182.279629       4.67287
  31     11.80      207.7074        1.0335      387.5500      388.5835     180.876092       3.92946
  30     15.07      207.8414        1.3096      386.1556      387.4652     179.623839       3.23307
  29     18.79      207.9683        1.6191      384.7502      386.3693     178.401021       2.77251
  28     23.16      208.0883        1.9778      383.2686      385.2464     177.158060       2.40349
  27     28.12      208.1927        2.3846      381.7329      384.1175     175.924842       2.09639
  26     33.73      208.2611        2.8366      380.1982      383.0348     174.773710       1.73076
  25     40.54      208.2878        3.3788      378.5384      381.9172     173.629363       1.41969
  24     48.69      208.2664        4.0267      376.7214      380.7482     172.481727       1.18762
  23     57.69      208.1916        4.7318      374.8959      379.6277     171.436156       0.98006
  22     68.43      208.0473        5.5632      372.8999      378.4632     170.415848       0.80210
  21     81.20      207.7993        6.5434      370.7496      377.2930     169.493645       0.60938
  20     96.49      207.4352        7.6967      368.4056      376.1023     168.667073       0.45621
  19     114.6      206.9820        9.0443      365.7513      374.7955     167.813566       0.39853
  18     136.5      206.4299       10.6098      362.7231      373.3329     166.903046       0.35012
  17     162.9      205.7647       12.4304      359.1748      371.6052     165.840533       0.33962
  16     196.4      204.8742       14.7270      354.5718      369.2988     164.424661       0.35639
  15     218.7      204.2851       16.1966      351.4437      367.6403     163.355186       0.40604
  14     243.0      203.6491       17.7603      347.7111      365.4714     161.822276       0.53166
  13     269.0      202.9666       19.4164      342.9441      362.3606     159.393935       0.78774
  12     297.5      202.2389       21.1630      337.4137      358.5767     156.337770       0.90643
  11     328.5      201.4707       23.0017      331.1302      354.1320     152.661278       0.99963
  10     361.9      200.6662       24.9273      324.1219      349.0492     148.382980       1.08245
   9     398.1      199.8284       26.9393      316.6066      343.5458     143.717409       1.08697
   8     437.6      198.9654       29.0332      308.5895      337.6227     138.657331       1.08188
   7     480.5      198.0900       31.2036      299.9349      331.1385     133.048515       1.10155
   6     533.0      197.0876       33.7767      289.7021      323.4789     126.391212       1.07095
   5     589.8      196.1055       36.4354      279.3388      315.7742     119.668660       0.99785
   4     651.6      195.1779       39.1678      268.7786      307.9464     112.768534       0.94361
   3     718.7      194.3247       41.9651      258.2837      300.2488     105.924111       0.86015
   2     792.3      193.5688       44.8135      248.0774      292.8909      99.322060       0.75718
   1     891.5      192.8496       48.4329      235.5216      283.9545      91.104905       0.69924
   0    1013.0      192.6372       52.4598      221.4731      273.9329      81.295663       0.68111



 Wavenumbers:  2600. -  3250. cm-1, ATM      1
 LEVEL PRESSURE   UPWARD FLUX   DIFDOWN FLUX  DIRDOWN FLUX  DOWNWARD FLUX   NET FLUX    HEATING RATE
          mb          W/m2          W/m2          W/m2        W/m2          W/m2       degree/day
  51    .06700        0.2239        0.0000        3.5066        3.5066       3.282695       0.00000
  50    .07753        0.2239        0.0000        3.5066        3.5066       3.282687       0.00640
  49    .09103        0.2239        0.0000        3.5066        3.5066       3.282677       0.00627
  48    0.1069        0.2239        0.0000        3.5066        3.5066       3.282665       0.00613
  47    0.1255        0.2239        0.0000        3.5066        3.5066       3.282652       0.00599
  46    0.1487        0.2239        0.0000        3.5066        3.5066       3.282636       0.00607
  45    0.1794        0.2239        0.0000        3.5065        3.5065       3.282613       0.00624
  44    0.2165        0.2239        0.0000        3.5065        3.5065       3.282586       0.00611
  43    0.2613        0.2239        0.0000        3.5065        3.5065       3.282554       0.00598
  42    0.3336        0.2239        0.0000        3.5064        3.5064       3.282502       0.00615
  41    0.4307        0.2239        0.0000        3.5064        3.5064       3.282431       0.00618
  40    0.5894        0.2239        0.0000        3.5062        3.5062       3.282311       0.00633
  39     1.339        0.2239        0.0000        3.5055        3.5055       3.281613       0.00787
  38     1.782        0.2239        0.0000        3.5050        3.5050       3.281082       0.01011
  37     2.292        0.2239        0.0000        3.5043        3.5043       3.280389       0.01147
  36     2.964        0.2239        0.0000        3.5033        3.5033       3.279398       0.01245
  35     3.853        0.2239        0.0000        3.5019        3.5019       3.278021       0.01307
  34     5.035        0.2239        0.0000        3.5001        3.5001       3.276160       0.01329
  33     6.613        0.2239        0.0000        3.4977        3.4977       3.273750       0.01288
  32     8.786        0.2239        0.0000        3.4947        3.4947       3.270779       0.01154
  31     11.80        0.2239        0.0000        3.4911        3.4911       3.267144       0.01018
  30     15.07        0.2239        0.0000        3.4878        3.4878       3.263923       0.00832
  29     18.79        0.2239        0.0000        3.4848        3.4848       3.260860       0.00695
  28     23.16        0.2239        0.0000        3.4816        3.4816       3.257640       0.00623
  27     28.12        0.2239        0.0000        3.4779        3.4779       3.254022       0.00615
  26     33.73        0.2239        0.0000        3.4735        3.4735       3.249556       0.00671
  25     40.54        0.2239        0.0000        3.4671        3.4671       3.243231       0.00785
  24     48.69        0.2239        0.0000        3.4582        3.4583       3.234336       0.00920
  23     57.69        0.2239        0.0000        3.4472        3.4472       3.223289       0.01036
  22     68.43        0.2239        0.0000        3.4329        3.4329       3.209031       0.01121
  21     81.20        0.2239        0.0000        3.4152        3.4152       3.191304       0.01171
  20     96.49        0.2239        0.0000        3.3940        3.3941       3.170161       0.01167
  19     114.6        0.2239        0.0000        3.3692        3.3692       3.145274       0.01162
  18     136.5        0.2239        0.0001        3.3419        3.3420       3.118060       0.01046
  17     162.9        0.2240        0.0001        3.3129        3.3129       3.088990       0.00929
  16     196.4        0.2240        0.0001        3.2793        3.2794       3.055424       0.00845
  15     218.7        0.2240        0.0001        3.2578        3.2578       3.033813       0.00820
  14     243.0        0.2241        0.0001        3.2320        3.2320       3.007950       0.00897
  13     269.0        0.2242        0.0001        3.1968        3.1969       2.972715       0.01143
  12     297.5        0.2244        0.0001        3.1489        3.1490       2.924653       0.01425
  11     328.5        0.2247        0.0001        3.0821        3.0822       2.857500       0.01826
  10     361.9        0.2251        0.0001        2.9902        2.9904       2.765280       0.02333
   9     398.1        0.2257        0.0001        2.8715        2.8716       2.645964       0.02780
   8     437.6        0.2265        0.0001        2.7276        2.7278       2.501317       0.03093
   7     480.5        0.2277        0.0001        2.5595        2.5597       2.331990       0.03326
   6     533.0        0.2297        0.0001        2.3617        2.3619       2.132227       0.03214
   5     589.8        0.2325        0.0002        2.1649        2.1651       1.932555       0.02964
   4     651.6        0.2366        0.0002        1.9608        1.9609       1.724273       0.02848
   3     718.7        0.2423        0.0002        1.7593        1.7595       1.517219       0.02602
   2     792.3        0.2496        0.0002        1.5761        1.5762       1.326620       0.02186
   1     891.5        0.2622        0.0002        1.3714        1.3716       1.109394       0.01848
   0    1013.0        0.2850        0.0002        1.1584        1.1586       0.873585       0.01637



 Wavenumbers:  3250. -  4000. cm-1, ATM      1
 LEVEL PRESSURE   UPWARD FLUX   DIFDOWN FLUX  DIRDOWN FLUX  DOWNWARD FLUX   NET FLUX    HEATING RATE
          mb          W/m2          W/m2          W/m2        W/m2          W/m2       degree/day
  51    .06700        0.0004        0.0000        5.9117        5.9117       5.911216       0.00000
  50    .07753        0.0004        0.0000        5.9075        5.9075       5.907026       3.35808
  49    .09103        0.0004        0.0000        5.9050        5.9050       5.904584       1.52677
  48    0.1069        0.0004        0.0000        5.9032        5.9032       5.902717       0.99346
  47    0.1255        0.0004        0.0000        5.9014        5.9014       5.900959       0.79708
  46    0.1487        0.0004        0.0000        5.8995        5.8995       5.899070       0.68848
  45    0.1794        0.0004        0.0000        5.8974        5.8974       5.896922       0.58983
  44    0.2165        0.0004        0.0000        5.8952        5.8952       5.894805       0.48155
  43    0.2613        0.0004        0.0000        5.8931        5.8931       5.892646       0.40696
  42    0.3336        0.0004        0.0000        5.8899        5.8899       5.889488       0.36820
  41    0.4307        0.0004        0.0000        5.8861        5.8861       5.885651       0.33365
  40    0.5894        0.0004        0.0000        5.8803        5.8803       5.879848       0.30857
  39     1.339        0.0004        0.0000        5.8597        5.8597       5.859251       0.23189
  38     1.782        0.0004        0.0000        5.8513        5.8513       5.850826       0.16039
  37     2.292        0.0004        0.0000        5.8431        5.8431       5.842655       0.13533
  36     2.964        0.0004        0.0000        5.8334        5.8334       5.833015       0.12100
  35     3.853        0.0004        0.0000        5.8213        5.8213       5.820840       0.11555
  34     5.035        0.0004        0.0000        5.8052        5.8052       5.804745       0.11498
  33     6.613        0.0004        0.0000        5.7833        5.7834       5.782923       0.11666
  32     8.786        0.0004        0.0000        5.7531        5.7531       5.752722       0.11729
  31     11.80        0.0004        0.0000        5.7090        5.7090       5.708553       0.12366
  30     15.07        0.0004        0.0000        5.6615        5.6615       5.661088       0.12254
  29     18.79        0.0004        0.0000        5.6093        5.6094       5.608953       0.11821
  28     23.16        0.0004        0.0000        5.5524        5.5524       5.552027       0.11008
  27     28.12        0.0004        0.0000        5.4935        5.4935       5.493148       0.10009
  26     33.73        0.0004        0.0000        5.4348        5.4349       5.434459       0.08824
  25     40.54        0.0004        0.0001        5.3707        5.3708       5.370398       0.07948
  24     48.69        0.0004        0.0001        5.2985        5.2985       5.298165       0.07475
  23     57.69        0.0004        0.0001        5.2215        5.2216       5.221226       0.07212
  22     68.43        0.0003        0.0001        5.1318        5.1319       5.131566       0.07048
  21     81.20        0.0003        0.0001        5.0284        5.0285       5.028136       0.06834
  20     96.49        0.0003        0.0001        4.9122        4.9123       4.912002       0.06410
  19     114.6        0.0003        0.0001        4.7780        4.7782       4.777891       0.06262
  18     136.5        0.0003        0.0002        4.6285        4.6287       4.628413       0.05748
  17     162.9        0.0002        0.0002        4.4406        4.4407       4.440500       0.06006
  16     196.4        0.0002        0.0002        4.1548        4.1550       4.154827       0.07191
  15     218.7        0.0002        0.0002        3.9564        3.9566       3.956446       0.07532
  14     243.0        0.0002        0.0002        3.7055        3.7058       3.705612       0.08700
  13     269.0        0.0001        0.0002        3.3399        3.3401       3.339973       0.11861
  12     297.5        0.0001        0.0002        2.8954        2.8956       2.895483       0.13183
  11     328.5        0.0001        0.0002        2.4388        2.4390       2.438942       0.12413
  10     361.9        0.0001        0.0002        2.0269        2.0271       2.027003       0.10422
   9     398.1        0.0001        0.0002        1.6753        1.6755       1.675415       0.08191
   8     437.6        0.0001        0.0002        1.3592        1.3594       1.359296       0.06759
   7     480.5        0.0001        0.0002        1.0616        1.0618       1.061713       0.05844
   6     533.0        0.0001        0.0001        0.7543        0.7544       0.754377       0.04944
   5     589.8        0.0001        0.0001        0.4951        0.4952       0.495181       0.03847
   4     651.6        0.0001        0.0001        0.2943        0.2943       0.294278       0.02747
   3     718.7        0.0001        0.0001        0.1528        0.1529       0.152770       0.01778
   2     792.3        0.0001        0.0000        0.0658        0.0658       0.065710       0.00998
   1     891.5        0.0003        0.0000        0.0157        0.0157       0.015360       0.00428
   0    1013.0        0.0013        0.0000        0.0013        0.0013       0.000051       0.00106



 Wavenumbers:  4000. -  4650. cm-1, ATM      1
 LEVEL PRESSURE   UPWARD FLUX   DIFDOWN FLUX  DIRDOWN FLUX  DOWNWARD FLUX   NET FLUX    HEATING RATE
          mb          W/m2          W/m2          W/m2        W/m2          W/m2       degree/day
  51    .06700        0.6492        0.0000        6.9421        6.9421       6.292841       0.00000
  50    .07753        0.6492        0.0000        6.9421        6.9421       6.292840       0.00079
  49    .09103        0.6492        0.0000        6.9421        6.9421       6.292838       0.00078
  48    0.1069        0.6492        0.0000        6.9421        6.9421       6.292837       0.00076
  47    0.1255        0.6492        0.0000        6.9421        6.9421       6.292835       0.00074
  46    0.1487        0.6492        0.0000        6.9421        6.9421       6.292833       0.00075
  45    0.1794        0.6492        0.0000        6.9421        6.9421       6.292830       0.00077
  44    0.2165        0.6492        0.0000        6.9421        6.9421       6.292827       0.00076
  43    0.2613        0.6492        0.0000        6.9420        6.9420       6.292823       0.00074
  42    0.3336        0.6492        0.0000        6.9420        6.9420       6.292817       0.00076
  41    0.4307        0.6492        0.0000        6.9420        6.9420       6.292808       0.00077
  40    0.5894        0.6492        0.0000        6.9420        6.9420       6.292793       0.00079
  39     1.339        0.6492        0.0000        6.9419        6.9419       6.292704       0.00100
  38     1.782        0.6492        0.0000        6.9418        6.9419       6.292635       0.00132
  37     2.292        0.6492        0.0000        6.9418        6.9418       6.292541       0.00155
  36     2.964        0.6492        0.0000        6.9416        6.9416       6.292402       0.00175
  35     3.853        0.6492        0.0000        6.9414        6.9414       6.292195       0.00196
  34     5.035        0.6492        0.0000        6.9411        6.9411       6.291891       0.00218
  33     6.613        0.6492        0.0000        6.9406        6.9406       6.291443       0.00239
  32     8.786        0.6492        0.0000        6.9399        6.9400       6.290783       0.00256
  31     11.80        0.6492        0.0000        6.9389        6.9389       6.289749       0.00290
  30     15.07        0.6492        0.0001        6.9377        6.9377       6.288540       0.00312
  29     18.79        0.6492        0.0001        6.9362        6.9362       6.287083       0.00330
  28     23.16        0.6492        0.0001        6.9343        6.9344       6.285280       0.00348
  27     28.12        0.6491        0.0001        6.9321        6.9322       6.283109       0.00369
  26     33.73        0.6491        0.0001        6.9294        6.9296       6.280445       0.00400
  25     40.54        0.6491        0.0001        6.9258        6.9260       6.276855       0.00445
  24     48.69        0.6491        0.0002        6.9210        6.9212       6.272103       0.00492
  23     57.69        0.6491        0.0002        6.9154        6.9156       6.266515       0.00524
  22     68.43        0.6490        0.0003        6.9083        6.9086       6.259571       0.00546
  21     81.20        0.6490        0.0003        6.8998        6.9001       6.251084       0.00561
  20     96.49        0.6490        0.0004        6.8894        6.8898       6.240840       0.00565
  19     114.6        0.6489        0.0004        6.8765        6.8770       6.228026       0.00598
  18     136.5        0.6489        0.0005        6.8610        6.8615       6.212581       0.00594
  17     162.9        0.6489        0.0006        6.8417        6.8423       6.193391       0.00613
  16     196.4        0.6489        0.0007        6.8147        6.8154       6.166511       0.00677
  15     218.7        0.6489        0.0008        6.7948        6.7956       6.146740       0.00751
  14     243.0        0.6490        0.0009        6.7698        6.7707       6.121696       0.00869
  13     269.0        0.6491        0.0010        6.7349        6.7358       6.086712       0.01135
  12     297.5        0.6494        0.0011        6.6869        6.6879       6.038557       0.01428
  11     328.5        0.6497        0.0012        6.6194        6.6205       5.970782       0.01843
  10     361.9        0.6503        0.0013        6.5295        6.5307       5.880444       0.02286
   9     398.1        0.6510        0.0014        6.4202        6.4216       5.770585       0.02559
   8     437.6        0.6520        0.0015        6.2962        6.2977       5.645693       0.02670
   7     480.5        0.6533        0.0016        6.1555        6.1571       5.503800       0.02787
   6     533.0        0.6554        0.0017        5.9675        5.9693       5.313816       0.03056
   5     589.8        0.6586        0.0019        5.7368        5.7386       5.080026       0.03470
   4     651.6        0.6632        0.0020        5.4662        5.4682       4.805046       0.03760
   3     718.7        0.6694        0.0021        5.1912        5.1933       4.523844       0.03534
   2     792.3        0.6776        0.0022        4.9395        4.9417       4.264140       0.02979
   1     891.5        0.6915        0.0024        4.6486        4.6510       3.959519       0.02592
   0    1013.0        0.7165        0.0025        4.3179        4.3204       3.603918       0.02469



 Wavenumbers:  4650. -  5150. cm-1, ATM      1
 LEVEL PRESSURE   UPWARD FLUX   DIFDOWN FLUX  DIRDOWN FLUX  DOWNWARD FLUX   NET FLUX    HEATING RATE
          mb          W/m2          W/m2          W/m2        W/m2          W/m2       degree/day
  51    .06700        0.4454        0.0000        6.5710        6.5710       6.125568       0.00000
  50    .07753        0.4454        0.0000        6.5708        6.5708       6.125333       0.18887
  49    .09103        0.4454        0.0000        6.5705        6.5705       6.125039       0.18362
  48    0.1069        0.4454        0.0000        6.5701        6.5701       6.124704       0.17806
  47    0.1255        0.4454        0.0000        6.5697        6.5697       6.124324       0.17238
  46    0.1487        0.4454        0.0000        6.5693        6.5693       6.123850       0.17268
  45    0.1794        0.4454        0.0000        6.5686        6.5686       6.123214       0.17473
  44    0.2165        0.4454        0.0000        6.5679        6.5679       6.122476       0.16788
  43    0.2613        0.4454        0.0000        6.5670        6.5670       6.121623       0.16078
  42    0.3336        0.4454        0.0000        6.5657        6.5657       6.120260       0.15894
  41    0.4307        0.4454        0.0000        6.5640        6.5640       6.118538       0.14971
  40    0.5894        0.4454        0.0000        6.5613        6.5613       6.115922       0.13913
  39     1.339        0.4454        0.0000        6.5516        6.5516       6.106144       0.11008
  38     1.782        0.4454        0.0000        6.5473        6.5473       6.101928       0.08026
  37     2.292        0.4454        0.0000        6.5434        6.5435       6.098041       0.06438
  36     2.964        0.4454        0.0000        6.5395        6.5395       6.094087       0.04964
  35     3.853        0.4454        0.0000        6.5355        6.5356       6.090145       0.03742
  34     5.035        0.4454        0.0000        6.5315        6.5315       6.086143       0.02859
  33     6.613        0.4454        0.0000        6.5271        6.5271       6.081749       0.02349
  32     8.786        0.4454        0.0000        6.5216        6.5216       6.076255       0.02134
  31     11.80        0.4454        0.0001        6.5135        6.5135       6.068178       0.02261
  30     15.07        0.4454        0.0001        6.5041        6.5042       6.058811       0.02418
  29     18.79        0.4453        0.0001        6.4925        6.4926       6.047298       0.02610
  28     23.16        0.4453        0.0001        6.4779        6.4780       6.032710       0.02821
  27     28.12        0.4453        0.0002        6.4599        6.4600       6.014740       0.03055
  26     33.73        0.4453        0.0002        6.4384        6.4386       5.993316       0.03221
  25     40.54        0.4452        0.0002        6.4112        6.4114       5.966202       0.03364
  24     48.69        0.4452        0.0003        6.3775        6.3778       5.932580       0.03479
  23     57.69        0.4452        0.0003        6.3404        6.3407       5.895509       0.03475
  22     68.43        0.4452        0.0004        6.2971        6.2975       5.852348       0.03393
  21     81.20        0.4451        0.0004        6.2483        6.2487       5.803573       0.03223
  20     96.49        0.4451        0.0005        6.1948        6.1953       5.750258       0.02943
  19     114.6        0.4451        0.0006        6.1381        6.1388       5.693699       0.02641
  18     136.5        0.4450        0.0007        6.0790        6.0797       5.634696       0.02269
  17     162.9        0.4450        0.0009        6.0160        6.0169       5.571883       0.02008
  16     196.4        0.4450        0.0010        5.9399        5.9409       5.495865       0.01913
  15     218.7        0.4451        0.0011        5.8896        5.8908       5.445705       0.01904
  14     243.0        0.4451        0.0012        5.8322        5.8334       5.388303       0.01991
  13     269.0        0.4453        0.0014        5.7624        5.7638       5.318503       0.02264
  12     297.5        0.4455        0.0015        5.6767        5.6782       5.232724       0.02544
  11     328.5        0.4459        0.0016        5.5726        5.5742       5.128355       0.02838
  10     361.9        0.4464        0.0018        5.4473        5.4491       5.002695       0.03179
   9     398.1        0.4471        0.0019        5.2995        5.3014       4.854241       0.03459
   8     437.6        0.4482        0.0020        5.1275        5.1295       4.681323       0.03697
   7     480.5        0.4496        0.0022        4.9290        4.9311       4.481515       0.03924
   6     533.0        0.4519        0.0023        4.6794        4.6817       4.229747       0.04050
   5     589.8        0.4552        0.0024        4.4188        4.4212       3.966018       0.03915
   4     651.6        0.4598        0.0025        4.1521        4.1546       3.694832       0.03709
   3     718.7        0.4660        0.0027        3.8929        3.8956       3.429627       0.03333
   2     792.3        0.4740        0.0028        3.6469        3.6496       3.175651       0.02913
   1     891.5        0.4877        0.0029        3.3535        3.3564       2.868680       0.02612
   0    1013.0        0.5112        0.0030        3.0383        3.0414       2.530141       0.02351



 Wavenumbers:  5150. -  6150. cm-1, ATM      1
 LEVEL PRESSURE   UPWARD FLUX   DIFDOWN FLUX  DIRDOWN FLUX  DOWNWARD FLUX   NET FLUX    HEATING RATE
          mb          W/m2          W/m2          W/m2        W/m2          W/m2       degree/day
  51    .06700        1.2786        0.0000       16.4735       16.4735      15.194936       0.00000
  50    .07753        1.2786        0.0000       16.4735       16.4735      15.194901       0.02761
  49    .09103        1.2786        0.0000       16.4734       16.4734      15.194856       0.02810
  48    0.1069        1.2786        0.0000       16.4734       16.4734      15.194803       0.02859
  47    0.1255        1.2786        0.0000       16.4733       16.4733      15.194739       0.02904
  46    0.1487        1.2786        0.0000       16.4732       16.4732      15.194655       0.03059
  45    0.1794        1.2786        0.0000       16.4731       16.4731      15.194536       0.03269
  44    0.2165        1.2786        0.0000       16.4730       16.4730      15.194389       0.03331
  43    0.2613        1.2786        0.0000       16.4728       16.4728      15.194210       0.03376
  42    0.3336        1.2786        0.0000       16.4725       16.4725      15.193905       0.03564
  41    0.4307        1.2786        0.0000       16.4720       16.4720      15.193485       0.03645
  40    0.5894        1.2786        0.0000       16.4713       16.4713      15.192784       0.03728
  39     1.339        1.2785        0.0000       16.4679       16.4679      15.189376       0.03837
  38     1.782        1.2785        0.0000       16.4659       16.4659      15.187376       0.03806
  37     2.292        1.2785        0.0001       16.4635       16.4636      15.185085       0.03795
  36     2.964        1.2785        0.0001       16.4605       16.4606      15.182116       0.03727
  35     3.853        1.2785        0.0001       16.4567       16.4567      15.178263       0.03656
  34     5.035        1.2785        0.0001       16.4516       16.4517      15.173267       0.03569
  33     6.613        1.2784        0.0002       16.4451       16.4452      15.166808       0.03453
  32     8.786        1.2784        0.0002       16.4367       16.4369      15.158497       0.03228
  31     11.80        1.2783        0.0003       16.4254       16.4257      15.147349       0.03121
  30     15.07        1.2782        0.0004       16.4141       16.4145      15.136264       0.02862
  29     18.79        1.2782        0.0005       16.4024       16.4029      15.124747       0.02611
  28     23.16        1.2781        0.0006       16.3900       16.3906      15.112490       0.02370
  27     28.12        1.2780        0.0007       16.3771       16.3778      15.099831       0.02152
  26     33.73        1.2779        0.0009       16.3641       16.3650      15.087111       0.01912
  25     40.54        1.2777        0.0010       16.3502       16.3512      15.073480       0.01691
  24     48.69        1.2776        0.0012       16.3354       16.3366      15.059020       0.01496
  23     57.69        1.2774        0.0015       16.3211       16.3225      15.045135       0.01301
  22     68.43        1.2772        0.0017       16.3062       16.3080      15.030768       0.01129
  21     81.20        1.2770        0.0021       16.2903       16.2924      15.015401       0.01015
  20     96.49        1.2767        0.0024       16.2726       16.2751      14.998360       0.00941
  19     114.6        1.2764        0.0029       16.2521       16.2550      14.978586       0.00923
  18     136.5        1.2760        0.0035       16.2245       16.2280      14.951974       0.01023
  17     162.9        1.2756        0.0041       16.1747       16.1788      14.903250       0.01557
  16     196.4        1.2750        0.0049       16.0518       16.0568      14.781728       0.03059
  15     218.7        1.2747        0.0054       15.8984       15.9038      14.629136       0.05793
  14     243.0        1.2743        0.0060       15.6153       15.6212      14.346897       0.09789
  13     269.0        1.2740        0.0065       15.1390       15.1454      13.871464       0.15423
  12     297.5        1.2737        0.0069       14.5779       14.5848      13.311140       0.16619
  11     328.5        1.2734        0.0074       13.8780       13.8854      12.611943       0.19011
  10     361.9        1.2733        0.0077       13.0814       13.0892      11.815878       0.20141
   9     398.1        1.2733        0.0081       12.2728       12.2809      11.007604       0.18831
   8     437.6        1.2735        0.0083       11.4776       11.4859      10.212401       0.17002
   7     480.5        1.2741        0.0086       10.7300       10.7386       9.464504       0.14688
   6     533.0        1.2753        0.0089       10.0326       10.0415       8.766253       0.11233
   5     589.8        1.2773        0.0093        9.5050        9.5143       8.236990       0.07856
   4     651.6        1.2808        0.0098        9.0814        9.0912       7.810391       0.05834
   3     718.7        1.2859        0.0104        8.7024        8.7128       7.426898       0.04819
   2     792.3        1.2931        0.0111        8.3379        8.3490       7.055931       0.04255
   1     891.5        1.3064        0.0119        7.9064        7.9183       6.611823       0.03779
   0    1013.0        1.3342        0.0128        7.4741        7.4869       6.152662       0.03188



 Wavenumbers:  6150. -  7700. cm-1, ATM      1
 LEVEL PRESSURE   UPWARD FLUX   DIFDOWN FLUX  DIRDOWN FLUX  DOWNWARD FLUX   NET FLUX    HEATING RATE
          mb          W/m2          W/m2          W/m2        W/m2          W/m2       degree/day
  51    .06700        1.9972        0.0000       30.4684       30.4684      28.471153       0.00000
  50    .07753        1.9972        0.0000       30.4683       30.4683      28.471101       0.04144
  49    .09103        1.9972        0.0000       30.4683       30.4683      28.471035       0.04174
  48    0.1069        1.9972        0.0000       30.4682       30.4682      28.470956       0.04202
  47    0.1255        1.9972        0.0000       30.4681       30.4681      28.470863       0.04227
  46    0.1487        1.9972        0.0000       30.4680       30.4680      28.470742       0.04411
  45    0.1794        1.9972        0.0000       30.4678       30.4678      28.470571       0.04669
  44    0.2165        1.9972        0.0000       30.4676       30.4676      28.470364       0.04715
  43    0.2613        1.9972        0.0000       30.4673       30.4673      28.470113       0.04744
  42    0.3336        1.9972        0.0000       30.4669       30.4669      28.469686       0.04974
  41    0.4307        1.9972        0.0000       30.4663       30.4663      28.469105       0.05052
  40    0.5894        1.9972        0.0001       30.4653       30.4653      28.468137       0.05146
  39     1.339        1.9971        0.0001       30.4604       30.4606      28.463454       0.05273
  38     1.782        1.9971        0.0002       30.4576       30.4578      28.460704       0.05235
  37     2.292        1.9970        0.0002       30.4543       30.4545      28.457545       0.05231
  36     2.964        1.9969        0.0003       30.4501       30.4504      28.453438       0.05156
  35     3.853        1.9968        0.0004       30.4445       30.4449      28.448081       0.05084
  34     5.035        1.9967        0.0005       30.4373       30.4378      28.441081       0.05000
  33     6.613        1.9966        0.0007       30.4278       30.4285      28.431934       0.04890
  32     8.786        1.9963        0.0009       30.4154       30.4163      28.419981       0.04642
  31     11.80        1.9960        0.0013       30.3984       30.3996      28.403596       0.04587
  30     15.07        1.9957        0.0016       30.3810       30.3826      28.386882       0.04315
  29     18.79        1.9953        0.0020       30.3623       30.3643      28.368982       0.04059
  28     23.16        1.9949        0.0025       30.3417       30.3442      28.349299       0.03806
  27     28.12        1.9944        0.0030       30.3196       30.3226      28.328199       0.03587
  26     33.73        1.9938        0.0036       30.2965       30.3001      28.306281       0.03295
  25     40.54        1.9931        0.0043       30.2708       30.2751      28.281944       0.03019
  24     48.69        1.9923        0.0052       30.2423       30.2475      28.255168       0.02771
  23     57.69        1.9914        0.0062       30.2139       30.2200      28.228603       0.02490
  22     68.43        1.9904        0.0073       30.1834       30.1907      28.200329       0.02223
  21     81.20        1.9891        0.0087       30.1500       30.1587      28.169601       0.02030
  20     96.49        1.9875        0.0103       30.1126       30.1229      28.135385       0.01888
  19     114.6        1.9857        0.0122       30.0695       30.0817      28.096003       0.01839
  18     136.5        1.9836        0.0145       30.0139       30.0284      28.044852       0.01967
  17     162.9        1.9810        0.0172       29.9225       29.9397      27.958683       0.02754
  16     196.4        1.9777        0.0207       29.7333       29.7540      27.776314       0.04590
  15     218.7        1.9756        0.0229       29.5259       29.5488      27.573203       0.07711
  14     243.0        1.9733        0.0252       29.1375       29.1627      27.189409       0.13311
  13     269.0        1.9709        0.0274       28.3800       28.4074      26.436501       0.24424
  12     297.5        1.9686        0.0295       27.3895       27.4190      25.450457       0.29245
  11     328.5        1.9663        0.0314       26.2257       26.2571      24.290847       0.31529
  10     361.9        1.9642        0.0332       24.8453       24.8785      22.914327       0.34827
   9     398.1        1.9624        0.0347       23.3471       23.3818      21.419325       0.34830
   8     437.6        1.9612        0.0359       21.7966       21.8326      19.871359       0.33096
   7     480.5        1.9610        0.0369       20.1977       20.2346      18.273623       0.31379
   6     533.0        1.9625        0.0378       18.4969       18.5347      16.572268       0.27369
   5     589.8        1.9667        0.0387       16.9754       17.0141      15.047395       0.22634
   4     651.6        1.9751        0.0396       15.6022       15.6417      13.666617       0.18883
   3     718.7        1.9888        0.0406       14.4232       14.4638      12.475053       0.14975
   2     792.3        2.0084        0.0419       13.4386       13.4805      11.472066       0.11503
   1     891.5        2.0459        0.0437       12.3736       12.4172      10.371290       0.09367
   0    1013.0        2.1231        0.0456       11.2911       11.3367       9.213576       0.08039



 Wavenumbers:  7700. -  8050. cm-1, ATM      1
 LEVEL PRESSURE   UPWARD FLUX   DIFDOWN FLUX  DIRDOWN FLUX  DOWNWARD FLUX   NET FLUX    HEATING RATE
          mb          W/m2          W/m2          W/m2        W/m2          W/m2       degree/day
  51    .06700        1.2822        0.0000        7.2006        7.2006       5.918388       0.00000
  50    .07753        1.2822        0.0000        7.2006        7.2006       5.918369       0.01487
  49    .09103        1.2822        0.0000        7.2005        7.2005       5.918346       0.01457
  48    0.1069        1.2822        0.0000        7.2005        7.2005       5.918319       0.01426
  47    0.1255        1.2822        0.0000        7.2005        7.2005       5.918288       0.01396
  46    0.1487        1.2822        0.0000        7.2004        7.2005       5.918250       0.01416
  45    0.1794        1.2822        0.0000        7.2004        7.2004       5.918196       0.01457
  44    0.2165        1.2822        0.0000        7.2003        7.2003       5.918134       0.01429
  43    0.2613        1.2822        0.0000        7.2003        7.2003       5.918059       0.01403
  42    0.3336        1.2822        0.0000        7.2001        7.2001       5.917936       0.01435
  41    0.4307        1.2822        0.0000        7.2000        7.2000       5.917773       0.01419
  40    0.5894        1.2822        0.0000        7.1997        7.1997       5.917506       0.01418
  39     1.339        1.2822        0.0001        7.1984        7.1985       5.916245       0.01419
  38     1.782        1.2823        0.0001        7.1977        7.1978       5.915505       0.01409
  37     2.292        1.2823        0.0001        7.1968        7.1969       5.914648       0.01419
  36     2.964        1.2823        0.0001        7.1957        7.1958       5.913524       0.01411
  35     3.853        1.2823        0.0002        7.1942        7.1944       5.912040       0.01409
  34     5.035        1.2824        0.0002        7.1922        7.1925       5.910069       0.01408
  33     6.613        1.2824        0.0003        7.1896        7.1899       5.907440       0.01406
  32     8.786        1.2825        0.0004        7.1860        7.1864       5.903902       0.01374
  31     11.80        1.2826        0.0005        7.1810        7.1815       5.898853       0.01414
  30     15.07        1.2828        0.0007        7.1755        7.1762       5.893447       0.01396
  29     18.79        1.2829        0.0008        7.1694        7.1703       5.887361       0.01380
  28     23.16        1.2831        0.0010        7.1623        7.1633       5.880281       0.01369
  27     28.12        1.2833        0.0012        7.1542        7.1555       5.872221       0.01370
  26     33.73        1.2835        0.0015        7.1452        7.1467       5.863250       0.01349
  25     40.54        1.2837        0.0018        7.1344        7.1362       5.852478       0.01336
  24     48.69        1.2840        0.0021        7.1215        7.1236       5.839592       0.01334
  23     57.69        1.2844        0.0025        7.1074        7.1099       5.825560       0.01315
  22     68.43        1.2848        0.0030        7.0909        7.0938       5.809017       0.01301
  21     81.20        1.2853        0.0035        7.0713        7.0748       5.789542       0.01287
  20     96.49        1.2859        0.0041        7.0484        7.0526       5.766662       0.01263
  19     114.6        1.2867        0.0049        7.0217        7.0266       5.739941       0.01248
  18     136.5        1.2875        0.0058        6.9906        6.9964       5.708868       0.01195
  17     162.9        1.2886        0.0069        6.9544        6.9613       5.672667       0.01157
  16     196.4        1.2901        0.0083        6.9087        6.9170       5.626949       0.01151
  15     218.7        1.2911        0.0092        6.8794        6.8886       5.597568       0.01115
  14     243.0        1.2921        0.0102        6.8481        6.8583       5.566157       0.01089
  13     269.0        1.2934        0.0113        6.8147        6.8260       5.532605       0.01088
  12     297.5        1.2947        0.0124        6.7791        6.7915       5.496742       0.01064
  11     328.5        1.2963        0.0136        6.7409        6.7546       5.458297       0.01045
  10     361.9        1.2980        0.0150        6.7002        6.7151       5.417058       0.01043
   9     398.1        1.3001        0.0164        6.6563        6.6726       5.372550       0.01037
   8     437.6        1.3025        0.0179        6.6089        6.6267       5.324277       0.01032
   7     480.5        1.3053        0.0195        6.5570        6.5765       5.271221       0.01042
   6     533.0        1.3091        0.0215        6.4915        6.5129       5.203801       0.01085
   5     589.8        1.3139        0.0236        6.4182        6.4418       5.127912       0.01126
   4     651.6        1.3198        0.0258        6.3359        6.3617       5.041916       0.01176
   3     718.7        1.3269        0.0282        6.2441        6.2723       4.945380       0.01213
   2     792.3        1.3355        0.0306        6.1437        6.1744       4.838917       0.01221
   1     891.5        1.3485        0.0339        6.0042        6.0381       4.689589       0.01271
   0    1013.0        1.3674        0.0377        5.8249        5.8626       4.495184       0.01350



 Wavenumbers:  8050. - 12850. cm-1, ATM      1
 LEVEL PRESSURE   UPWARD FLUX   DIFDOWN FLUX  DIRDOWN FLUX  DOWNWARD FLUX   NET FLUX    HEATING RATE
          mb          W/m2          W/m2          W/m2        W/m2          W/m2       degree/day
  51    .06700       34.0553        0.0000      100.8135      100.8135      66.758176       0.00000
  50    .07753       34.0553        0.0000      100.8135      100.8135      66.758176       0.00000
  49    .09103       34.0553        0.0001      100.8134      100.8135      66.758176       0.00000
  48    0.1069       34.0553        0.0001      100.8134      100.8134      66.758176       0.00000
  47    0.1255       34.0552        0.0001      100.8133      100.8134      66.758176       0.00000
  46    0.1487       34.0552        0.0002      100.8132      100.8134      66.758176      -0.00000
  45    0.1794       34.0552        0.0003      100.8131      100.8133      66.758176       0.00000
  44    0.2165       34.0551        0.0003      100.8129      100.8133      66.758176       0.00000
  43    0.2613       34.0550        0.0004      100.8127      100.8132      66.758176      -0.00000
  42    0.3336       34.0549        0.0006      100.8125      100.8131      66.758176       0.00000
  41    0.4307       34.0547        0.0008      100.8121      100.8129      66.758176      -0.00000
  40    0.5894       34.0545        0.0012      100.8115      100.8126      66.758176       0.00000
  39     1.339       34.0532        0.0029      100.8085      100.8114      66.758176      -0.00000
  38     1.782       34.0525        0.0039      100.8068      100.8107      66.758176       0.00000
  37     2.292       34.0517        0.0051      100.8047      100.8098      66.758176       0.00000
  36     2.964       34.0505        0.0066      100.8021      100.8087      66.758176      -0.00000
  35     3.853       34.0491        0.0086      100.7986      100.8073      66.758176      -0.00000
  34     5.035       34.0471        0.0113      100.7940      100.8053      66.758176       0.00000
  33     6.613       34.0445        0.0149      100.7878      100.8027      66.758176       0.00000
  32     8.786       34.0410        0.0198      100.7794      100.7992      66.758176       0.00000
  31     11.80       34.0360        0.0267      100.7674      100.7942      66.758176       0.00000
  30     15.07       34.0306        0.0342      100.7546      100.7887      66.758176       0.00000
  29     18.79       34.0245        0.0426      100.7400      100.7826      66.758176       0.00000
  28     23.16       34.0173        0.0525      100.7230      100.7755      66.758176      -0.00000
  27     28.12       34.0091        0.0638      100.7035      100.7673      66.758176       0.00000
  26     33.73       33.9999        0.0765      100.6817      100.7581      66.758176       0.00000
  25     40.54       33.9888        0.0918      100.6552      100.7470      66.758176       0.00000
  24     48.69       33.9754        0.1103      100.6234      100.7336      66.758176       0.00000
  23     57.69       33.9607        0.1306      100.5883      100.7189      66.758176       0.00000
  22     68.43       33.9431        0.1548      100.5464      100.7013      66.758176       0.00000
  21     81.20       33.9221        0.1838      100.4965      100.6803      66.758176      -0.00000
  20     96.49       33.8971        0.2183      100.4370      100.6552      66.758176       0.00000
  19     114.6       33.8673        0.2593      100.3585      100.6178      66.750465       0.00360
  18     136.5       33.8321        0.3081      100.2634      100.5714      66.739369       0.00427
  17     162.9       33.7900        0.3662      100.1407      100.5069      66.716861       0.00719
  16     196.4       33.7354        0.4417       99.9505      100.3922      66.656765       0.01513
  15     218.7       33.6995        0.4913       99.7889      100.2802      66.580682       0.02889
  14     243.0       33.6607        0.5451       99.5472      100.0923      66.431643       0.05169
  13     269.0       33.6191        0.6031       99.1452       99.7483      66.129260       0.09809
  12     297.5       33.5752        0.6653       98.5975       99.2628      65.687565       0.13100
  11     328.5       33.5297        0.7320       97.8659       98.5978      65.068071       0.16844
  10     361.9       33.4838        0.8027       96.8848       97.6875      64.203719       0.21869
   9     398.1       33.4388        0.8774       95.6330       96.5104      63.071605       0.26376
   8     437.6       33.3976        0.9556       94.0655       95.0210      61.623462       0.30962
   7     480.5       33.3657        1.0363       92.0807       93.1170      59.751284       0.36769
   6     533.0       33.3472        1.1315       89.4449       90.5764      57.229143       0.40573
   5     589.8       33.3579        1.2298       86.5544       87.7842      54.426299       0.41603
   4     651.6       33.4145        1.3306       83.4174       84.7480      51.333464       0.42295
   3     718.7       33.5274        1.4347       80.2037       81.6384      48.110947       0.40498
   2     792.3       33.7058        1.5426       77.0811       78.6237      44.917909       0.36621
   1     891.5       34.0688        1.6821       73.2645       74.9466      40.877823       0.34379
   0    1013.0       34.8243        1.8372       68.9425       70.7797      35.955389       0.34179



 Wavenumbers: 12850. - 16000. cm-1, ATM      1
 LEVEL PRESSURE   UPWARD FLUX   DIFDOWN FLUX  DIRDOWN FLUX  DOWNWARD FLUX   NET FLUX    HEATING RATE
          mb          W/m2          W/m2          W/m2        W/m2          W/m2       degree/day
  51    .06700       41.9683        0.0000       63.1686       63.1686      21.200242       0.00000
  50    .07753       41.9683        0.0001       63.1677       63.1678      21.199461       0.62596
  49    .09103       41.9683        0.0001       63.1666       63.1668      21.198488       0.60852
  48    0.1069       41.9683        0.0002       63.1654       63.1656      21.197379       0.59030
  47    0.1255       41.9682        0.0003       63.1640       63.1643      21.196117       0.57204
  46    0.1487       41.9682        0.0004       63.1623       63.1627      21.194542       0.57392
  45    0.1794       41.9682        0.0006       63.1600       63.1606      21.192430       0.57993
  44    0.2165       41.9681        0.0008       63.1573       63.1581      21.189985       0.55609
  43    0.2613       41.9681        0.0010       63.1542       63.1553      21.187163       0.53192
  42    0.3336       41.9681        0.0014       63.1493       63.1507      21.182663       0.52473
  41    0.4307       41.9681        0.0020       63.1431       63.1451      21.177027       0.49003
  40    0.5894       41.9682        0.0028       63.1338       63.1366      21.168473       0.45486
  39     1.339       41.9701        0.0068       63.0956       63.1024      21.132299       0.40726
  38     1.782       41.9723        0.0092       63.0740       63.0832      21.110860       0.40816
  37     2.292       41.9760        0.0119       63.0477       63.0596      21.083587       0.45172
  36     2.964       41.9823        0.0155       63.0095       63.0250      21.042664       0.51370
  35     3.853       41.9930        0.0202       62.9533       62.9735      20.980478       0.59016
  34     5.035       42.0093        0.0265       62.8725       62.8990      20.889660       0.64876
  33     6.613       42.0323        0.0348       62.7621       62.7969      20.764641       0.66835
  32     8.786       42.0620        0.0461       62.6182       62.6643      20.602337       0.63033
  31     11.80       42.1002        0.0621       62.4284       62.4905      20.390309       0.59361
  30     15.07       42.1361        0.0793       62.2426       62.3219      20.185811       0.52798
  29     18.79       42.1722        0.0987       62.0493       62.1480      19.975831       0.47609
  28     23.16       42.2091        0.1213       61.8424       61.9638      19.754708       0.42758
  27     28.12       42.2451        0.1471       61.6278       61.7749      19.529824       0.38229
  26     33.73       42.2767        0.1759       61.4177       61.5936      19.316917       0.32011
  25     40.54       42.3047        0.2107       61.1983       61.4090      19.104297       0.26378
  24     48.69       42.3285        0.2525       60.9680       61.2205      18.891916       0.21978
  23     57.69       42.3452        0.2984       60.7478       61.0462      18.700928       0.17902
  22     68.43       42.3548        0.3530       60.5202       60.8732      18.518385       0.14350
  21     81.20       42.3520        0.4180       60.2938       60.7118      18.359857       0.10475
  20     96.49       42.3355        0.4955       60.0643       60.5597      18.224203       0.07487
  19     114.6       42.3174        0.5881       59.8078       60.3959      18.078491       0.06804
  18     136.5       42.2898        0.6977       59.5157       60.2134      17.923627       0.05955
  17     162.9       42.2513        0.8279       59.1770       60.0049      17.753593       0.05435
  16     196.4       42.1896        0.9963       58.7604       59.7568      17.567128       0.04694
  15     218.7       42.1449        1.1067       58.4948       59.6015      17.456628       0.04195
  14     243.0       42.0943        1.2264       58.2089       59.4353      17.340981       0.04011
  13     269.0       42.0380        1.3559       57.9006       59.2565      17.218530       0.03972
  12     297.5       41.9759        1.4956       57.5668       59.0624      17.086495       0.03916
  11     328.5       41.9092        1.6462       57.2005       58.8467      16.937440       0.04053
  10     361.9       41.8387        1.8079       56.7963       58.6042      16.765460       0.04351
   9     398.1       41.7653        1.9813       56.3475       58.3288      16.563551       0.04704
   8     437.6       41.6910        2.1669       55.8422       58.0091      16.318113       0.05248
   7     480.5       41.6196        2.3646       55.2625       57.6272      16.007595       0.06098
   6     533.0       41.5456        2.6062       54.4972       57.1033      15.557730       0.07237
   5     589.8       41.4832        2.8633       53.6307       56.4940      15.010761       0.08119
   4     651.6       41.4399        3.1351       52.6606       55.7957      14.355807       0.08957
   3     718.7       41.4195        3.4221       51.6100       55.0321      13.612661       0.09339
   2     792.3       41.4269        3.7241       50.5019       54.2259      12.798984       0.09332
   1     891.5       41.4964        4.1225       49.0197       53.1422      11.645771       0.09813
   0    1013.0       41.7006        4.5852       47.2289       51.8141      10.113515       0.10639



 Wavenumbers: 16000. - 22650. cm-1, ATM      1
 LEVEL PRESSURE   UPWARD FLUX   DIFDOWN FLUX  DIRDOWN FLUX  DOWNWARD FLUX   NET FLUX    HEATING RATE
          mb          W/m2          W/m2          W/m2        W/m2          W/m2       degree/day
  51    .06700       83.4362        0.0000      100.7153      100.7153      17.279143       0.00000
  50    .07753       83.4360        0.0003      100.7147      100.7151      17.279022       0.09671
  49    .09103       83.4359        0.0008      100.7140      100.7148      17.278847       0.10969
  48    0.1069       83.4358        0.0012      100.7131      100.7144      17.278612       0.12509
  47    0.1255       83.4356        0.0018      100.7121      100.7139      17.278297       0.14258
  46    0.1487       83.4354        0.0025      100.7108      100.7133      17.277834       0.16896
  45    0.1794       83.4352        0.0035      100.7089      100.7123      17.277109       0.19893
  44    0.2165       83.4350        0.0046      100.7066      100.7111      17.276126       0.22357
  43    0.2613       83.4348        0.0059      100.7037      100.7096      17.274793       0.25135
  42    0.3336       83.4346        0.0081      100.6987      100.7068      17.272258       0.29558
  41    0.4307       83.4344        0.0111      100.6918      100.7029      17.268436       0.33225
  40    0.5894       83.4345        0.0159      100.6797      100.6957      17.261149       0.38754
  39     1.339       83.4409        0.0387      100.6095      100.6482      17.207317       0.60604
  38     1.782       83.4490        0.0521      100.5585      100.6105      17.161472       0.87281
  37     2.292       83.4626        0.0675      100.4903      100.5578      17.095131       1.09879
  36     2.964       83.4869        0.0878      100.3868      100.4746      16.987704       1.34853
  35     3.853       83.5279        0.1146      100.2306      100.3452      16.817359       1.61661
  34     5.035       83.5911        0.1501      100.0045      100.1546      16.563474       1.81365
  33     6.613       83.6802        0.1975       99.6939       99.8914      16.211154       1.88351
  32     8.786       83.7956        0.2612       99.2881       99.5492      15.753583       1.77704
  31     11.80       83.9435        0.3520       98.7496       99.1016      15.158070       1.66725
  30     15.07       84.0821        0.4491       98.2198       98.6689      14.586820       1.47486
  29     18.79       84.2206        0.5585       97.6651       98.2236      14.003000       1.32370
  28     23.16       84.3616        0.6858       97.0671       97.7529      13.391385       1.18266
  27     28.12       84.4984        0.8309       96.4406       97.2714      12.773049       1.05113
  26     33.73       84.6165        0.9927       95.8179       96.8106      12.194068       0.87051
  25     40.54       84.7187        1.1875       95.1548       96.3424      11.623630       0.70769
  24     48.69       84.8028        1.4216       94.4420       95.8635      11.060736       0.58251
  23     57.69       84.8573        1.6776       93.7416       95.4192      10.561900       0.46758
  22     68.43       84.8817        1.9814       92.9954       94.9768      10.095131       0.36694
  21     81.20       84.8549        2.3420       92.2231       94.5652       9.710247       0.25433
  20     96.49       84.7717        2.7698       91.4110       94.1808       9.409161       0.16618
  19     114.6       84.6475        3.2744       90.5070       93.7814       9.133946       0.12851
  18     136.5       84.4838        3.8677       89.4803       93.3479       8.864146       0.10374
  17     162.9       84.2746        4.5673       88.3022       92.8695       8.594929       0.08605
  16     196.4       83.9713        5.4645       86.8606       92.3251       8.353843       0.06068
  15     218.7       83.7612        6.0476       85.9492       91.9968       8.235534       0.04492
  14     243.0       83.5288        6.6758       84.9789       91.6548       8.125979       0.03800
  13     269.0       83.2728        7.3503       83.9493       91.2995       8.026736       0.03219
  12     297.5       82.9928        8.0718       82.8589       90.9307       7.937945       0.02633
  11     328.5       82.6904        8.8430       81.6982       90.5412       7.850783       0.02370
  10     361.9       82.3659        9.6637       80.4669       90.1306       7.764725       0.02177
   9     398.1       82.0184       10.5358       79.1611       89.6970       7.678540       0.02008
   8     437.6       81.6488       11.4599       77.7777       89.2377       7.588839       0.01918
   7     480.5       81.2576       12.4363       76.3136       88.7500       7.492442       0.01893
   6     533.0       80.7839       13.6185       74.5359       88.1544       7.370473       0.01962
   5     589.8       80.2847       14.8687       72.6469       87.5156       7.230887       0.02072
   4     651.6       79.7628       16.1851       70.6456       86.8306       7.067838       0.02230
   3     718.7       79.2190       17.5657       68.5367       86.1024       6.883394       0.02318
   2     792.3       78.6564       19.0053       66.3287       85.3339       6.677546       0.02361
   1     891.5       77.9330       20.8856       63.4246       84.3102       6.377230       0.02556
   0    1013.0       77.1228       23.0489       60.0483       83.0972       5.974384       0.02797



 Wavenumbers: 22650. - 29000. cm-1, ATM      1
 LEVEL PRESSURE   UPWARD FLUX   DIFDOWN FLUX  DIRDOWN FLUX  DOWNWARD FLUX   NET FLUX    HEATING RATE
          mb          W/m2          W/m2          W/m2        W/m2          W/m2       degree/day
  51    .06700       36.5767        0.0000       38.0063       38.0063       1.429582       0.00000
  50    .07753       36.5765        0.0004       38.0057       38.0061       1.429582       0.00000
  49    .09103       36.5763        0.0009       38.0050       38.0059       1.429582       0.00000
  48    0.1069       36.5761        0.0015       38.0042       38.0057       1.429582       0.00000
  47    0.1255       36.5759        0.0021       38.0033       38.0054       1.429582       0.00000
  46    0.1487       36.5755        0.0029       38.0022       38.0051       1.429582       0.00000
  45    0.1794       36.5751        0.0040       38.0006       38.0046       1.429582      -0.00000
  44    0.2165       36.5745        0.0054       37.9987       38.0041       1.429582       0.00000
  43    0.2613       36.5739        0.0070       37.9965       38.0035       1.429582       0.00000
  42    0.3336       36.5728        0.0096       37.9928       38.0024       1.429582       0.00000
  41    0.4307       36.5714        0.0130       37.9880       38.0010       1.429582      -0.00000
  40    0.5894       36.5691        0.0187       37.9800       37.9987       1.429582       0.00000
  39     1.339       36.5583        0.0454       37.9425       37.9879       1.429582      -0.00000
  38     1.782       36.5519        0.0611       37.9204       37.9815       1.429582       0.00000
  37     2.292       36.5445        0.0792       37.8949       37.9741       1.429582       0.00000
  36     2.964       36.5349        0.1030       37.8614       37.9644       1.429582       0.00000
  35     3.853       36.5221        0.1344       37.8172       37.9517       1.429582      -0.00000
  34     5.035       36.5051        0.1761       37.7586       37.9347       1.429582       0.00000
  33     6.613       36.4825        0.2318       37.6803       37.9121       1.429582       0.00000
  32     8.786       36.4521        0.3066       37.5750       37.8817       1.429582      -0.00000
  31     11.80       36.4087        0.4134       37.4249       37.8383       1.429582       0.00000
  30     15.07       36.3622        0.5277       37.2642       37.7918       1.429582       0.00000
  29     18.79       36.3099        0.6562       37.0833       37.7395       1.429582       0.00000
  28     23.16       36.2491        0.8057       36.8730       37.6787       1.429582      -0.00000
  27     28.12       36.1799        0.9758       36.6338       37.6095       1.429582      -0.00000
  26     33.73       36.1030        1.1649       36.3677       37.5326       1.429582       0.00000
  25     40.54       36.0106        1.3917       36.0486       37.4402       1.429582       0.00000
  24     48.69       35.9003        1.6626       35.6672       37.3298       1.429582       0.00000
  23     57.69       35.7802        1.9571       35.2527       37.2098       1.429582       0.00000
  22     68.43       35.6389        2.3036       34.7649       37.0685       1.429582       0.00000
  21     81.20       35.4730        2.7103       34.1922       36.9025       1.429582      -0.00000
  20     96.49       35.2785        3.1863       33.5217       36.7081       1.429582       0.00000
  19     114.6       35.0523        3.7395       32.7424       36.4819       1.429582       0.00000
  18     136.5       34.7906        4.3786       31.8416       36.2202       1.429582       0.00000
  17     162.9       34.4879        5.1167       30.8008       35.9175       1.429582       0.00000
  16     196.4       34.1093        6.0382       29.5007       35.5388       1.429582      -0.00000
  15     218.7       33.8689        6.6218       28.6767       35.2985       1.429582       0.00000
  14     243.0       33.6149        7.2377       27.8068       35.0445       1.429582       0.00000
  13     269.0       33.3478        7.8840       26.8933       34.7773       1.429582      -0.00000
  12     297.5       33.0683        8.5586       25.9393       34.4979       1.429582       0.00000
  11     328.5       32.7766        9.2611       24.9451       34.2062       1.429582       0.00000
  10     361.9       32.4741        9.9877       23.9160       33.9037       1.429582      -0.00000
   9     398.1       32.1613       10.7367       22.8541       33.5909       1.429582       0.00000
   8     437.6       31.8395       11.5046       21.7645       33.2691       1.429582       0.00000
   7     480.5       31.5101       12.2875       20.6521       32.9396       1.429582      -0.00000
   6     533.0       31.1251       13.1978       19.3569       32.5547       1.429582       0.00000
   5     589.8       30.7342       14.1170       18.0467       32.1637       1.429582       0.00000
   4     651.6       30.3398       15.0378       16.7316       31.7694       1.429582       0.00000
   3     718.7       29.9447       15.9528       15.4214       31.3743       1.429582      -0.00000
   2     792.3       29.5519       16.8539       14.1276       30.9815       1.429582       0.00000
   1     891.5       29.0676       17.9512       12.5459       30.4972       1.429582       0.00000
   0    1013.0       28.5484       19.1062       10.8717       29.9779       1.429582      -0.00000



 Wavenumbers: 29000. - 38000. cm-1, ATM      1
 LEVEL PRESSURE   UPWARD FLUX   DIFDOWN FLUX  DIRDOWN FLUX  DOWNWARD FLUX   NET FLUX    HEATING RATE
          mb          W/m2          W/m2          W/m2        W/m2          W/m2       degree/day
  51    .06700        5.2013        0.0000       13.4026       13.4026       8.201263       0.00000
  50    .07753        5.2011        0.0003       13.3983       13.3986       8.197465       3.04468
  49    .09103        5.2009        0.0007       13.3921       13.3928       8.191945       3.45000
  48    0.1069        5.2005        0.0011       13.3840       13.3851       8.184567       3.92715
  47    0.1255        5.2002        0.0016       13.3733       13.3749       8.174722       4.46362
  46    0.1487        5.1998        0.0022       13.3579       13.3601       8.160278       5.26491
  45    0.1794        5.1992        0.0030       13.3340       13.3371       8.137876       6.14990
  44    0.2165        5.1986        0.0040       13.3024       13.3064       8.107854       6.82950
  43    0.2613        5.1978        0.0052       13.2604       13.2656       8.067795       7.55094
  42    0.3336        5.1966        0.0071       13.1833       13.1904       7.993780       8.62943
  41    0.4307        5.1951        0.0096       13.0729       13.0825       7.887394       9.24995
  40    0.5894        5.1928        0.0135       12.8796       12.8931       7.700325       9.94809
  39     1.339        5.1846        0.0299       11.9165       11.9464       6.761792      10.56619
  38     1.782        5.1815        0.0383       11.4399       11.4782       6.296646       8.85562
  37     2.292        5.1794        0.0472       10.9796       11.0268       5.847479       7.43937
  36     2.964        5.1784        0.0583       10.4786       10.5369       5.358474       6.13849
  35     3.853        5.1798        0.0719        9.9429       10.0148       4.835028       4.96760
  34     5.035        5.1842        0.0890        9.4007        9.4896       4.305425       3.78327
  33     6.613        5.1920        0.1106        8.8752        8.9858       3.793828       2.73500
  32     8.786        5.2025        0.1385        8.3786        8.5170       3.314525       1.86144
  31     11.80        5.2156        0.1768        7.8897        8.0664       2.850811       1.29825
  30     15.07        5.2272        0.2163        7.5108        7.7271       2.499890       0.90601
  29     18.79        5.2383        0.2594        7.1776        7.4371       2.198723       0.68284
  28     23.16        5.2490        0.3080        6.8664        7.1745       1.925518       0.52829
  27     28.12        5.2583        0.3618        6.5780        6.9398       1.681566       0.41470
  26     33.73        5.2637        0.4204        6.3195        6.7399       1.476221       0.30874
  25     40.54        5.2642        0.4896        6.0663        6.5559       1.291656       0.22897
  24     48.69        5.2594        0.5707        5.8128        6.3835       1.124171       0.17332
  23     57.69        5.2488        0.6573        5.5777        6.2350       0.986223       0.12930
  22     68.43        5.2305        0.7577        5.3379        6.0955       0.865019       0.09528
  21     81.20        5.2001        0.8742        5.0965        5.9706       0.770512       0.06245
  20     96.49        5.1565        1.0088        4.8476        5.8565       0.700015       0.03891
  19     114.6        5.1029        1.1616        4.5799        5.7415       0.638539       0.02870
  18     136.5        5.0408        1.3325        4.2891        5.6216       0.580800       0.02220
  17     162.9        4.9700        1.5224        3.9732        5.4956       0.525625       0.01764
  16     196.4        4.8801        1.7504        3.6080        5.3584       0.478326       0.01191
  15     218.7        4.8234        1.8894        3.3898        5.2792       0.455749       0.00857
  14     243.0        4.7648        2.0314        3.1686        5.2000       0.435225       0.00712
  13     269.0        4.7043        2.1753        2.9461        5.1214       0.417081       0.00589
  12     297.5        4.6425        2.3199        2.7239        5.0438       0.401344       0.00467
  11     328.5        4.5802        2.4639        2.5029        4.9668       0.386522       0.00403
  10     361.9        4.5180        2.6061        2.2846        4.8906       0.372640       0.00351
   9     398.1        4.4562        2.7452        2.0708        4.8159       0.359693       0.00302
   8     437.6        4.3954        2.8802        1.8626        4.7428       0.347406       0.00263
   7     480.5        4.3360        3.0098        1.6621        4.6719       0.335914       0.00226
   6     533.0        4.2703        3.1502        1.4437        4.5939       0.323578       0.00198
   5     589.8        4.2077        3.2805        1.2390        4.5195       0.311817       0.00175
   4     651.6        4.1488        3.3993        1.0500        4.4493       0.300471       0.00155
   3     718.7        4.0940        3.5057        0.8778        4.3835       0.289503       0.00138
   2     792.3        4.0436        3.5988        0.7237        4.3225       0.278890       0.00122
   1     891.5        3.9869        3.6966        0.5563        4.2529       0.265938       0.00110
   0    1013.0        3.9326        3.7805        0.4039        4.1844       0.251800       0.00098



 Wavenumbers: 38000. - 50000. cm-1, ATM      1
 LEVEL PRESSURE   UPWARD FLUX   DIFDOWN FLUX  DIRDOWN FLUX  DOWNWARD FLUX   NET FLUX    HEATING RATE
          mb          W/m2          W/m2          W/m2        W/m2          W/m2       degree/day
  51    .06700        0.0051        0.0000        0.8267        0.8267       0.821528       0.00000
  50    .07753        0.0051        0.0001        0.8242        0.8243       0.819196       1.86936
  49    .09103        0.0050        0.0002        0.8207        0.8209       0.815872       2.07705
  48    0.1069        0.0049        0.0002        0.8162        0.8164       0.811514       2.31984
  47    0.1255        0.0048        0.0004        0.8103        0.8106       0.805801       2.59006
  46    0.1487        0.0047        0.0005        0.8018        0.8023       0.797567       3.00143
  45    0.1794        0.0045        0.0007        0.7889        0.7896       0.785013       3.44648
  44    0.2165        0.0044        0.0009        0.7720        0.7729       0.768507       3.75474
  43    0.2613        0.0042        0.0011        0.7500        0.7511       0.746955       4.06246
  42    0.3336        0.0039        0.0015        0.7106        0.7121       0.708267       4.51071
  41    0.4307        0.0035        0.0019        0.6566        0.6584       0.654972       4.63387
  40    0.5894        0.0029        0.0024        0.5680        0.5704       0.567464       4.65357
  39     1.339        0.0015        0.0030        0.2422        0.2452       0.243720       3.64476
  38     1.782        0.0010        0.0026        0.1493        0.1519       0.150889       1.76735
  37     2.292        0.0007        0.0022        0.0924        0.0946       0.093932       0.94336
  36     2.964        0.0005        0.0018        0.0539        0.0557       0.055224       0.48589
  35     3.853        0.0003        0.0013        0.0295        0.0308       0.030502       0.23462
  34     5.035        0.0002        0.0010        0.0154        0.0164       0.016181       0.10230
  33     6.613        0.0001        0.0007        0.0073        0.0080       0.007912       0.04420
  32     8.786        0.0000        0.0004        0.0030        0.0034       0.003390       0.01756
  31     11.80        0.0000        0.0003        0.0010        0.0012       0.001199       0.00613
  30     15.07        0.0000        0.0001        0.0003        0.0005       0.000463       0.00190
  29     18.79        0.0000        0.0001        0.0001        0.0002       0.000182       0.00064
  28     23.16        0.0000        0.0000        0.0000        0.0001       0.000071       0.00022
  27     28.12        0.0000        0.0000        0.0000        0.0000       0.000028       0.00007
  26     33.73        0.0000        0.0000        0.0000        0.0000       0.000011       0.00002
  25     40.54        0.0000        0.0000        0.0000        0.0000       0.000005       0.00001
  24     48.69        0.0000        0.0000        0.0000        0.0000       0.000002       0.00000
  23     57.69        0.0000        0.0000        0.0000        0.0000       0.000001       0.00000
  22     68.43        0.0000        0.0000        0.0000        0.0000       0.000000       0.00000
  21     81.20        0.0000        0.0000        0.0000        0.0000       0.000000       0.00000
  20     96.49        0.0000        0.0000        0.0000        0.0000       0.000000       0.00000
  19     114.6        0.0000        0.0000        0.0000        0.0000       0.000000       0.00000
  18     136.5        0.0000        0.0000        0.0000        0.0000       0.000000       0.00000
  17     162.9        0.0000        0.0000        0.0000        0.0000       0.000000       0.00000
  16     196.4        0.0000        0.0000        0.0000        0.0000       0.000000       0.00000
  15     218.7        0.0000        0.0000        0.0000        0.0000       0.000000       0.00000
  14     243.0        0.0000        0.0000        0.0000        0.0000       0.000000       0.00000
  13     269.0        0.0000        0.0000        0.0000        0.0000       0.000000       0.00000
  12     297.5        0.0000        0.0000        0.0000        0.0000       0.000000       0.00000
  11     328.5        0.0000        0.0000        0.0000        0.0000       0.000000       0.00000
  10     361.9        0.0000        0.0000        0.0000        0.0000       0.000000       0.00000
   9     398.1        0.0000        0.0000        0.0000        0.0000       0.000000       0.00000
   8     437.6        0.0000        0.0000        0.0000        0.0000       0.000000       0.00000
   7     480.5        0.0000        0.0000        0.0000        0.0000       0.000000       0.00000
   6     533.0        0.0000        0.0000        0.0000        0.0000       0.000000       0.00000
   5     589.8        0.0000        0.0000        0.0000        0.0000       0.000000       0.00000
   4     651.6        0.0000        0.0000        0.0000        0.0000       0.000000       0.00000
   3     718.7        0.0000        0.0000        0.0000        0.0000       0.000000       0.00000
   2     792.3        0.0000        0.0000        0.0000        0.0000       0.000000       0.00000
   1     891.5        0.0000        0.0000        0.0000        0.0000       0.000000       0.00000
   0    1013.0        0.0000        0.0000        0.0000        0.0000       0.000000       0.00000



 Wavenumbers:   820. -  2600. cm-1, ATM      1
 LEVEL PRESSURE   UPWARD FLUX   DIFDOWN FLUX  DIRDOWN FLUX  DOWNWARD FLUX   NET FLUX    HEATING RATE
          mb          W/m2          W/m2          W/m2        W/m2          W/m2       degree/day
  51    .06700        0.1275        0.0000        3.8670        3.8670       3.739527       0.00000
  50    .07753        0.1275        0.0000        3.8643        3.8643       3.736810       2.17769
  49    .09103        0.1275        0.0000        3.8635        3.8635       3.736000       0.50638
  48    0.1069        0.1275        0.0000        3.8626        3.8626       3.735109       0.47415
  47    0.1255        0.1275        0.0000        3.8616        3.8616       3.734148       0.43559
  46    0.1487        0.1275        0.0000        3.8605        3.8605       3.733039       0.40437
  45    0.1794        0.1275        0.0000        3.8592        3.8592       3.731704       0.36647
  44    0.2165        0.1275        0.0000        3.8578        3.8578       3.730326       0.31346
  43    0.2613        0.1275        0.0000        3.8564        3.8564       3.728866       0.27522
  42    0.3336        0.1275        0.0000        3.8541        3.8541       3.726635       0.26012
  41    0.4307        0.1275        0.0000        3.8512        3.8512       3.723752       0.25063
  40    0.5894        0.1275        0.0000        3.8465        3.8465       3.719026       0.25133
  39     1.339        0.1275        0.0000        3.8251        3.8251       3.697651       0.24064
  38     1.782        0.1275        0.0000        3.8133        3.8133       3.685839       0.22489
  37     2.292        0.1275        0.0000        3.8003        3.8003       3.672778       0.21632
  36     2.964        0.1275        0.0000        3.7841        3.7841       3.656649       0.20246
  35     3.853        0.1275        0.0000        3.7642        3.7642       3.636735       0.18899
  34     5.035        0.1275        0.0000        3.7395        3.7395       3.612044       0.17638
  33     6.613        0.1275        0.0000        3.7090        3.7090       3.581509       0.16324
  32     8.786        0.1275        0.0000        3.6726        3.6726       3.545116       0.14133
  31     11.80        0.1275        0.0000        3.6320        3.6320       3.504523       0.11365
  30     15.07        0.1275        0.0000        3.6016        3.6016       3.474140       0.07844
  29     18.79        0.1275        0.0000        3.5777        3.5777       3.450243       0.05418
  28     23.16        0.1275        0.0000        3.5564        3.5564       3.428891       0.04129
  27     28.12        0.1275        0.0000        3.5348        3.5348       3.407347       0.03662
  26     33.73        0.1275        0.0000        3.5118        3.5118       3.384315       0.03463
  25     40.54        0.1275        0.0000        3.4849        3.4849       3.357429       0.03335
  24     48.69        0.1275        0.0000        3.4537        3.4537       3.326180       0.03234
  23     57.69        0.1275        0.0000        3.4210        3.4210       3.293509       0.03062
  22     68.43        0.1275        0.0000        3.3844        3.3844       3.256926       0.02876
  21     81.20        0.1275        0.0000        3.3441        3.3441       3.216630       0.02663
  20     96.49        0.1275        0.0000        3.2998        3.2998       3.172269       0.02448
  19     114.6        0.1275        0.0000        3.2506        3.2506       3.123124       0.02295
  18     136.5        0.1275        0.0000        3.1936        3.1936       3.066079       0.02194
  17     162.9        0.1275        0.0000        3.1181        3.1181       2.990580       0.02413
  16     196.4        0.1276        0.0000        3.0090        3.0090       2.881399       0.02748
  15     218.7        0.1276        0.0000        2.9420        2.9420       2.814400       0.02544
  14     243.0        0.1276        0.0000        2.8605        2.8605       2.732844       0.02829
  13     269.0        0.1277        0.0000        2.7419        2.7420       2.614273       0.03846
  12     297.5        0.1278        0.0000        2.5729        2.5729       2.445082       0.05018
  11     328.5        0.1280        0.0000        2.3602        2.3602       2.232214       0.05788
  10     361.9        0.1283        0.0000        2.1524        2.1524       2.024168       0.05264
   9     398.1        0.1287        0.0000        1.9974        1.9974       1.868755       0.03621
   8     437.6        0.1293        0.0000        1.8835        1.8835       1.754263       0.02448
   7     480.5        0.1301        0.0000        1.7734        1.7734       1.643333       0.02179
   6     533.0        0.1315        0.0000        1.6397        1.6398       1.508220       0.02174
   5     589.8        0.1336        0.0000        1.5068        1.5069       1.373238       0.02004
   4     651.6        0.1367        0.0000        1.3807        1.3807       1.244019       0.01767
   3     718.7        0.1408        0.0000        1.2680        1.2680       1.127232       0.01468
   2     792.3        0.1459        0.0000        1.1659        1.1660       1.020114       0.01229
   1     891.5        0.1544        0.0000        1.0372        1.0373       0.882907       0.01168
   0    1013.0        0.1698        0.0000        0.8716        0.8717       0.701875       0.01257

  Modules and versions used in this calculation:

       rrtmg_sw.1col.f90:  $Revision$                    rrtmg_sw_init.f90:  $Revision$        
     rrtmgsw_cldprop.f90:  $Revision$                  rrtmgsw_cldprmc.f90:  NOT USED          
     rrtmg_sw_reftra.f90:  $Revision$                  rrtmg_sw_spcvrt.f90:  NOT USED          
     rrtmg_sw_spcvmc.f90:  NOT USED                    rrtmgsw_setcoef.f90:  NOT USED          
     rrtmg_sw_taumol.f90:  $Revision$                  rrtmg_sw_vrtqdr.f90:  NOT USED          
                rrtatm.f:  NOT USED                             util_xxx.f:  NOT USED          
                 extra.f:  NOT USED                       rrtmg_sw_k_g.f90:  $Revision$        

