

 Wavenumbers:   820. - 50000. cm-1, ATM      1
 LEVEL PRESSURE   UPWARD FLUX   DIFDOWN FLUX  DIRDOWN FLUX  DOWNWARD FLUX   NET FLUX    HEATING RATE
          mb          W/m2          W/m2          W/m2        W/m2          W/m2       degree/day
  51    .06700      251.8850        0.0000      397.8738      397.8738     145.988822       0.00000
  50    .07753      251.8844        0.0012      397.8577      397.8589     145.974529      11.45649
  49    .09103      251.8837        0.0027      397.8418      397.8445     145.960837       8.55784
  48    0.1069      251.8829        0.0044      397.8230      397.8274     145.944484       8.70456
  47    0.1255      251.8820        0.0064      397.7997      397.8060     145.924035       9.27054
  46    0.1487      251.8809        0.0089      397.7676      397.7765     145.895569      10.37637
  45    0.1794      251.8795        0.0122      397.7205      397.7328     145.853263      11.61403
  44    0.2165      251.8779        0.0162      397.6602      397.6765     145.798596      12.43584
  43    0.2613      251.8761        0.0209      397.5829      397.6038     145.727773      13.34975
  42    0.3336      251.8733        0.0287      397.4449      397.4736     145.600286      14.86376
  41    0.4307      251.8699        0.0389      397.2524      397.2912     145.421344      15.55860
  40    0.5894      251.8650        0.0552      396.9253      396.9805     145.115487      16.26505
  39     1.339      251.8540        0.1284      395.4254      395.5537     143.699722      15.93895
  38     1.782      251.8556        0.1694      394.7288      394.8982     143.042595      12.51063
  37     2.292      251.8646        0.2162      394.0572      394.2733     142.408753      10.49809
  36     2.964      251.8870        0.2769      393.3007      393.5776     141.690598       9.01501
  35     3.853      251.9312        0.3562      392.4318      392.7880     140.856797       7.91293
  34     5.035      252.0046        0.4607      391.4441      391.9048     139.900121       6.83409
  33     6.613      252.1107        0.5991      390.3268      390.9258     138.815159       5.80021
  32     8.786      252.2476        0.7842      389.0624      389.8466     137.598990       4.72316
  31     11.80      252.4186        1.0470      387.5500      388.5970     136.178442       3.97709
  30     15.07      252.5729        1.3269      386.1556      387.4826     134.909681       3.27569
  29     18.79      252.7211        1.6408      384.7502      386.3909     133.669790       2.81121
  28     23.16      252.8643        2.0044      383.2686      385.2730     132.408706       2.43853
  27     28.12      252.9930        2.4170      381.7329      384.1499     131.156886       2.12801
  26     33.73      253.0857        2.8755      380.1982      383.0737     129.987994       1.75746
  25     40.54      253.1381        3.4255      378.5384      381.9638     128.825736       1.44191
  24     48.69      253.1443        4.0829      376.7214      380.8043     127.659952       1.20640
  23     57.69      253.0965        4.7984      374.8959      379.6943     126.597788       0.99562
  22     68.43      252.9809        5.6423      372.8999      378.5422     125.561337       0.81479
  21     81.20      252.7620        6.6373      370.7496      377.3869     124.624899       0.61878
  20     96.49      252.4281        7.8085      368.4056      376.2141     123.786005       0.46301
  19     114.6      252.0093        9.1774      365.7513      374.9287     122.919383       0.40465
  18     136.5      251.4964       10.7683      362.7231      373.4914     121.994997       0.35545
  17     162.9      250.8766       12.6193      359.1748      371.7940     120.917398       0.34444
  16     196.4      250.0421       14.9554      354.5718      369.5272     119.485128       0.36052
  15     218.7      249.4888       16.4511      351.4437      367.8947     118.405902       0.40974
  14     243.0      248.8919       18.0432      347.7111      365.7544     116.862478       0.53531
  13     269.0      248.2523       19.7303      342.9441      362.6745     114.422162       0.79163
  12     297.5      247.5724       21.5105      337.4137      358.9242     111.351780       0.91064
  11     328.5      246.8586       23.3857      331.1302      354.5160     107.657384       1.00450
  10     361.9      246.1167       25.3508      324.1219      349.4727     103.356004       1.08829
   9     398.1      245.3519       27.4055      316.6066      344.0121      98.660159       1.09403
   8     437.6      244.5760       29.5457      308.5895      338.1351      93.559120       1.09063
   7     480.5      243.8087       31.7659      299.9349      331.7008      87.892060       1.11299
   6     533.0      242.9644       34.4008      289.7021      324.1030      81.138585       1.08642
   5     589.8      242.1898       37.1267      279.3388      316.4655      74.275724       1.01867
   4     651.6      241.5408       39.9320      268.7786      308.7106      67.169821       0.97175
   3     718.7      241.0506       42.8083      258.2837      301.0920      60.041313       0.89586
   2     792.3      240.7536       45.7418      248.0774      293.8193      53.065648       0.80003
   1     891.5      240.8045       49.4774      235.5216      284.9990      44.194458       0.75490
   0    1013.0      241.9290       53.6455      221.4731      275.1186      33.189604       0.76412



 Wavenumbers:  2600. -  3250. cm-1, ATM      1
 LEVEL PRESSURE   UPWARD FLUX   DIFDOWN FLUX  DIRDOWN FLUX  DOWNWARD FLUX   NET FLUX    HEATING RATE
          mb          W/m2          W/m2          W/m2        W/m2          W/m2       degree/day
  51    .06700        0.6847        0.0000        3.5066        3.5066       2.821963       0.00000
  50    .07753        0.6847        0.0000        3.5066        3.5066       2.821955       0.00640
  49    .09103        0.6847        0.0000        3.5066        3.5066       2.821945       0.00627
  48    0.1069        0.6847        0.0000        3.5066        3.5066       2.821934       0.00613
  47    0.1255        0.6847        0.0000        3.5066        3.5066       2.821921       0.00599
  46    0.1487        0.6847        0.0000        3.5066        3.5066       2.821904       0.00607
  45    0.1794        0.6847        0.0000        3.5065        3.5065       2.821881       0.00624
  44    0.2165        0.6847        0.0000        3.5065        3.5065       2.821854       0.00611
  43    0.2613        0.6847        0.0000        3.5065        3.5065       2.821823       0.00598
  42    0.3336        0.6847        0.0000        3.5064        3.5064       2.821770       0.00615
  41    0.4307        0.6847        0.0000        3.5064        3.5064       2.821699       0.00618
  40    0.5894        0.6847        0.0000        3.5062        3.5062       2.821580       0.00633
  39     1.339        0.6847        0.0000        3.5055        3.5055       2.820881       0.00787
  38     1.782        0.6847        0.0000        3.5050        3.5050       2.820350       0.01011
  37     2.292        0.6847        0.0000        3.5043        3.5043       2.819658       0.01147
  36     2.964        0.6847        0.0000        3.5033        3.5033       2.818666       0.01245
  35     3.853        0.6847        0.0000        3.5019        3.5019       2.817289       0.01307
  34     5.035        0.6847        0.0000        3.5001        3.5001       2.815428       0.01329
  33     6.613        0.6847        0.0000        3.4977        3.4977       2.813018       0.01288
  32     8.786        0.6847        0.0000        3.4947        3.4947       2.810047       0.01154
  31     11.80        0.6847        0.0000        3.4911        3.4911       2.806412       0.01018
  30     15.07        0.6847        0.0000        3.4878        3.4878       2.803191       0.00832
  29     18.79        0.6847        0.0000        3.4848        3.4848       2.800127       0.00695
  28     23.16        0.6847        0.0000        3.4816        3.4816       2.796906       0.00623
  27     28.12        0.6847        0.0000        3.4779        3.4779       2.793287       0.00615
  26     33.73        0.6847        0.0000        3.4735        3.4735       2.788819       0.00672
  25     40.54        0.6847        0.0000        3.4671        3.4671       2.782491       0.00785
  24     48.69        0.6847        0.0000        3.4582        3.4583       2.773593       0.00921
  23     57.69        0.6847        0.0000        3.4472        3.4472       2.762540       0.01036
  22     68.43        0.6847        0.0000        3.4329        3.4329       2.748273       0.01122
  21     81.20        0.6847        0.0000        3.4152        3.4152       2.730535       0.01172
  20     96.49        0.6847        0.0000        3.3940        3.3941       2.709375       0.01168
  19     114.6        0.6847        0.0000        3.3692        3.3692       2.684465       0.01163
  18     136.5        0.6848        0.0001        3.3419        3.3420       2.657217       0.01048
  17     162.9        0.6849        0.0001        3.3129        3.3129       2.628095       0.00931
  16     196.4        0.6850        0.0001        3.2793        3.2794       2.594431       0.00847
  15     218.7        0.6851        0.0001        3.2578        3.2578       2.572721       0.00824
  14     243.0        0.6854        0.0001        3.2320        3.2321       2.546700       0.00903
  13     269.0        0.6857        0.0001        3.1968        3.1969       2.511209       0.01151
  12     297.5        0.6863        0.0001        3.1489        3.1491       2.462756       0.01437
  11     328.5        0.6872        0.0001        3.0821        3.0822       2.395017       0.01842
  10     361.9        0.6884        0.0001        2.9902        2.9904       2.301946       0.02355
   9     398.1        0.6902        0.0001        2.8715        2.8716       2.181421       0.02808
   8     437.6        0.6927        0.0001        2.7276        2.7278       2.035068       0.03129
   7     480.5        0.6964        0.0002        2.5595        2.5597       1.863244       0.03375
   6     533.0        0.7025        0.0002        2.3617        2.3619       1.659358       0.03280
   5     589.8        0.7113        0.0002        2.1649        2.1651       1.453764       0.03052
   4     651.6        0.7240        0.0002        1.9608        1.9609       1.236971       0.02965
   3     718.7        0.7412        0.0002        1.7593        1.7595       1.018319       0.02748
   2     792.3        0.7636        0.0002        1.5761        1.5762       0.812607       0.02359
   1     891.5        0.8023        0.0002        1.3714        1.3716       0.569362       0.02070
   0    1013.0        0.8720        0.0002        1.1584        1.1586       0.286624       0.01963



 Wavenumbers:  3250. -  4000. cm-1, ATM      1
 LEVEL PRESSURE   UPWARD FLUX   DIFDOWN FLUX  DIRDOWN FLUX  DOWNWARD FLUX   NET FLUX    HEATING RATE
          mb          W/m2          W/m2          W/m2        W/m2          W/m2       degree/day
  51    .06700        0.0004        0.0000        5.9117        5.9117       5.911223       0.00000
  50    .07753        0.0004        0.0000        5.9075        5.9075       5.907033       3.35808
  49    .09103        0.0004        0.0000        5.9050        5.9050       5.904590       1.52677
  48    0.1069        0.0004        0.0000        5.9032        5.9032       5.902724       0.99346
  47    0.1255        0.0004        0.0000        5.9014        5.9014       5.900966       0.79708
  46    0.1487        0.0004        0.0000        5.8995        5.8995       5.899077       0.68848
  45    0.1794        0.0004        0.0000        5.8974        5.8974       5.896928       0.58983
  44    0.2165        0.0004        0.0000        5.8952        5.8952       5.894811       0.48155
  43    0.2613        0.0004        0.0000        5.8931        5.8931       5.892652       0.40696
  42    0.3336        0.0004        0.0000        5.8899        5.8899       5.889494       0.36820
  41    0.4307        0.0004        0.0000        5.8861        5.8861       5.885657       0.33365
  40    0.5894        0.0004        0.0000        5.8803        5.8803       5.879855       0.30857
  39     1.339        0.0004        0.0000        5.8597        5.8597       5.859257       0.23189
  38     1.782        0.0004        0.0000        5.8513        5.8513       5.850832       0.16039
  37     2.292        0.0004        0.0000        5.8431        5.8431       5.842661       0.13533
  36     2.964        0.0004        0.0000        5.8334        5.8334       5.833022       0.12100
  35     3.853        0.0004        0.0000        5.8213        5.8213       5.820846       0.11555
  34     5.035        0.0004        0.0000        5.8052        5.8052       5.804751       0.11498
  33     6.613        0.0004        0.0000        5.7833        5.7834       5.782930       0.11666
  32     8.786        0.0004        0.0000        5.7531        5.7531       5.752728       0.11729
  31     11.80        0.0004        0.0000        5.7090        5.7090       5.708559       0.12366
  30     15.07        0.0004        0.0000        5.6615        5.6615       5.661095       0.12254
  29     18.79        0.0004        0.0000        5.6093        5.6094       5.608959       0.11821
  28     23.16        0.0004        0.0000        5.5524        5.5524       5.552033       0.11008
  27     28.12        0.0004        0.0000        5.4935        5.4935       5.493154       0.10009
  26     33.73        0.0004        0.0000        5.4348        5.4349       5.434466       0.08824
  25     40.54        0.0004        0.0001        5.3707        5.3708       5.370404       0.07948
  24     48.69        0.0004        0.0001        5.2985        5.2985       5.298171       0.07475
  23     57.69        0.0004        0.0001        5.2215        5.2216       5.221232       0.07212
  22     68.43        0.0003        0.0001        5.1318        5.1319       5.131572       0.07048
  21     81.20        0.0003        0.0001        5.0284        5.0285       5.028143       0.06834
  20     96.49        0.0003        0.0001        4.9122        4.9123       4.912008       0.06410
  19     114.6        0.0003        0.0001        4.7780        4.7782       4.777897       0.06262
  18     136.5        0.0003        0.0002        4.6285        4.6287       4.628419       0.05748
  17     162.9        0.0002        0.0002        4.4406        4.4407       4.440507       0.06006
  16     196.4        0.0002        0.0002        4.1548        4.1550       4.154833       0.07191
  15     218.7        0.0002        0.0002        3.9564        3.9566       3.956452       0.07532
  14     243.0        0.0002        0.0002        3.7055        3.7058       3.705618       0.08700
  13     269.0        0.0001        0.0002        3.3399        3.3401       3.339979       0.11861
  12     297.5        0.0001        0.0002        2.8954        2.8956       2.895490       0.13183
  11     328.5        0.0001        0.0002        2.4388        2.4390       2.438949       0.12413
  10     361.9        0.0001        0.0002        2.0269        2.0271       2.027010       0.10422
   9     398.1        0.0001        0.0002        1.6753        1.6755       1.675422       0.08191
   8     437.6        0.0001        0.0002        1.3592        1.3594       1.359303       0.06759
   7     480.5        0.0001        0.0002        1.0616        1.0618       1.061720       0.05844
   6     533.0        0.0000        0.0001        0.7543        0.7544       0.754385       0.04944
   5     589.8        0.0000        0.0001        0.4951        0.4952       0.495190       0.03847
   4     651.6        0.0000        0.0001        0.2943        0.2943       0.294290       0.02747
   3     718.7        0.0001        0.0001        0.1528        0.1529       0.152788       0.01778
   2     792.3        0.0001        0.0000        0.0658        0.0658       0.065739       0.00998
   1     891.5        0.0002        0.0000        0.0157        0.0157       0.015427       0.00428
   0    1013.0        0.0010        0.0000        0.0013        0.0013       0.000332       0.00105



 Wavenumbers:  4000. -  4650. cm-1, ATM      1
 LEVEL PRESSURE   UPWARD FLUX   DIFDOWN FLUX  DIRDOWN FLUX  DOWNWARD FLUX   NET FLUX    HEATING RATE
          mb          W/m2          W/m2          W/m2        W/m2          W/m2       degree/day
  51    .06700        2.9365        0.0000        6.9421        6.9421       4.005555       0.00000
  50    .07753        2.9365        0.0000        6.9421        6.9421       4.005554       0.00079
  49    .09103        2.9365        0.0000        6.9421        6.9421       4.005553       0.00078
  48    0.1069        2.9365        0.0000        6.9421        6.9421       4.005552       0.00076
  47    0.1255        2.9365        0.0000        6.9421        6.9421       4.005550       0.00074
  46    0.1487        2.9365        0.0000        6.9421        6.9421       4.005548       0.00075
  45    0.1794        2.9365        0.0000        6.9421        6.9421       4.005545       0.00077
  44    0.2165        2.9365        0.0000        6.9421        6.9421       4.005542       0.00076
  43    0.2613        2.9365        0.0000        6.9420        6.9420       4.005538       0.00074
  42    0.3336        2.9365        0.0000        6.9420        6.9420       4.005531       0.00076
  41    0.4307        2.9365        0.0000        6.9420        6.9420       4.005522       0.00077
  40    0.5894        2.9365        0.0000        6.9420        6.9420       4.005508       0.00079
  39     1.339        2.9365        0.0000        6.9419        6.9419       4.005419       0.00100
  38     1.782        2.9365        0.0000        6.9418        6.9419       4.005349       0.00132
  37     2.292        2.9365        0.0000        6.9418        6.9418       4.005256       0.00155
  36     2.964        2.9365        0.0000        6.9416        6.9416       4.005116       0.00175
  35     3.853        2.9365        0.0000        6.9414        6.9414       4.004910       0.00196
  34     5.035        2.9365        0.0000        6.9411        6.9411       4.004605       0.00218
  33     6.613        2.9365        0.0000        6.9406        6.9407       4.004157       0.00239
  32     8.786        2.9365        0.0000        6.9399        6.9400       4.003497       0.00256
  31     11.80        2.9365        0.0000        6.9389        6.9389       4.002462       0.00290
  30     15.07        2.9365        0.0001        6.9377        6.9377       4.001252       0.00313
  29     18.79        2.9365        0.0001        6.9362        6.9363       3.999793       0.00331
  28     23.16        2.9365        0.0001        6.9343        6.9344       3.997988       0.00349
  27     28.12        2.9364        0.0001        6.9321        6.9323       3.995813       0.00370
  26     33.73        2.9364        0.0001        6.9294        6.9296       3.993144       0.00401
  25     40.54        2.9364        0.0002        6.9258        6.9260       3.989544       0.00447
  24     48.69        2.9364        0.0002        6.9210        6.9212       3.984779       0.00493
  23     57.69        2.9364        0.0002        6.9154        6.9156       3.979172       0.00526
  22     68.43        2.9364        0.0003        6.9083        6.9086       3.972199       0.00548
  21     81.20        2.9364        0.0003        6.8998        6.9001       3.963670       0.00564
  20     96.49        2.9365        0.0004        6.8894        6.8898       3.953366       0.00569
  19     114.6        2.9366        0.0005        6.8765        6.8770       3.940457       0.00603
  18     136.5        2.9367        0.0006        6.8610        6.8615       3.924875       0.00599
  17     162.9        2.9369        0.0007        6.8417        6.8423       3.905467       0.00620
  16     196.4        2.9373        0.0008        6.8147        6.8155       3.878203       0.00686
  15     218.7        2.9377        0.0009        6.7948        6.7957       3.858090       0.00764
  14     243.0        2.9382        0.0010        6.7698        6.7708       3.832544       0.00886
  13     269.0        2.9392        0.0011        6.7349        6.7360       3.796749       0.01161
  12     297.5        2.9407        0.0012        6.6869        6.6881       3.747378       0.01464
  11     328.5        2.9428        0.0013        6.6194        6.6207       3.677883       0.01890
  10     361.9        2.9456        0.0015        6.5295        6.5309       3.585290       0.02343
   9     398.1        2.9493        0.0016        6.4202        6.4218       3.472507       0.02628
   8     437.6        2.9541        0.0017        6.2962        6.2979       3.343789       0.02752
   7     480.5        2.9606        0.0018        6.1555        6.1573       3.196768       0.02887
   6     533.0        2.9709        0.0020        5.9675        5.9695       2.998647       0.03187
   5     589.8        2.9857        0.0022        5.7368        5.7389       2.753218       0.03643
   4     651.6        3.0071        0.0023        5.4662        5.4685       2.461487       0.03989
   3     718.7        3.0361        0.0025        5.1912        5.1936       2.157508       0.03820
   2     792.3        3.0736        0.0026        4.9395        4.9421       1.868498       0.03315
   1     891.5        3.1376        0.0028        4.6486        4.6514       1.513837       0.03018
   0    1013.0        3.2521        0.0030        4.3179        4.3209       1.068829       0.03090



 Wavenumbers:  4650. -  5150. cm-1, ATM      1
 LEVEL PRESSURE   UPWARD FLUX   DIFDOWN FLUX  DIRDOWN FLUX  DOWNWARD FLUX   NET FLUX    HEATING RATE
          mb          W/m2          W/m2          W/m2        W/m2          W/m2       degree/day
  51    .06700        1.9817        0.0000        6.5710        6.5710       4.589306       0.00000
  50    .07753        1.9817        0.0000        6.5708        6.5708       4.589071       0.18887
  49    .09103        1.9817        0.0000        6.5705        6.5705       4.588777       0.18362
  48    0.1069        1.9817        0.0000        6.5701        6.5701       4.588442       0.17806
  47    0.1255        1.9817        0.0000        6.5697        6.5697       4.588062       0.17238
  46    0.1487        1.9817        0.0000        6.5693        6.5693       4.587588       0.17268
  45    0.1794        1.9817        0.0000        6.5686        6.5686       4.586952       0.17473
  44    0.2165        1.9817        0.0000        6.5679        6.5679       4.586214       0.16788
  43    0.2613        1.9817        0.0000        6.5670        6.5670       4.585361       0.16078
  42    0.3336        1.9817        0.0000        6.5657        6.5657       4.583998       0.15894
  41    0.4307        1.9817        0.0000        6.5640        6.5640       4.582276       0.14971
  40    0.5894        1.9817        0.0000        6.5613        6.5613       4.579660       0.13913
  39     1.339        1.9817        0.0000        6.5516        6.5516       4.569882       0.11008
  38     1.782        1.9817        0.0000        6.5473        6.5473       4.565666       0.08026
  37     2.292        1.9817        0.0000        6.5434        6.5435       4.561779       0.06438
  36     2.964        1.9817        0.0000        6.5395        6.5395       4.557824       0.04964
  35     3.853        1.9817        0.0000        6.5355        6.5356       4.553881       0.03742
  34     5.035        1.9817        0.0000        6.5315        6.5315       4.549879       0.02859
  33     6.613        1.9817        0.0000        6.5271        6.5271       4.545484       0.02350
  32     8.786        1.9817        0.0001        6.5216        6.5216       4.539987       0.02135
  31     11.80        1.9816        0.0001        6.5135        6.5136       4.531906       0.02263
  30     15.07        1.9816        0.0001        6.5041        6.5042       4.522533       0.02420
  29     18.79        1.9816        0.0001        6.4925        6.4926       4.511013       0.02612
  28     23.16        1.9816        0.0001        6.4779        6.4780       4.496413       0.02823
  27     28.12        1.9816        0.0002        6.4599        6.4601       4.478428       0.03057
  26     33.73        1.9816        0.0002        6.4384        6.4386       4.456984       0.03224
  25     40.54        1.9816        0.0002        6.4112        6.4115       4.429841       0.03367
  24     48.69        1.9816        0.0003        6.3775        6.3778       4.396179       0.03484
  23     57.69        1.9817        0.0003        6.3404        6.3407       4.359055       0.03480
  22     68.43        1.9817        0.0004        6.2971        6.2975       4.315820       0.03399
  21     81.20        1.9818        0.0005        6.2483        6.2487       4.266944       0.03230
  20     96.49        1.9819        0.0006        6.1948        6.1954       4.213490       0.02950
  19     114.6        1.9821        0.0007        6.1381        6.1388       4.156739       0.02650
  18     136.5        1.9823        0.0008        6.0790        6.0798       4.097471       0.02279
  17     162.9        1.9827        0.0009        6.0160        6.0170       4.034288       0.02020
  16     196.4        1.9833        0.0011        5.9399        5.9410       3.957695       0.01928
  15     218.7        1.9838        0.0012        5.8896        5.8909       3.907075       0.01922
  14     243.0        1.9845        0.0014        5.8322        5.8336       3.849064       0.02012
  13     269.0        1.9855        0.0015        5.7624        5.7639       3.778384       0.02293
  12     297.5        1.9870        0.0017        5.6767        5.6784       3.691342       0.02582
  11     328.5        1.9891        0.0018        5.5726        5.5744       3.585255       0.02884
  10     361.9        1.9920        0.0020        5.4473        5.4493       3.457280       0.03238
   9     398.1        1.9959        0.0021        5.2995        5.3016       3.305740       0.03531
   8     437.6        2.0010        0.0023        5.1275        5.1297       3.128714       0.03785
   7     480.5        2.0080        0.0024        4.9290        4.9314       2.923353       0.04033
   6     533.0        2.0191        0.0026        4.6794        4.6820       2.662896       0.04190
   5     589.8        2.0344        0.0028        4.4188        4.4215       2.387179       0.04093
   4     651.6        2.0557        0.0029        4.1521        4.1550       2.099304       0.03937
   3     718.7        2.0841        0.0031        3.8929        3.8960       1.811928       0.03612
   2     792.3        2.1207        0.0032        3.6469        3.6501       1.529349       0.03241
   1     891.5        2.1830        0.0034        3.3535        3.3569       1.173837       0.03025
   0    1013.0        2.2895        0.0036        3.0383        3.0419       0.752377       0.02926



 Wavenumbers:  5150. -  6150. cm-1, ATM      1
 LEVEL PRESSURE   UPWARD FLUX   DIFDOWN FLUX  DIRDOWN FLUX  DOWNWARD FLUX   NET FLUX    HEATING RATE
          mb          W/m2          W/m2          W/m2        W/m2          W/m2       degree/day
  51    .06700        5.3476        0.0000       16.4735       16.4735      11.125877       0.00000
  50    .07753        5.3476        0.0000       16.4735       16.4735      11.125843       0.02763
  49    .09103        5.3476        0.0000       16.4734       16.4734      11.125798       0.02812
  48    0.1069        5.3476        0.0000       16.4734       16.4734      11.125744       0.02861
  47    0.1255        5.3476        0.0000       16.4733       16.4733      11.125680       0.02906
  46    0.1487        5.3476        0.0000       16.4732       16.4732      11.125596       0.03061
  45    0.1794        5.3476        0.0000       16.4731       16.4731      11.125477       0.03271
  44    0.2165        5.3476        0.0000       16.4730       16.4730      11.125330       0.03333
  43    0.2613        5.3476        0.0000       16.4728       16.4728      11.125151       0.03378
  42    0.3336        5.3476        0.0000       16.4725       16.4725      11.124845       0.03566
  41    0.4307        5.3476        0.0000       16.4720       16.4720      11.124426       0.03647
  40    0.5894        5.3476        0.0000       16.4713       16.4713      11.123724       0.03730
  39     1.339        5.3476        0.0000       16.4679       16.4679      11.120314       0.03840
  38     1.782        5.3476        0.0000       16.4659       16.4659      11.118313       0.03809
  37     2.292        5.3476        0.0001       16.4635       16.4636      11.116020       0.03798
  36     2.964        5.3476        0.0001       16.4605       16.4606      11.113047       0.03731
  35     3.853        5.3476        0.0001       16.4567       16.4568      11.109190       0.03661
  34     5.035        5.3476        0.0001       16.4516       16.4517      11.104186       0.03574
  33     6.613        5.3475        0.0002       16.4451       16.4453      11.097716       0.03459
  32     8.786        5.3475        0.0002       16.4367       16.4369      11.089390       0.03234
  31     11.80        5.3475        0.0003       16.4254       16.4257      11.078218       0.03128
  30     15.07        5.3474        0.0004       16.4141       16.4145      11.067105       0.02869
  29     18.79        5.3474        0.0005       16.4024       16.4030      11.055552       0.02619
  28     23.16        5.3474        0.0007       16.3900       16.3906      11.043252       0.02378
  27     28.12        5.3473        0.0008       16.3771       16.3779      11.030540       0.02161
  26     33.73        5.3473        0.0010       16.3641       16.3651      11.017755       0.01922
  25     40.54        5.3473        0.0011       16.3502       16.3513      11.004034       0.01702
  24     48.69        5.3473        0.0014       16.3354       16.3367      10.989452       0.01509
  23     57.69        5.3473        0.0016       16.3211       16.3227      10.975423       0.01315
  22     68.43        5.3473        0.0019       16.3062       16.3082      10.960871       0.01144
  21     81.20        5.3473        0.0023       16.2903       16.2926      10.945273       0.01031
  20     96.49        5.3474        0.0027       16.2726       16.2753      10.927948       0.00956
  19     114.6        5.3475        0.0032       16.2521       16.2553      10.907826       0.00940
  18     136.5        5.3476        0.0038       16.2245       16.2284      10.880786       0.01040
  17     162.9        5.3477        0.0045       16.1747       16.1793      10.831533       0.01574
  16     196.4        5.3480        0.0054       16.0518       16.0573      10.709289       0.03077
  15     218.7        5.3482        0.0060       15.8984       15.9044      10.556200       0.05812
  14     243.0        5.3485        0.0066       15.6153       15.6219      10.273385       0.09809
  13     269.0        5.3489        0.0072       15.1390       15.1462       9.797243       0.15446
  12     297.5        5.3496        0.0077       14.5779       14.5856       9.236023       0.16645
  11     328.5        5.3506        0.0082       13.8780       13.8863       8.535663       0.19043
  10     361.9        5.3521        0.0087       13.0814       13.0901       7.738070       0.20180
   9     398.1        5.3542        0.0091       12.2728       12.2820       6.927797       0.18878
   8     437.6        5.3572        0.0095       11.4776       11.4871       6.129907       0.17059
   7     480.5        5.3616        0.0099       10.7300       10.7398       5.378239       0.14762
   6     533.0        5.3691        0.0103       10.0326       10.0429       4.673784       0.11332
   5     589.8        5.3805        0.0109        9.5050        9.5159       4.135385       0.07992
   4     651.6        5.3978        0.0115        9.0814        9.0929       3.695172       0.06020
   3     718.7        5.4222        0.0123        8.7024        8.7148       3.292510       0.05060
   2     792.3        5.4553        0.0132        8.3379        8.3511       2.895837       0.04549
   1     891.5        5.5155        0.0142        7.9064        7.9206       2.405125       0.04176
   0    1013.0        5.6375        0.0155        7.4741        7.4896       1.852084       0.03840



 Wavenumbers:  6150. -  7700. cm-1, ATM      1
 LEVEL PRESSURE   UPWARD FLUX   DIFDOWN FLUX  DIRDOWN FLUX  DOWNWARD FLUX   NET FLUX    HEATING RATE
          mb          W/m2          W/m2          W/m2        W/m2          W/m2       degree/day
  51    .06700        7.8272        0.0000       30.4684       30.4684      22.641138       0.00000
  50    .07753        7.8272        0.0000       30.4683       30.4683      22.641087       0.04144
  49    .09103        7.8272        0.0000       30.4683       30.4683      22.641020       0.04174
  48    0.1069        7.8272        0.0000       30.4682       30.4682      22.640941       0.04202
  47    0.1255        7.8272        0.0000       30.4681       30.4681      22.640848       0.04227
  46    0.1487        7.8272        0.0000       30.4680       30.4680      22.640727       0.04411
  45    0.1794        7.8272        0.0000       30.4678       30.4678      22.640557       0.04669
  44    0.2165        7.8272        0.0000       30.4676       30.4676      22.640349       0.04715
  43    0.2613        7.8272        0.0000       30.4673       30.4673      22.640098       0.04744
  42    0.3336        7.8272        0.0000       30.4669       30.4669      22.639671       0.04974
  41    0.4307        7.8272        0.0000       30.4663       30.4663      22.639090       0.05052
  40    0.5894        7.8272        0.0001       30.4653       30.4653      22.638122       0.05146
  39     1.339        7.8271        0.0001       30.4604       30.4606      22.633439       0.05273
  38     1.782        7.8271        0.0002       30.4576       30.4578      22.630689       0.05235
  37     2.292        7.8270        0.0003       30.4543       30.4546      22.627530       0.05231
  36     2.964        7.8270        0.0003       30.4501       30.4504      22.623423       0.05156
  35     3.853        7.8269        0.0004       30.4445       30.4450      22.618066       0.05084
  34     5.035        7.8268        0.0006       30.4373       30.4379      22.611066       0.05000
  33     6.613        7.8266        0.0008       30.4278       30.4286      22.601919       0.04890
  32     8.786        7.8264        0.0010       30.4154       30.4164      22.589966       0.04642
  31     11.80        7.8262        0.0014       30.3984       30.3997      22.573580       0.04587
  30     15.07        7.8259        0.0018       30.3810       30.3827      22.556867       0.04315
  29     18.79        7.8255        0.0022       30.3623       30.3645      22.538966       0.04059
  28     23.16        7.8251        0.0027       30.3417       30.3444      22.519282       0.03806
  27     28.12        7.8247        0.0033       30.3196       30.3228      22.498182       0.03587
  26     33.73        7.8241        0.0039       30.2965       30.3004      22.476263       0.03296
  25     40.54        7.8235        0.0047       30.2708       30.2754      22.451925       0.03019
  24     48.69        7.8228        0.0056       30.2423       30.2479      22.425147       0.02771
  23     57.69        7.8220        0.0067       30.2139       30.2205      22.398580       0.02490
  22     68.43        7.8210        0.0079       30.1834       30.1913      22.370303       0.02223
  21     81.20        7.8198        0.0094       30.1500       30.1594      22.339571       0.02031
  20     96.49        7.8184        0.0111       30.1126       30.1238      22.305350       0.01889
  19     114.6        7.8168        0.0132       30.0695       30.0827      22.265959       0.01839
  18     136.5        7.8148        0.0157       30.0139       30.0296      22.214795       0.01967
  17     162.9        7.8125        0.0186       29.9225       29.9411      22.128597       0.02755
  16     196.4        7.8096        0.0224       29.7333       29.7557      21.946164       0.04592
  15     218.7        7.8077        0.0248       29.5259       29.5507      21.742988       0.07714
  14     243.0        7.8057        0.0274       29.1375       29.1648      21.359074       0.13315
  13     269.0        7.8039        0.0298       28.3800       28.4098      20.605897       0.24433
  12     297.5        7.8023        0.0321       27.3895       27.4216      19.619325       0.29261
  11     328.5        7.8013        0.0343       26.2257       26.2600      18.458737       0.31556
  10     361.9        7.8012        0.0364       24.8453       24.8817      17.080523       0.34870
   9     398.1        7.8025        0.0382       23.3471       23.3853      15.582763       0.34894
   8     437.6        7.8061        0.0398       21.7966       21.8364      14.030348       0.33192
   7     480.5        7.8135        0.0411       20.1977       20.2388      12.425261       0.31523
   6     533.0        7.8291        0.0425       18.4969       18.5394      10.710282       0.27589
   5     589.8        7.8557        0.0438       16.9754       17.0192       9.163556       0.22958
   4     651.6        7.8991        0.0452       15.6022       15.6474       7.748265       0.19354
   3     718.7        7.9636        0.0468       14.4232       14.4700       6.506422       0.15607
   2     792.3        8.0525        0.0487       13.4386       13.4873       5.434767       0.12291
   1     891.5        8.2161        0.0513       12.3736       12.4248       4.208717       0.10433
   0    1013.0        8.5414        0.0541       11.2911       11.3453       2.803902       0.09754



 Wavenumbers:  7700. -  8050. cm-1, ATM      1
 LEVEL PRESSURE   UPWARD FLUX   DIFDOWN FLUX  DIRDOWN FLUX  DOWNWARD FLUX   NET FLUX    HEATING RATE
          mb          W/m2          W/m2          W/m2        W/m2          W/m2       degree/day
  51    .06700        4.0651        0.0000        7.2006        7.2006       3.135500       0.00000
  50    .07753        4.0651        0.0000        7.2006        7.2006       3.135479       0.01629
  49    .09103        4.0651        0.0000        7.2005        7.2005       3.135454       0.01596
  48    0.1069        4.0651        0.0000        7.2005        7.2005       3.135425       0.01562
  47    0.1255        4.0651        0.0000        7.2005        7.2005       3.135391       0.01529
  46    0.1487        4.0651        0.0000        7.2004        7.2005       3.135348       0.01551
  45    0.1794        4.0651        0.0000        7.2004        7.2004       3.135290       0.01596
  44    0.2165        4.0651        0.0000        7.2003        7.2003       3.135221       0.01566
  43    0.2613        4.0651        0.0000        7.2003        7.2003       3.135140       0.01537
  42    0.3336        4.0651        0.0000        7.2001        7.2001       3.135005       0.01572
  41    0.4307        4.0652        0.0000        7.2000        7.2000       3.134826       0.01555
  40    0.5894        4.0652        0.0000        7.1997        7.1997       3.134534       0.01553
  39     1.339        4.0653        0.0001        7.1984        7.1985       3.133152       0.01555
  38     1.782        4.0654        0.0001        7.1977        7.1978       3.132341       0.01544
  37     2.292        4.0655        0.0001        7.1968        7.1969       3.131402       0.01555
  36     2.964        4.0657        0.0001        7.1957        7.1958       3.130170       0.01547
  35     3.853        4.0659        0.0002        7.1942        7.1944       3.128543       0.01544
  34     5.035        4.0661        0.0003        7.1922        7.1925       3.126383       0.01543
  33     6.613        4.0664        0.0003        7.1896        7.1899       3.123500       0.01541
  32     8.786        4.0669        0.0004        7.1860        7.1865       3.119619       0.01507
  31     11.80        4.0675        0.0006        7.1810        7.1816       3.114079       0.01551
  30     15.07        4.0682        0.0008        7.1755        7.1763       3.108146       0.01532
  29     18.79        4.0689        0.0009        7.1694        7.1704       3.101461       0.01516
  28     23.16        4.0698        0.0012        7.1623        7.1635       3.093680       0.01505
  27     28.12        4.0708        0.0014        7.1542        7.1557       3.084816       0.01507
  26     33.73        4.0720        0.0017        7.1452        7.1469       3.074942       0.01485
  25     40.54        4.0734        0.0020        7.1344        7.1365       3.063075       0.01472
  24     48.69        4.0751        0.0024        7.1215        7.1240       3.048862       0.01471
  23     57.69        4.0770        0.0029        7.1074        7.1103       3.033365       0.01453
  22     68.43        4.0792        0.0034        7.0909        7.0943       3.015067       0.01438
  21     81.20        4.0819        0.0041        7.0713        7.0754       2.993488       0.01426
  20     96.49        4.0852        0.0048        7.0484        7.0532       2.968081       0.01402
  19     114.6        4.0891        0.0057        7.0217        7.0274       2.938331       0.01389
  18     136.5        4.0937        0.0068        6.9906        6.9974       2.903632       0.01334
  17     162.9        4.0994        0.0080        6.9544        6.9624       2.863057       0.01297
  16     196.4        4.1068        0.0096        6.9087        6.9184       2.811579       0.01296
  15     218.7        4.1118        0.0107        6.8794        6.8901       2.778358       0.01261
  14     243.0        4.1172        0.0118        6.8481        6.8600       2.742714       0.01236
  13     269.0        4.1233        0.0131        6.8147        6.8278       2.704494       0.01240
  12     297.5        4.1300        0.0144        6.7791        6.7935       2.663469       0.01217
  11     328.5        4.1375        0.0159        6.7409        6.7568       2.619282       0.01201
  10     361.9        4.1460        0.0174        6.7002        6.7176       2.571627       0.01206
   9     398.1        4.1555        0.0191        6.6563        6.6754       2.519912       0.01205
   8     437.6        4.1662        0.0209        6.6089        6.6297       2.463510       0.01206
   7     480.5        4.1786        0.0228        6.5570        6.5798       2.401133       0.01225
   6     533.0        4.1953        0.0251        6.4915        6.5166       2.321323       0.01284
   5     589.8        4.2150        0.0276        6.4182        6.4458       2.230784       0.01344
   4     651.6        4.2388        0.0302        6.3359        6.3661       2.127333       0.01415
   3     718.7        4.2671        0.0331        6.2441        6.2772       2.010145       0.01473
   2     792.3        4.3001        0.0360        6.1437        6.1798       1.879628       0.01497
   1     891.5        4.3497        0.0400        6.0042        6.0441       1.694415       0.01576
   0    1013.0        4.4197        0.0445        5.8249        5.8694       1.449697       0.01699



 Wavenumbers:  8050. - 12850. cm-1, ATM      1
 LEVEL PRESSURE   UPWARD FLUX   DIFDOWN FLUX  DIRDOWN FLUX  DOWNWARD FLUX   NET FLUX    HEATING RATE
          mb          W/m2          W/m2          W/m2        W/m2          W/m2       degree/day
  51    .06700       51.3840        0.0000      100.8135      100.8135      49.429563       0.00000
  50    .07753       51.3839        0.0000      100.8135      100.8135      49.429563       0.00000
  49    .09103       51.3839        0.0001      100.8134      100.8135      49.429563      -0.00000
  48    0.1069       51.3839        0.0001      100.8134      100.8135      49.429563       0.00000
  47    0.1255       51.3839        0.0001      100.8133      100.8134      49.429563       0.00000
  46    0.1487       51.3838        0.0002      100.8132      100.8134      49.429563      -0.00000
  45    0.1794       51.3838        0.0003      100.8131      100.8133      49.429563       0.00000
  44    0.2165       51.3837        0.0004      100.8129      100.8133      49.429563      -0.00000
  43    0.2613       51.3837        0.0005      100.8127      100.8132      49.429563       0.00000
  42    0.3336       51.3836        0.0007      100.8125      100.8131      49.429563      -0.00000
  41    0.4307       51.3834        0.0009      100.8121      100.8130      49.429563      -0.00000
  40    0.5894       51.3832        0.0013      100.8115      100.8127      49.429563       0.00000
  39     1.339       51.3820        0.0031      100.8085      100.8116      49.429563       0.00000
  38     1.782       51.3814        0.0042      100.8068      100.8110      49.429563      -0.00000
  37     2.292       51.3806        0.0054      100.8047      100.8102      49.429563       0.00000
  36     2.964       51.3796        0.0071      100.8021      100.8092      49.429563      -0.00000
  35     3.853       51.3783        0.0093      100.7986      100.8079      49.429563      -0.00000
  34     5.035       51.3765        0.0121      100.7940      100.8061      49.429563      -0.00000
  33     6.613       51.3742        0.0160      100.7878      100.8038      49.429563       0.00000
  32     8.786       51.3710        0.0212      100.7794      100.8006      49.429563      -0.00000
  31     11.80       51.3665        0.0286      100.7674      100.7960      49.429563       0.00000
  30     15.07       51.3616        0.0366      100.7546      100.7912      49.429563       0.00000
  29     18.79       51.3561        0.0456      100.7400      100.7856      49.429563      -0.00000
  28     23.16       51.3496        0.0562      100.7230      100.7792      49.429563      -0.00000
  27     28.12       51.3422        0.0683      100.7035      100.7718      49.429563       0.00000
  26     33.73       51.3339        0.0818      100.6817      100.7635      49.429563       0.00000
  25     40.54       51.3239        0.0982      100.6552      100.7535      49.429563       0.00000
  24     48.69       51.3118        0.1180      100.6234      100.7414      49.429563      -0.00000
  23     57.69       51.2985        0.1398      100.5883      100.7281      49.429563       0.00000
  22     68.43       51.2826        0.1657      100.5464      100.7122      49.429563       0.00000
  21     81.20       51.2637        0.1967      100.4965      100.6932      49.429563      -0.00000
  20     96.49       51.2411        0.2337      100.4370      100.6706      49.429563       0.00000
  19     114.6       51.2143        0.2776      100.3585      100.6361      49.421811       0.00362
  18     136.5       51.1825        0.3298      100.2634      100.5932      49.410661       0.00429
  17     162.9       51.1446        0.3920      100.1407      100.5327      49.388061       0.00722
  16     196.4       51.0956        0.4729       99.9505      100.4234      49.327800       0.01517
  15     218.7       51.0633        0.5260       99.7889      100.3150      49.251603       0.02893
  14     243.0       51.0285        0.5837       99.5472      100.1309      49.102367       0.05176
  13     269.0       50.9916        0.6459       99.1452       99.7911      48.799512       0.09824
  12     297.5       50.9533        0.7126       98.5975       99.3101      48.356823       0.13130
  11     328.5       50.9147        0.7842       97.8659       98.6500      47.735391       0.16897
  10     361.9       50.8775        0.8603       96.8848       97.7451      46.867553       0.21957
   9     398.1       50.8441        0.9407       95.6330       96.5737      45.729584       0.26512
   8     437.6       50.8188        1.0251       94.0655       95.0906      44.271750       0.31169
   7     480.5       50.8100        1.1125       92.0807       93.1932      42.383192       0.37091
   6     533.0       50.8301        1.2159       89.4449       90.6608      39.830663       0.41062
   5     589.8       50.8978        1.3231       86.5544       87.8775      36.979689       0.42318
   4     651.6       51.0389        1.4335       83.4174       84.8509      33.812050       0.43318
   3     718.7       51.2692        1.5479       80.2037       81.7516      30.482410       0.41844
   2     792.3       51.6032        1.6670       77.0811       78.7480      27.144854       0.38278
   1     891.5       52.2402        1.8213       73.2645       75.0858      22.845631       0.36584
   0    1013.0       53.4945        1.9943       68.9425       70.9368      17.442270       0.37518



 Wavenumbers: 12850. - 16000. cm-1, ATM      1
 LEVEL PRESSURE   UPWARD FLUX   DIFDOWN FLUX  DIRDOWN FLUX  DOWNWARD FLUX   NET FLUX    HEATING RATE
          mb          W/m2          W/m2          W/m2        W/m2          W/m2       degree/day
  51    .06700       45.9965        0.0000       63.1686       63.1686      17.172125       0.00000
  50    .07753       45.9964        0.0001       63.1677       63.1678      17.171343       0.62667
  49    .09103       45.9964        0.0001       63.1666       63.1668      17.170368       0.60932
  48    0.1069       45.9964        0.0002       63.1654       63.1656      17.169258       0.59122
  47    0.1255       45.9964        0.0003       63.1640       63.1643      17.167993       0.57309
  46    0.1487       45.9963        0.0004       63.1623       63.1627      17.166416       0.57516
  45    0.1794       45.9963        0.0006       63.1600       63.1606      17.164298       0.58140
  44    0.2165       45.9963        0.0008       63.1573       63.1581      17.161846       0.55773
  43    0.2613       45.9963        0.0011       63.1542       63.1553      17.159014       0.53377
  42    0.3336       45.9963        0.0015       63.1493       63.1508      17.154495       0.52691
  41    0.4307       45.9963        0.0020       63.1431       63.1451      17.148831       0.49248
  40    0.5894       45.9965        0.0029       63.1338       63.1367      17.140224       0.45772
  39     1.339       45.9989        0.0070       63.0956       63.1025      17.103652       0.41173
  38     1.782       46.0015        0.0094       63.0740       63.0834      17.081875       0.41460
  37     2.292       46.0057        0.0122       63.0477       63.0598      17.054112       0.45983
  36     2.964       46.0129        0.0158       63.0095       63.0253      17.012396       0.52367
  35     3.853       46.0249        0.0206       62.9533       62.9739      16.948950       0.60211
  34     5.035       46.0433        0.0270       62.8725       62.8995      16.856250       0.66221
  33     6.613       46.0690        0.0356       62.7621       62.7976      16.728610       0.68236
  32     8.786       46.1024        0.0471       62.6182       62.6653      16.562886       0.64361
  31     11.80       46.1454        0.0635       62.4284       62.4918      16.346380       0.60615
  30     15.07       46.1861        0.0810       62.2426       62.3236      16.137555       0.53915
  29     18.79       46.2270        0.1008       62.0493       62.1501      15.923120       0.48619
  28     23.16       46.2691        0.1239       61.8424       61.9663      15.697295       0.43667
  27     28.12       46.3104        0.1502       61.6278       61.7781      15.467617       0.39044
  26     33.73       46.3472        0.1797       61.4177       61.5973      15.250182       0.32692
  25     40.54       46.3804        0.2152       61.1983       61.4135      15.033059       0.26936
  24     48.69       46.4097        0.2579       60.9680       61.2259      14.816194       0.22442
  23     57.69       46.4314        0.3048       60.7478       61.0526      14.621196       0.18278
  22     68.43       46.4459        0.3606       60.5202       60.8808      14.434872       0.14648
  21     81.20       46.4477        0.4271       60.2938       60.7209      14.273202       0.10683
  20     96.49       46.4355        0.5063       60.0643       60.5706      14.135069       0.07624
  19     114.6       46.4225        0.6010       59.8078       60.4088      13.986299       0.06947
  18     136.5       46.4005        0.7131       59.5157       60.2289      13.828412       0.06071
  17     162.9       46.3681        0.8463       59.1770       60.0234      13.655337       0.05532
  16     196.4       46.3130        1.0187       58.7604       59.7791      13.466107       0.04763
  15     218.7       46.2722        1.1317       58.4948       59.6265      13.354221       0.04248
  14     243.0       46.2259        1.2542       58.2089       59.4631      13.237259       0.04057
  13     269.0       46.1738        1.3868       57.9006       59.2874      13.113553       0.04013
  12     297.5       46.1163        1.5298       57.5668       59.0966      12.980294       0.03952
  11     328.5       46.0546        1.6840       57.2005       58.8845      12.829887       0.04090
  10     361.9       45.9896        1.8496       56.7963       58.6460      12.656341       0.04391
   9     398.1       45.9224        2.0274       56.3475       58.3749      12.452527       0.04748
   8     437.6       45.8552        2.2176       55.8422       58.0598      12.204612       0.05301
   7     480.5       45.7922        2.4203       55.2625       57.6829      11.890635       0.06166
   6     533.0       45.7302        2.6681       54.4972       57.1653      11.435143       0.07327
   5     589.8       45.6823        2.9320       53.6307       56.5627      10.880383       0.08234
   4     651.6       45.6572        3.2113       52.6606       55.8718      10.214661       0.09104
   3     718.7       45.6589        3.5062       51.6100       55.1162       9.457337       0.09517
   2     792.3       45.6930        3.8167       50.5019       54.3185       8.625525       0.09540
   1     891.5       45.8046        4.2267       49.0197       53.2464       7.441775       0.10073
   0    1013.0       46.0720        4.7035       47.2289       51.9323       5.860335       0.10981



 Wavenumbers: 16000. - 22650. cm-1, ATM      1
 LEVEL PRESSURE   UPWARD FLUX   DIFDOWN FLUX  DIRDOWN FLUX  DOWNWARD FLUX   NET FLUX    HEATING RATE
          mb          W/m2          W/m2          W/m2        W/m2          W/m2       degree/day
  51    .06700       88.1670        0.0000      100.7153      100.7153      12.548333       0.00000
  50    .07753       88.1669        0.0003      100.7147      100.7151      12.548210       0.09844
  49    .09103       88.1667        0.0008      100.7140      100.7148      12.548032       0.11165
  48    0.1069       88.1666        0.0013      100.7131      100.7144      12.547792       0.12732
  47    0.1255       88.1665        0.0018      100.7121      100.7139      12.547472       0.14513
  46    0.1487       88.1663        0.0025      100.7108      100.7133      12.547001       0.17197
  45    0.1794       88.1661        0.0035      100.7089      100.7124      12.546263       0.20248
  44    0.2165       88.1659        0.0047      100.7066      100.7112      12.545263       0.22756
  43    0.2613       88.1658        0.0060      100.7037      100.7097      12.543905       0.25583
  42    0.3336       88.1656        0.0083      100.6987      100.7070      12.541325       0.30085
  41    0.4307       88.1656        0.0113      100.6918      100.7030      12.537435       0.33818
  40    0.5894       88.1659        0.0162      100.6797      100.6959      12.530018       0.39446
  39     1.339       88.1736        0.0393      100.6095      100.6488      12.475225       0.61687
  38     1.782       88.1828        0.0529      100.5585      100.6113      12.428561       0.88841
  37     2.292       88.1978        0.0686      100.4903      100.5588      12.361032       1.11844
  36     2.964       88.2243        0.0892      100.3868      100.4759      12.251682       1.37268
  35     3.853       88.2687        0.1164      100.2306      100.3470      12.078280       1.64561
  34     5.035       88.3371        0.1524      100.0045      100.1569      11.819828       1.84627
  33     6.613       88.4333        0.2005       99.6939       99.8944      11.461145       1.91752
  32     8.786       88.5580        0.2652       99.2881       99.5532      10.995268       1.80930
  31     11.80       88.7181        0.3574       98.7496       99.1070      10.388872       1.69772
  30     15.07       88.8688        0.4561       98.2198       98.6759       9.807102       1.50202
  29     18.79       89.0199        0.5672       97.6651       98.2323       9.212449       1.34826
  28     23.16       89.1743        0.6965       97.0671       97.7636       8.589394       1.20479
  27     28.12       89.3250        0.8439       96.4406       97.2844       7.959393       1.07096
  26     33.73       89.4568        1.0083       95.8179       96.8262       7.369399       0.88707
  25     40.54       89.5731        1.2063       95.1548       96.3611       6.788017       0.72127
  24     48.69       89.6719        1.4441       94.4420       95.8861       6.214230       0.59378
  23     57.69       89.7403        1.7044       93.7416       95.4460       5.705655       0.47671
  22     68.43       89.7789        2.0132       92.9954       95.0086       5.229696       0.37417
  21     81.20       89.7658        2.3798       92.2231       94.6030       4.837168       0.25938
  20     96.49       89.6958        2.8148       91.4110       94.2258       4.530052       0.16951
  19     114.6       89.5857        3.3280       90.5070       93.8350       4.249254       0.13111
  18     136.5       89.4377        3.9314       89.4803       93.4117       3.973931       0.10587
  17     162.9       89.2463        4.6432       88.3022       92.9454       3.699145       0.08783
  16     196.4       88.9640        5.5563       86.8606       92.4170       3.453012       0.06195
  15     218.7       88.7669        6.1499       85.9492       92.0991       3.332200       0.04587
  14     243.0       88.5482        6.7896       84.9789       91.7685       3.220310       0.03881
  13     269.0       88.3068        7.4765       83.9493       91.4258       3.118939       0.03288
  12     297.5       88.0422        8.2115       82.8589       91.0705       3.028238       0.02690
  11     328.5       87.7564        8.9974       81.6982       90.6956       2.939198       0.02421
  10     361.9       87.4496        9.8339       80.4669       90.3009       2.851290       0.02224
   9     398.1       87.1211       10.7233       79.1611       89.8844       2.763262       0.02051
   8     437.6       86.7720       11.6659       77.7777       89.4437       2.671659       0.01959
   7     480.5       86.4027       12.6623       76.3136       88.9760       2.573248       0.01933
   6     533.0       85.9565       13.8693       74.5359       88.4052       2.448759       0.02003
   5     589.8       85.4872       15.1466       72.6469       87.7935       2.306291       0.02115
   4     651.6       84.9980       16.4923       70.6456       87.1379       2.139835       0.02276
   3     718.7       84.4900       17.9047       68.5367       86.4414       1.951430       0.02368
   2     792.3       83.9664       19.3787       66.3287       85.7074       1.740965       0.02414
   1     891.5       83.2971       21.3060       63.4246       84.7306       1.433523       0.02616
   0    1013.0       82.5545       23.5266       60.0483       83.5749       1.020421       0.02868



 Wavenumbers: 22650. - 29000. cm-1, ATM      1
 LEVEL PRESSURE   UPWARD FLUX   DIFDOWN FLUX  DIRDOWN FLUX  DOWNWARD FLUX   NET FLUX    HEATING RATE
          mb          W/m2          W/m2          W/m2        W/m2          W/m2       degree/day
  51    .06700       37.6246        0.0000       38.0063       38.0063       0.381672       0.00000
  50    .07753       37.6245        0.0004       38.0057       38.0061       0.381672       0.00000
  49    .09103       37.6243        0.0009       38.0050       38.0059       0.381672       0.00000
  48    0.1069       37.6240        0.0015       38.0042       38.0057       0.381672      -0.00000
  47    0.1255       37.6238        0.0021       38.0033       38.0055       0.381672       0.00000
  46    0.1487       37.6235        0.0030       38.0022       38.0051       0.381672       0.00000
  45    0.1794       37.6230        0.0041       38.0006       38.0047       0.381672       0.00000
  44    0.2165       37.6225        0.0054       37.9987       38.0041       0.381672       0.00000
  43    0.2613       37.6218        0.0070       37.9965       38.0035       0.381672       0.00000
  42    0.3336       37.6208        0.0096       37.9928       38.0025       0.381672      -0.00000
  41    0.4307       37.6194        0.0131       37.9880       38.0011       0.381672      -0.00000
  40    0.5894       37.6172        0.0188       37.9800       37.9989       0.381672       0.00000
  39     1.339       37.6066        0.0458       37.9425       37.9882       0.381672       0.00000
  38     1.782       37.6003        0.0616       37.9204       37.9820       0.381672      -0.00000
  37     2.292       37.5931        0.0799       37.8949       37.9748       0.381672       0.00000
  36     2.964       37.5836        0.1039       37.8614       37.9653       0.381672       0.00000
  35     3.853       37.5711        0.1356       37.8172       37.9528       0.381672      -0.00000
  34     5.035       37.5545        0.1776       37.7586       37.9362       0.381672       0.00000
  33     6.613       37.5324        0.2338       37.6803       37.9141       0.381672       0.00000
  32     8.786       37.5026        0.3092       37.5750       37.8843       0.381672       0.00000
  31     11.80       37.4601        0.4169       37.4249       37.8418       0.381672       0.00000
  30     15.07       37.4146        0.5322       37.2642       37.7963       0.381672      -0.00000
  29     18.79       37.3635        0.6618       37.0833       37.7451       0.381672       0.00000
  28     23.16       37.3040        0.8126       36.8730       37.6856       0.381672       0.00000
  27     28.12       37.2363        0.9842       36.6338       37.6179       0.381672      -0.00000
  26     33.73       37.1610        1.1749       36.3677       37.5426       0.381672       0.00000
  25     40.54       37.0706        1.4038       36.0486       37.4523       0.381672      -0.00000
  24     48.69       36.9627        1.6771       35.6672       37.3444       0.381672      -0.00000
  23     57.69       36.8454        1.9743       35.2527       37.2270       0.381672       0.00000
  22     68.43       36.7073        2.3240       34.7649       37.0889       0.381672       0.00000
  21     81.20       36.5451        2.7345       34.1922       36.9268       0.381672      -0.00000
  20     96.49       36.3552        3.2152       33.5217       36.7369       0.381672       0.00000
  19     114.6       36.1345        3.7738       32.7424       36.5161       0.381672       0.00000
  18     136.5       35.8792        4.4193       31.8416       36.2609       0.381672       0.00000
  17     162.9       35.5843        5.1651       30.8008       35.9659       0.381672      -0.00000
  16     196.4       35.2156        6.0966       29.5007       35.5973       0.381672       0.00000
  15     218.7       34.9819        6.6869       28.6767       35.3636       0.381672      -0.00000
  14     243.0       34.7351        7.3100       27.8068       35.1168       0.381672       0.00000
  13     269.0       34.4758        7.9641       26.8933       34.8575       0.381672       0.00000
  12     297.5       34.2049        8.6473       25.9393       34.5866       0.381672       0.00000
  11     328.5       33.9224        9.3590       24.9451       34.3041       0.381672       0.00000
  10     361.9       33.6299       10.0956       23.9160       34.0116       0.381672       0.00000
   9     398.1       33.3279       10.8554       22.8541       33.7096       0.381672      -0.00000
   8     437.6       33.0177       11.6350       21.7645       33.3994       0.381672       0.00000
   7     480.5       32.7009       12.4304       20.6521       33.0826       0.381672      -0.00000
   6     533.0       32.3316       13.3564       19.3569       32.7133       0.381672       0.00000
   5     589.8       31.9576       14.2926       18.0467       32.3393       0.381672      -0.00000
   4     651.6       31.5817       15.2318       16.7316       31.9634       0.381672       0.00000
   3     718.7       31.2066       16.1669       15.4214       31.5883       0.381672      -0.00000
   2     792.3       30.8356       17.0896       14.1276       31.2172       0.381672       0.00000
   1     891.5       30.3808       18.2165       12.5459       30.7625       0.381672       0.00000
   0    1013.0       29.8977       19.4076       10.8717       30.2793       0.381672       0.00000



 Wavenumbers: 29000. - 38000. cm-1, ATM      1
 LEVEL PRESSURE   UPWARD FLUX   DIFDOWN FLUX  DIRDOWN FLUX  DOWNWARD FLUX   NET FLUX    HEATING RATE
          mb          W/m2          W/m2          W/m2        W/m2          W/m2       degree/day
  51    .06700        5.3722        0.0000       13.4026       13.4026       8.030418       0.00000
  50    .07753        5.3720        0.0003       13.3983       13.3986       8.026619       3.04484
  49    .09103        5.3717        0.0007       13.3921       13.3928       8.021099       3.45018
  48    0.1069        5.3714        0.0011       13.3840       13.3851       8.013721       3.92736
  47    0.1255        5.3711        0.0016       13.3733       13.3749       8.003875       4.46387
  46    0.1487        5.3706        0.0022       13.3579       13.3601       7.989430       5.26521
  45    0.1794        5.3701        0.0031       13.3340       13.3371       7.967027       6.15026
  44    0.2165        5.3694        0.0040       13.3024       13.3064       7.937003       6.82990
  43    0.2613        5.3687        0.0052       13.2604       13.2656       7.896942       7.55141
  42    0.3336        5.3675        0.0071       13.1833       13.1904       7.822922       8.62999
  41    0.4307        5.3660        0.0096       13.0729       13.0825       7.716529       9.25060
  40    0.5894        5.3637        0.0135       12.8796       12.8931       7.529446       9.94886
  39     1.339        5.3557        0.0300       11.9165       11.9465       6.590802      10.56742
  38     1.782        5.3528        0.0384       11.4399       11.4784       6.125564       8.85739
  37     2.292        5.3508        0.0475       10.9796       11.0271       5.676266       7.44155
  36     2.964        5.3501        0.0586       10.4786       10.5372       5.187052       6.14111
  35     3.853        5.3519        0.0723        9.9429       10.0152       4.663280       4.97069
  34     5.035        5.3569        0.0894        9.4007        9.4901       4.133196       3.78670
  33     6.613        5.3655        0.1112        8.8752        8.9864       3.620936       2.73854
  32     8.786        5.3771        0.1393        8.3786        8.5179       3.140774       1.86478
  31     11.80        5.3917        0.1779        7.8897        8.0676       2.675934       1.30141
  30     15.07        5.4047        0.2178        7.5108        7.7286       2.323919       0.90883
  29     18.79        5.4173        0.2613        7.1776        7.4389       2.021615       0.68542
  28     23.16        5.4296        0.3103        6.8664        7.1768       1.747194       0.53064
  27     28.12        5.4406        0.3646        6.5780        6.9426       1.501981       0.41685
  26     33.73        5.4478        0.4238        6.3195        6.7433       1.295422       0.31057
  25     40.54        5.4503        0.4937        6.0663        6.5599       1.109626       0.23050
  24     48.69        5.4476        0.5756        5.8128        6.3884       0.940889       0.17462
  23     57.69        5.4391        0.6632        5.5777        6.2409       0.801796       0.13038
  22     68.43        5.4230        0.7646        5.3379        6.1025       0.679486       0.09615
  21     81.20        5.3949        0.8825        5.0965        5.9789       0.584037       0.06307
  20     96.49        5.3536        1.0188        4.8476        5.8664       0.512778       0.03933
  19     114.6        5.3028        1.1735        4.5799        5.7534       0.450585       0.02904
  18     136.5        5.2437        1.3468        4.2891        5.6358       0.392115       0.02248
  17     162.9        5.1765        1.5395        3.9732        5.5126       0.336178       0.01788
  16     196.4        5.0909        1.7711        3.6080        5.3791       0.288161       0.01209
  15     218.7        5.0371        1.9126        3.3898        5.3023       0.265211       0.00871
  14     243.0        4.9815        2.0572        3.1686        5.2258       0.244328       0.00724
  13     269.0        4.9242        2.2040        2.9461        5.1501       0.225846       0.00600
  12     297.5        4.8659        2.3518        2.7239        5.0757       0.209796       0.00476
  11     328.5        4.8074        2.4992        2.5029        5.0021       0.194660       0.00412
  10     361.9        4.7492        2.6451        2.2846        4.9297       0.180464       0.00359
   9     398.1        4.6918        2.7882        2.0708        4.8590       0.167204       0.00309
   8     437.6        4.6356        2.9277        1.8626        4.7902       0.154599       0.00270
   7     480.5        4.5813        3.0620        1.6621        4.7241       0.142789       0.00232
   6     533.0        4.5218        3.2082        1.4437        4.6519       0.130085       0.00204
   5     589.8        4.4660        3.3449        1.2390        4.5839       0.117944       0.00180
   4     651.6        4.4144        3.4706        1.0500        4.5206       0.106202       0.00161
   3     718.7        4.3676        3.5846        0.8778        4.4624       0.094819       0.00143
   2     792.3        4.3259        3.6859        0.7237        4.4096       0.083773       0.00127
   1     891.5        4.2810        3.7949        0.5563        4.3512       0.070244       0.00115
   0    1013.0        4.2411        3.8926        0.4039        4.2965       0.055410       0.00103



 Wavenumbers: 38000. - 50000. cm-1, ATM      1
 LEVEL PRESSURE   UPWARD FLUX   DIFDOWN FLUX  DIRDOWN FLUX  DOWNWARD FLUX   NET FLUX    HEATING RATE
          mb          W/m2          W/m2          W/m2        W/m2          W/m2       degree/day
  51    .06700        0.0051        0.0000        0.8267        0.8267       0.821528       0.00000
  50    .07753        0.0051        0.0001        0.8242        0.8243       0.819196       1.86936
  49    .09103        0.0050        0.0002        0.8207        0.8209       0.815872       2.07705
  48    0.1069        0.0049        0.0002        0.8162        0.8164       0.811514       2.31984
  47    0.1255        0.0048        0.0004        0.8103        0.8106       0.805801       2.59006
  46    0.1487        0.0047        0.0005        0.8018        0.8023       0.797567       3.00143
  45    0.1794        0.0045        0.0007        0.7889        0.7896       0.785013       3.44648
  44    0.2165        0.0044        0.0009        0.7720        0.7729       0.768507       3.75474
  43    0.2613        0.0042        0.0011        0.7500        0.7511       0.746955       4.06246
  42    0.3336        0.0039        0.0015        0.7106        0.7121       0.708267       4.51071
  41    0.4307        0.0035        0.0019        0.6566        0.6584       0.654972       4.63387
  40    0.5894        0.0029        0.0024        0.5680        0.5704       0.567464       4.65357
  39     1.339        0.0015        0.0030        0.2422        0.2452       0.243720       3.64476
  38     1.782        0.0010        0.0026        0.1493        0.1519       0.150889       1.76735
  37     2.292        0.0007        0.0022        0.0924        0.0946       0.093932       0.94336
  36     2.964        0.0005        0.0018        0.0539        0.0557       0.055224       0.48589
  35     3.853        0.0003        0.0013        0.0295        0.0308       0.030502       0.23462
  34     5.035        0.0002        0.0010        0.0154        0.0164       0.016181       0.10230
  33     6.613        0.0001        0.0007        0.0073        0.0080       0.007912       0.04420
  32     8.786        0.0000        0.0004        0.0030        0.0034       0.003390       0.01756
  31     11.80        0.0000        0.0003        0.0010        0.0012       0.001199       0.00613
  30     15.07        0.0000        0.0001        0.0003        0.0005       0.000463       0.00190
  29     18.79        0.0000        0.0001        0.0001        0.0002       0.000182       0.00064
  28     23.16        0.0000        0.0000        0.0000        0.0001       0.000071       0.00022
  27     28.12        0.0000        0.0000        0.0000        0.0000       0.000028       0.00007
  26     33.73        0.0000        0.0000        0.0000        0.0000       0.000011       0.00002
  25     40.54        0.0000        0.0000        0.0000        0.0000       0.000005       0.00001
  24     48.69        0.0000        0.0000        0.0000        0.0000       0.000002       0.00000
  23     57.69        0.0000        0.0000        0.0000        0.0000       0.000001       0.00000
  22     68.43        0.0000        0.0000        0.0000        0.0000       0.000000       0.00000
  21     81.20        0.0000        0.0000        0.0000        0.0000       0.000000       0.00000
  20     96.49        0.0000        0.0000        0.0000        0.0000       0.000000       0.00000
  19     114.6        0.0000        0.0000        0.0000        0.0000       0.000000       0.00000
  18     136.5        0.0000        0.0000        0.0000        0.0000       0.000000       0.00000
  17     162.9        0.0000        0.0000        0.0000        0.0000       0.000000       0.00000
  16     196.4        0.0000        0.0000        0.0000        0.0000       0.000000       0.00000
  15     218.7        0.0000        0.0000        0.0000        0.0000       0.000000       0.00000
  14     243.0        0.0000        0.0000        0.0000        0.0000       0.000000       0.00000
  13     269.0        0.0000        0.0000        0.0000        0.0000       0.000000       0.00000
  12     297.5        0.0000        0.0000        0.0000        0.0000       0.000000       0.00000
  11     328.5        0.0000        0.0000        0.0000        0.0000       0.000000       0.00000
  10     361.9        0.0000        0.0000        0.0000        0.0000       0.000000       0.00000
   9     398.1        0.0000        0.0000        0.0000        0.0000       0.000000       0.00000
   8     437.6        0.0000        0.0000        0.0000        0.0000       0.000000       0.00000
   7     480.5        0.0000        0.0000        0.0000        0.0000       0.000000       0.00000
   6     533.0        0.0000        0.0000        0.0000        0.0000       0.000000       0.00000
   5     589.8        0.0000        0.0000        0.0000        0.0000       0.000000       0.00000
   4     651.6        0.0000        0.0000        0.0000        0.0000       0.000000       0.00000
   3     718.7        0.0000        0.0000        0.0000        0.0000       0.000000       0.00000
   2     792.3        0.0000        0.0000        0.0000        0.0000       0.000000       0.00000
   1     891.5        0.0000        0.0000        0.0000        0.0000       0.000000       0.00000
   0    1013.0        0.0000        0.0000        0.0000        0.0000       0.000000       0.00000



 Wavenumbers:   820. -  2600. cm-1, ATM      1
 LEVEL PRESSURE   UPWARD FLUX   DIFDOWN FLUX  DIRDOWN FLUX  DOWNWARD FLUX   NET FLUX    HEATING RATE
          mb          W/m2          W/m2          W/m2        W/m2          W/m2       degree/day
  51    .06700        0.4924        0.0000        3.8670        3.8670       3.374620       0.00000
  50    .07753        0.4924        0.0000        3.8643        3.8643       3.371903       2.17770
  49    .09103        0.4924        0.0000        3.8635        3.8635       3.371093       0.50638
  48    0.1069        0.4924        0.0000        3.8626        3.8626       3.370202       0.47415
  47    0.1255        0.4924        0.0000        3.8616        3.8616       3.369241       0.43560
  46    0.1487        0.4924        0.0000        3.8605        3.8605       3.368132       0.40438
  45    0.1794        0.4924        0.0000        3.8592        3.8592       3.366797       0.36648
  44    0.2165        0.4924        0.0000        3.8578        3.8578       3.365419       0.31346
  43    0.2613        0.4924        0.0000        3.8564        3.8564       3.363959       0.27522
  42    0.3336        0.4924        0.0000        3.8541        3.8541       3.361728       0.26013
  41    0.4307        0.4924        0.0000        3.8512        3.8512       3.358845       0.25063
  40    0.5894        0.4924        0.0000        3.8465        3.8465       3.354119       0.25134
  39     1.339        0.4924        0.0000        3.8251        3.8251       3.332743       0.24065
  38     1.782        0.4924        0.0000        3.8133        3.8133       3.320930       0.22490
  37     2.292        0.4924        0.0000        3.8003        3.8003       3.307869       0.21633
  36     2.964        0.4924        0.0000        3.7841        3.7841       3.291739       0.20247
  35     3.853        0.4924        0.0000        3.7642        3.7642       3.271824       0.18900
  34     5.035        0.4924        0.0000        3.7395        3.7395       3.247132       0.17639
  33     6.613        0.4924        0.0000        3.7090        3.7090       3.216595       0.16325
  32     8.786        0.4924        0.0000        3.6726        3.6726       3.180201       0.14134
  31     11.80        0.4924        0.0000        3.6320        3.6320       3.139604       0.11366
  30     15.07        0.4924        0.0000        3.6016        3.6016       3.109218       0.07845
  29     18.79        0.4924        0.0000        3.5777        3.5777       3.085317       0.05419
  28     23.16        0.4924        0.0000        3.5564        3.5564       3.063960       0.04130
  27     28.12        0.4924        0.0000        3.5348        3.5348       3.042410       0.03663
  26     33.73        0.4924        0.0000        3.5118        3.5118       3.019372       0.03464
  25     40.54        0.4925        0.0000        3.4849        3.4849       2.992479       0.03336
  24     48.69        0.4925        0.0000        3.4537        3.4537       2.961220       0.03235
  23     57.69        0.4925        0.0000        3.4210        3.4210       2.928538       0.03063
  22     68.43        0.4925        0.0000        3.3844        3.3844       2.891943       0.02877
  21     81.20        0.4925        0.0000        3.3441        3.3441       2.851632       0.02664
  20     96.49        0.4925        0.0000        3.2998        3.2998       2.807253       0.02449
  19     114.6        0.4926        0.0000        3.2506        3.2506       2.758086       0.02296
  18     136.5        0.4926        0.0000        3.1936        3.1936       2.701010       0.02195
  17     162.9        0.4927        0.0000        3.1181        3.1181       2.625461       0.02415
  16     196.4        0.4928        0.0000        3.0090        3.0090       2.516182       0.02751
  15     218.7        0.4929        0.0000        2.9420        2.9420       2.449109       0.02547
  14     243.0        0.4930        0.0000        2.8605        2.8605       2.367444       0.02832
  13     269.0        0.4933        0.0000        2.7419        2.7420       2.248683       0.03853
  12     297.5        0.4937        0.0000        2.5729        2.5729       2.079173       0.05027
  11     328.5        0.4944        0.0000        2.3602        2.3602       1.865791       0.05802
  10     361.9        0.4955        0.0000        2.1524        2.1524       1.656937       0.05284
   9     398.1        0.4971        0.0000        1.9974        1.9974       1.500348       0.03648
   8     437.6        0.4993        0.0000        1.8835        1.8835       1.384189       0.02484
   7     480.5        0.5026        0.0000        1.7734        1.7734       1.270806       0.02227
   6     533.0        0.5082        0.0000        1.6397        1.6398       1.131587       0.02240
   5     589.8        0.5162        0.0000        1.5068        1.5069       0.990669       0.02092
   4     651.6        0.5282        0.0000        1.3807        1.3807       0.852577       0.01888
   3     718.7        0.5440        0.0000        1.2680        1.2681       0.724025       0.01616
   2     792.3        0.5636        0.0000        1.1659        1.1660       0.602434       0.01395
   1     891.5        0.5964        0.0000        1.0372        1.0373       0.440892       0.01375
   0    1013.0        0.6560        0.0000        0.8716        0.8717       0.215651       0.01564

  Modules and versions used in this calculation:

       rrtmg_sw.1col.f90:  $Revision$                    rrtmg_sw_init.f90:  $Revision$        
     rrtmgsw_cldprop.f90:  $Revision$                  rrtmgsw_cldprmc.f90:  NOT USED          
     rrtmg_sw_reftra.f90:  $Revision$                  rrtmg_sw_spcvrt.f90:  NOT USED          
     rrtmg_sw_spcvmc.f90:  NOT USED                    rrtmgsw_setcoef.f90:  NOT USED          
     rrtmg_sw_taumol.f90:  $Revision$                  rrtmg_sw_vrtqdr.f90:  NOT USED          
                rrtatm.f:  NOT USED                             util_xxx.f:  NOT USED          
                 extra.f:  NOT USED                       rrtmg_sw_k_g.f90:  $Revision$        

